#   1 NUMBER                 Running object number                                     
#   2 X_IMAGE                Object position along x                                    [pixel]
#   3 Y_IMAGE                Object position along y                                    [pixel]
#   4 ALPHA_J2000            Right ascension of barycenter (J2000)                      [deg]
#   5 DELTA_J2000            Declination of barycenter (J2000)                          [deg]
#   6 FLUX_APER              Flux vector within fixed circular aperture(s)              [count]
#   7 FLUXERR_APER           RMS error vector for aperture flux(es)                     [count]
#   8 FLUX_RADIUS            Fraction-of-light radii                                    [pixel]
#   9 FWHM_IMAGE             FWHM assuming a gaussian core                              [pixel]
#  10 BACKGROUND             Background at centroid position                            [count]
#  11 THRESHOLD              Detection threshold above background                       [count]
#  12 FLUX_MAX               Peak flux above background                                 [count]
#  13 ISOAREA_IMAGE          Isophotal area above Analysis threshold                    [pixel**2]
#  14 A_IMAGE                Profile RMS along major axis                               [pixel]
#  15 B_IMAGE                Profile RMS along minor axis                               [pixel]
#  16 THETA_IMAGE            Position angle (CCW/x)                                     [deg]
#  17 FLAGS                  Extraction flags                                          
         1    166.2306     13.4115 300.2354308 +22.4423837     1802.698     69.34595      1.374     2.48    -8.564919      19.5646     217.4118        20     1.073     0.947  31.41   0
         2    282.2587      5.7206 300.2739931 +22.4749518     548.9153     69.38126      1.338     3.48    -8.375187      19.5646     72.73281        12     1.038     0.800 -75.29  16
         3    727.8161      5.5430 300.4127266 +22.6083723     501.6827     69.32828      1.194     2.32    -8.440809      19.5646     60.03765         6     0.735     0.498   0.66   0
         4    765.2104      1.3825 300.4257265 +22.6183723     211.6051     54.10593      1.028     2.61    -8.309451      19.5646     39.44057         5     0.710     0.459  17.10  24
         5    194.9589   1017.0483 299.9182641 +22.7389088     783.8034     69.38126      3.015     8.82     25.52543      19.5646     35.53647        13     1.715     1.265 -11.64  16
         6     58.7910    938.6404 299.9014859 +22.6755388     1735.774     69.34595     14.459    19.65    -7.314971      19.5646     42.80865        72     3.655     2.936 -57.39   3
         7     73.4893    932.6498 299.9080008 +22.6782378     1948.108     69.34595     20.957    28.93    -7.070229      19.5646     53.58617       166     6.981     3.328  -0.99   3
         8     72.4140    919.2398 299.9120312 +22.6740725      1962.44      69.3636     16.332    29.21    -8.758852      19.5646     50.31677       182     7.267     3.260 -24.33   3
         9     71.6323    966.2053 299.8965020 +22.6872938     2427.349     69.32828     27.562    82.76    0.7843345      19.5646     69.64645      1454    16.033    11.854 -75.59  19
        10    634.5848    993.9030 300.0625494 +22.8642681     4583.022     69.25757      1.217     1.90    -12.84527      19.5646     745.7852        27     1.035     0.950 -63.28   2
        11    542.6215   1001.0446 300.0315961 +22.8387150     1168.184     69.39891      1.216     1.99    -13.76233      19.5646     190.9451        14     0.914     0.750 -69.72   0
        12    132.0642   1017.2318 299.8986622 +22.7200678     862.0076     69.34594      3.190     6.73     24.76186      19.5646     34.33472         8     1.532     0.830 -59.12  17
        13    729.3890    996.8916 300.0911007 +22.8935738     347.5758     69.29293      1.197     3.24    -13.55553      19.5646     72.26545         7     1.033     0.569  48.00   0
        14    162.1664    988.2867 299.9174383 +22.7208173     953.8597     69.31061      4.938     9.72     14.98269      19.5646     36.64627        20     1.890     1.395  29.46   0
        15     76.7603   1012.5286 299.8830143 +22.7021053     2891.241     69.32828     15.412    45.27     14.23485      19.5646     67.87747       576     8.125     6.999  74.49  27
        16    224.3549    977.1690 299.9403830 +22.7363103     1764.821     69.39891      8.504    14.78     9.330849      19.5646     53.51463        54     3.024     2.009  55.10   3
        17    629.0397    996.1863 300.0600794 +22.8632589     4042.628      69.3636      1.229     1.89    -12.84527      19.5646     728.3267        27     1.058     1.004 -59.18   3
        18    922.2422    979.4039 300.1568923 +22.9464082     341.3324      69.3636      1.218     4.19    -13.63797      19.5646     54.54914         9     1.146     0.673 -55.63   0
        19    166.0498   1005.1523 299.9131541 +22.7268163     777.0033     69.38126      4.363     4.27     21.02312      19.5646     50.42162         5     1.324     0.393 -38.63   3
        20    167.8056   1000.9822 299.9150573 +22.7261489     1060.826     69.31061      5.444     8.51     19.56977      19.5646     36.36502        13     1.905     1.062 -37.96   3
        21    225.3605   1009.6213 299.9301303 +22.7459124     408.0829     69.38126      1.371     5.15     22.84543      19.5646     62.98905         9     1.361     0.551 -19.15   0
        22    104.4770    968.1509 299.9060706 +22.6977183     616.7756     69.34594      4.341     4.82       7.3569      19.5646     43.00777         5     1.059     0.623   6.22   1
        23     97.4502   1021.8936 299.8863917 +22.7110043     2284.469     62.66538      8.222    26.61     25.81945      19.5646     67.05627       178     7.000     2.808   2.69  27
        24    113.3779    966.9396 299.9092299 +22.7000451     468.4542     69.31061      4.941     4.63     7.095473      19.5646     28.72218         5     1.079     0.564  18.73   0
        25    647.3752    963.3319 300.0764850 +22.8593372     3273.876     69.32828      1.218     2.22    -12.84527      19.5646      470.417        24     1.015     0.949  17.60   0
        26    166.7774   1009.4778 299.9119719 +22.7282742     1340.048     69.31061      6.054     9.06     22.46136      19.5646     39.89766        17     2.333     0.982 -52.70  19
        27    350.3166   1007.9186 299.9695315 +22.7829514     244.4539     69.46947      1.344     3.46    -12.62679      19.5646     39.42528         6     0.873     0.780 -43.90   0
        28    206.2273   1001.7303 299.9267532 +22.7379042     1319.748     69.34595      9.865    12.85     19.68532      19.5646      44.2205        34     2.416     1.901 -63.30   3
        29    526.4717    957.7508 300.0406649 +22.8214519     232.2679     69.32828      1.072     3.08    -13.28689      19.5646     37.99662         6     0.708     0.661   8.90   0
        30     97.1680    948.6603 299.9101445 +22.6899382     1286.535     69.38126      8.553     8.63    0.7717012      19.5646     36.46206        10     2.165     0.961 -34.80   3
        31    106.0896    949.0211 299.9127984 +22.6927216      1244.85     69.27525     11.873    11.42    0.8237131      19.5646     41.68177        25     2.086     1.740  89.33   2
        32    215.7061    993.7050 299.9323117 +22.7384515     2411.374     69.50473     10.862    25.68     16.39946      19.5646     61.55577       150     4.534     4.038 -10.83   3
        33    380.3517    948.6406 299.9981703 +22.7749762     3129.386     69.39891      1.170     2.16    -12.83038      19.5646     428.4922        21     0.980     0.914 -68.39   0
        34    163.1666   1009.0486 299.9109897 +22.7270666      896.895     69.38126      8.362    13.58     22.46317      19.5646     36.49209        17     2.424     2.115 -38.22  19
        35    449.6709    950.7095 300.0190595 +22.7963796     598.4891     69.50473      1.156     2.54    -13.05747      19.5646     84.73758        10     0.954     0.649  16.62   0
        36    555.8353    953.9135 300.0510531 +22.8291645     577.2532     69.32828      1.151     1.85    -13.17436      19.5646     145.1658        11     0.910     0.733  29.10   0
        37    102.5204    954.1548 299.9100187 +22.6931203     995.7597     69.32828      3.184     3.47      2.52772      19.5646      34.7132         5     0.806     0.432 -68.42   1
        38    173.0157   1010.5620 299.9135573 +22.7304588     1069.052     69.34595      5.699     7.86     23.19001      19.5646     40.43654        13     1.433     1.206  11.42   3
        39    926.4556    927.1215 300.1752267 +22.9326648     1028.731     69.38126      1.121     1.96    -13.46516      19.5646     171.5202        15     0.872     0.855  58.35   0
        40    715.4256    916.1322 300.1130424 +22.8662138     323.6769     69.32828      1.382     4.33    -12.82225      19.5646     47.33051         7     1.365     0.484  57.76   0
        41    236.1490    985.1498 299.9414506 +22.7421397     4055.372     69.38126      7.258    29.48     8.273064      19.5646     99.05094       281     7.888     3.324  66.69  18
        42    750.2241    910.2900 300.1257838 +22.8749767      435.344     69.27525      1.080     2.17     -12.8939      19.5646     92.18469         8     0.810     0.611  -5.76   0
        43    772.4505    903.9879 300.1347594 +22.8798355     5525.688     69.38126      1.144     1.85    -13.00387      19.5646      965.704        28     1.001     0.923 -59.82   0
        44    196.0534    995.2410 299.9257041 +22.7329888     1968.177     69.32828      6.967    15.68     17.05182      19.5646     58.92084        65     2.759     2.477 -25.59   3
        45    780.8512    886.1071 300.1431964 +22.8772238     723.1252     69.41656      1.270     2.14    -12.89705      19.5646     139.2703        13     0.968     0.853  72.94   0
        46    964.1497    884.8431 300.2007407 +22.9318303     241.5528     69.38126      1.237     3.69    -12.96927      19.5646     46.08043         6     0.957     0.602 -78.88   0
        47    633.2153    883.3679 300.0981041 +22.8321484      224.608     69.32828      0.943     1.94    -12.80905      19.5646     46.91982         5     0.677     0.455  18.65   0
        48    819.1302    879.5767 300.1572493 +22.8868306     395.8105      69.3636      1.101     1.79    -12.90869      19.5646     63.10354         6     0.695     0.490   6.94   0
        49    867.5861    870.7972 300.1752080 +22.8988426     284.9626     69.18679      1.062     2.89     -12.8545      19.5646     50.31306         5     0.725     0.450  69.46   0
        50    719.0411    869.5508 300.1293290 +22.8539319     320.1165      69.3636      1.111     2.71    -12.73527      19.5646      59.9638         8     0.854     0.609 -47.07   0
        51    730.3187    866.9321 300.1336941 +22.8565634     234.7379     69.45184      0.985     2.72     -12.7137      19.5646     55.57114         7     0.849     0.528  59.38   0
        52    431.4662    866.3051 300.0408666 +22.7667109     1907.447     69.46947      1.127     2.13    -12.88611      19.5646     292.1459        16     0.908     0.810 -65.21   0
        53    156.8145    852.1288 299.9600892 +22.6801895     583.0306     69.34594      1.530     5.07    -12.03954      19.5646     60.45578        10     0.994     0.831  24.86   0
        54    133.8676    849.0104 299.9539742 +22.6724046     784.7708     69.34594      1.213     2.22     -12.1066      19.5646      128.216        11     0.868     0.713   4.70   0
        55   1005.5002    837.8973 300.2289136 +22.9307475     927.9847     69.53997      1.137     2.20    -12.81397      19.5646     160.5398        10     0.852     0.653 -35.79   0
        56    959.7410    836.3560 300.2151453 +22.9165867     1067.382      69.3636      1.146     2.23    -12.81972      19.5646     172.1815        15     0.917     0.815 -88.49   0
        57    665.2887    836.7755 300.1232531 +22.8284020     214.6473     69.29293      1.344     3.97    -12.53588      19.5646     36.00937         5     0.977     0.461 -43.80   0
        58    743.3931    830.5318 300.1496116 +22.8500384     378.2766     69.31061      1.289     3.91    -12.40592      19.5646     52.16185         7     1.024     0.516 -47.38   0
        59    611.4028    824.4034 300.1104998 +22.8086863     2110.923     69.13366      1.067     1.83    -12.41718      19.5646     406.0482        16     0.880     0.808  69.74   0
        60    100.6350    824.8475 299.9515113 +22.6554990     388.6297     69.38126      1.959     5.50    -12.25056      19.5646     39.09547         7     1.349     0.632   8.48   0
        61    161.6533    818.2533 299.9726139 +22.6719325     605.9623     69.38126      1.148     2.24    -12.22535      19.5646     94.32256        10     0.852     0.666  40.04   0
        62    631.9463    816.7514 300.1193858 +22.8126537     433.7516     69.38126      1.074     1.72    -12.35199      19.5646      95.6488         7     0.641     0.636 -75.78   0
        63    787.4135    804.0854 300.1719309 +22.8556499     1986.732     69.29293      1.092     1.86    -12.21333      19.5646     354.7232        17     0.980     0.769  53.29   0
        64   1004.4379    804.1089 300.2395764 +22.9207258     675.0736     69.32828      1.342     2.63    -12.82336      19.5646     89.49803        13     0.944     0.826  77.96   0
        65    195.9471    798.2461 299.9897792 +22.6764941      288.768     69.38126      1.287     4.73    -12.33573      19.5646     30.83755         7     1.066     0.595  22.22   0
        66    504.2442    796.7450 300.0861431 +22.7685996      234.628      69.3636      1.340     3.17    -12.25641      19.5646     54.09177         5     0.846     0.439 -45.30   0
        67    150.7673    794.7048 299.9768918 +22.6619134     585.2921     69.32828      1.302     2.27    -12.32217      19.5646     81.21504        10     0.822     0.723 -38.38   0
        68    300.5368    786.7611 300.0260264 +22.7045999     26168.01     69.34595      1.174     1.98    -12.25835      19.5646      3901.82        63     1.152     1.084 -86.17   0
        69    565.9575    789.8710 300.1075869 +22.7851437     187.4015     69.31061      0.850     2.10    -12.15345      19.5646     55.94347         5     0.739     0.476 -60.31   0
        70    558.1353    785.6312 300.1065312 +22.7815805     760.1373     69.34594      1.117     2.08    -12.13878      19.5646     130.6353        14     1.048     0.750  63.87   0
        71    971.5405    784.7924 300.2356016 +22.9053170     444.0967     69.31061      1.120     2.17    -12.65609      19.5646     91.50494         9     0.819     0.701   4.85   0
        72    587.2769    781.7877 300.1168531 +22.7892204     348.4536      69.3636      0.974     1.66    -12.12894      19.5646      93.8271         6     0.672     0.510 -45.22   0
        73    598.2783    779.8051 300.1209229 +22.7919519     293.6748     69.25757      1.155     2.51    -12.12262      19.5646     45.18942         6     0.728     0.550 -43.27   0
        74    741.4890    766.6551 300.1697997 +22.8311330     280.6579     69.38126      1.001     2.35    -12.04617      19.5646     66.16164         6     0.669     0.639 -32.98   0
        75    350.2255    763.9843 300.0488859 +22.7129821     15359.81      69.3636      1.215     1.95     -12.1677      19.5646      2662.57        52     1.126     1.060 -78.97   0
        76    364.3776    764.4462 300.0531370 +22.7173621     957.3682     69.38126      1.079     2.04    -12.16229      19.5646     132.4252        11     0.789     0.715 -74.43   0
        77    873.2418    759.7429 300.2131040 +22.8686550     1370.001     69.32828      1.111     1.93    -12.27414      19.5646     262.6711        13     0.894     0.708  89.67   0
        78    902.3644    757.7688 300.2228243 +22.8768192     217.2119      69.3636      1.063     3.39    -12.36621      19.5646     28.69323         5     0.752     0.443 -71.98   0
        79    361.3766    758.0341 300.0542893 +22.7146223     343.5132      69.3636      1.134     3.87    -12.12765      19.5646     48.91416         6     0.968     0.444  76.94   0
        80    631.1454    755.7992 300.1389648 +22.7949222     522.6505     69.27525      1.297     2.17    -12.02968      19.5646     94.03915         9     0.861     0.621 -12.08   0
        81    232.7460    755.6197 300.0150814 +22.6753204     290.9688     69.32828      1.109     2.52    -12.29572      19.5646     60.10333         7     0.866     0.529  56.38   0
        82     37.3470    751.3485 299.9557614 +22.6154271     296.1416     69.38126      1.126     3.40    -12.31163      19.5646     41.23128         5     0.919     0.439  13.29   0
        83    879.4852    747.5811 300.2190061 +22.8670347     264.2027     69.27525      1.198     4.25    -12.20718      19.5646     45.10564         8     0.962     0.773 -76.39   0
        84    857.3823    742.1829 300.2138725 +22.8588581      172.487     69.32828      0.979     3.72     -12.0993      19.5646     41.35536         6     0.917     0.577  25.46   0
        85    230.6760    739.7270 300.0196068 +22.6701419     376.8116     69.41656      1.588     4.46    -12.28781      19.5646     41.08613         8     1.005     0.580 -67.85   0
        86    523.3394    728.7809 300.1141925 +22.7548292     361.3112     69.29293      1.202     2.38    -11.92697      19.5646     44.26702         6     0.704     0.586  39.80   0
        87    545.1478    726.2804 300.1217934 +22.7606542     712.7565      69.3636      1.160     2.10    -11.88786      19.5646     118.1123        11     0.896     0.733  74.56   0
        88    939.6427    724.9589 300.2451184 +22.8785718     2225.744      69.4342      1.114     1.77    -12.11979      19.5646     424.8026        16     0.870     0.792 -79.53   0
        89    627.0065    720.5478 300.1491414 +22.7835637      275.501     69.34595      1.298     3.62    -11.84516      19.5646     30.77235         6     0.798     0.497  -2.12   0
        90    928.1158    716.3801 300.2443146 +22.8726528     718.6505     69.29293      1.031     1.98    -12.00352      19.5646     161.7818         9     0.782     0.638 -76.89   0
        91    291.3371    710.6689 300.0479141 +22.6800167     371.5758     69.39891      1.143     2.85    -11.85814      19.5646     69.00683         8     0.890     0.599  35.62   0
        92    959.2629    706.6428 300.2571932 +22.8791921     849.2834     69.34595      1.128     1.95    -11.83691      19.5646     144.8434        11     0.864     0.712 -84.77   0
        93    754.2910    707.6846 300.1929682 +22.8180432     1112.881     69.50473      1.132     2.01    -11.74928      19.5646      203.603        13     0.850     0.768 -65.61   0
        94    139.7574    694.7540 300.0059771 +22.6299530     337.4768     69.38126      1.314     2.90    -11.95005      19.5646     45.68007         6     0.729     0.571  52.11   0
        95    872.8863    684.6501 300.2374161 +22.8469848     72264.49     69.34594      1.152     1.81    -11.53655      19.5646     13554.96       112     1.226     1.167  70.37   0
        96   1019.9808    686.1808 300.2827833 +22.8915114     640.2177      68.7784      1.236     2.70    -11.51933      19.5646      90.1215        10     0.922     0.689 -19.37  16
        97    725.1627    684.8168 300.1913305 +22.8027437     381.6442     69.34594      0.985     2.37    -11.59597      19.5646     78.40559         5     0.800     0.437 -45.86   0
        98    559.0696    673.4921 300.1432929 +22.7496814     849.2743     69.46947      1.044     1.82    -11.43671      19.5646     144.3726         8     0.707     0.638  79.71   0
        99    740.3584    670.8419 300.2006084 +22.8032879     4544.103     69.45184      1.128     1.82    -11.50349      19.5646     840.4022        27     0.973     0.926  82.10   0
       100    241.8882    666.0750 300.0470414 +22.6523858     2443.213     69.46947      1.254     2.03    -11.59334      19.5646     406.0744        23     1.005     0.932  74.56   0
       101    324.0617    664.1447 300.0732169 +22.6764931     503.7857     69.41656      1.109     1.83    -11.48056      19.5646     110.0669         8     0.727     0.636 -53.93   0
       102    532.1122    659.3824 300.1394898 +22.7375461     369.5206     69.29293      1.199     2.68    -11.28797      19.5646      52.4119         7     0.728     0.636 -13.01   0
       103    523.8514    651.6885 300.1394202 +22.7328601     1486.861      69.3636      1.134     1.92    -11.22187      19.5646     271.4227        14     0.882     0.754  33.26   0
       104    514.0964    645.5103 300.1383929 +22.7281610     681.6168     69.52235      1.165     2.18    -11.16272      19.5646     120.3132        12     0.867     0.792 -66.66   0
       105    191.6403    640.2673 300.0398139 +22.6299028     327.4773     69.31061      1.087     4.47    -11.37575      19.5646     45.14828         7     0.984     0.585  67.49   0
       106    217.3693    636.7715 300.0489468 +22.6366225     310.6242     69.34595      1.265     2.44    -11.30259      19.5646     46.66001         5     0.725     0.436 -68.97   0
       107    961.2333    636.0930 300.2807484 +22.8595172     273.6209     69.29293      1.241     2.57    -11.19779      19.5646     48.49249         5     0.758     0.481 -41.35   0
       108    438.9295    635.1627 300.1183674 +22.7026432     769.3284     69.31061      1.173     2.18    -11.05106      19.5646     151.8716        13     0.960     0.781  70.23   0
       109    523.7798    630.6363 300.1462422 +22.7267968     605.4674      69.3636      1.249     2.60    -11.02836      19.5646     89.00272        11     1.007     0.666  54.82   0
       110     92.9208    630.2550 300.0123954 +22.5973988     9872.764     69.38126      1.269     2.15    -11.35843      19.5646     1493.222        39     1.092     1.053  49.79   0
       111     13.6406    631.7941 299.9872714 +22.5740384     254.6718     69.38126      0.984     2.54    -11.38186      19.5646     49.78436         5     0.695     0.468  77.93   0
       112    941.6653    616.4545 300.2810315 +22.8480115     480.8693     69.39891      1.085     3.01    -11.17312      19.5646     97.92948        10     1.001     0.645  75.51   0
       113     38.7411    614.3049 300.0007513 +22.5765604     696.9351     69.41656      1.622     6.28     -11.2113      19.5646     68.83794        15     1.556     0.712 -85.72   0
       114    487.3269    610.9372 300.1413014 +22.7102092     222.7824     69.38126      1.135     2.28    -10.81125      19.5646     45.59922         5     0.830     0.466 -85.21   0
       115    882.2493    609.2845 300.2648387 +22.8281452     363.8859     69.32828      1.167     2.60    -11.24863      19.5646     70.15115         6     0.865     0.448   3.88   0
       116    443.9549    603.2989 300.1302889 +22.6950071     342.8741      69.3636      1.117     2.39      -10.765      19.5646     57.44378         7     0.724     0.625  11.60   0
       117    592.0039    601.7807 300.1768592 +22.7389756     302.3552     69.31061      1.649     3.40    -10.82155      19.5646     36.14417         5     0.806     0.485 -50.17   0
       118    488.1714    599.2544 300.1453618 +22.7071096     469.6189     69.34594      1.208     2.83     -10.7156      19.5646     64.27972         8     0.882     0.631 -57.03   0
       119    453.7366    594.8108 300.1360913 +22.6955054     894.7321     69.29293      1.230     2.14    -10.72179      19.5646     139.0456        13     0.934     0.784 -75.41   0
       120    921.9053    594.5880 300.2819789 +22.8358082         1540     69.27525      1.125     1.96    -11.15359      19.5646     253.9403        15     0.899     0.773  14.46   0
       121   1019.6879    592.6193 300.3131118 +22.8645428     357.9805     69.13366      1.033     2.51    -10.84846      19.5646      61.9502         7     0.891     0.470  -9.16  16
       122     15.6622    588.4850 300.0019760 +22.5622288     2356.259     69.46947      1.253     2.23    -11.16033      19.5646     303.7663        21     1.028     0.903  80.61   0
       123    961.5712    584.9365 300.2974842 +22.8449218     95.11597     69.34594      1.008     4.41    -11.01384      19.5646     35.10017         5     1.138     0.486  84.87   0
       124    317.0837    581.5531 300.0978950 +22.6507054     4476.215     69.32828      1.238     2.07    -10.85121      19.5646     668.2747        27     1.032     0.959 -85.40   0
       125    439.5030    578.5332 300.1369535 +22.6865645     4349.693      69.4342      1.183     2.16    -10.69264      19.5646      589.461        23     1.024     0.893 -88.50   0
       126    935.7657    569.7090 300.2943873 +22.8328142     6184.444     69.32828      1.148     1.88    -11.03212      19.5646     1080.372        32     1.066     0.965  78.21   0
       127    851.0650    572.2833 300.2671460 +22.8081706     885.7535     69.45184      1.128     1.97    -11.12834      19.5646     148.0394         9     0.727     0.687  37.22   0
       128    500.0294    568.1172 300.1591723 +22.7017293     5626.677      69.3636      1.229     2.01    -10.47082      19.5646     969.7634        29     1.028     0.963  78.22   0
       129    669.2783    564.1653 300.2131473 +22.7513467     245.3537     69.29293      1.358     4.46     -10.7879      19.5646      38.1683         7     1.024     0.551 -66.53   0
       130    227.5597    563.7093 300.0758618 +22.6187240     541.7878     69.34595      1.134     2.29    -10.94749      19.5646     84.50144         9     0.814     0.675  13.30   0
       131    431.7429    556.3704 300.1417421 +22.6778763     2161.725      69.3636      1.248     2.10    -10.66581      19.5646      339.882        21     1.024     0.930  82.41   0
       132    774.6270    556.0908 300.2485884 +22.7806093     351.1467     69.31061      1.074     2.40    -10.98493      19.5646     75.28713         9     0.875     0.625  28.40   0
       133    410.0132    554.7056 300.1355230 +22.6708805     547.8825     69.27525      1.297     2.34    -10.75372      19.5646     91.75556         8     0.781     0.666 -87.93   0
       134    164.5170    554.1738 300.0593675 +22.5970701     230.5604     69.32828      1.271     3.19    -11.10766      19.5646     40.42364         8     0.835     0.688 -41.19   0
       135    851.3867    551.7632 300.2739156 +22.8023725     759.8151     69.34595      1.322     2.70    -11.06167      19.5646     95.32048        14     1.027     0.767 -56.83   0
       136    731.9257    548.6870 300.2376910 +22.7656830     425.7681     69.48711      1.231     2.28    -10.88868      19.5646     67.28388         7     0.769     0.593 -26.43   0
       137    548.3690    543.8294 300.1821108 +22.7092543     99991.22     69.34594      1.242     2.08     -10.2427      19.5646     14787.05       131     1.286     1.265 -58.88   0
       138    234.4387    543.9155 300.0844324 +22.6151100     1594.072     69.32828      1.212     2.19    -10.91984      19.5646     238.7942        17     0.963     0.858  34.06   0
       139    800.1669    539.6760 300.2618813 +22.7835497     200.7345     69.34594      1.043     2.95    -10.92685      19.5646      34.5933         6     0.730     0.615  73.86   0
       140    438.9675    524.5032 300.1543455 +22.6708971     1273.297     69.32828      1.321     2.63    -10.49622      19.5646     188.0887        18     1.403     0.817 -85.83   0
       141    756.0184    512.2833 300.2570269 +22.7624493     183.4675     69.29293      1.164     4.33    -10.69607      19.5646     31.31392         7     0.743     0.717  74.44   0
       142    835.8691    510.2261 300.2825777 +22.7857898     670.3885     69.34594      1.083     1.81    -10.75099      19.5646     156.5421        10     0.771     0.677 -84.69   0
       143    707.1462    507.9875 300.2431980 +22.7465665     1147.986      69.3636      1.220     2.20    -10.57329      19.5646     195.1571        12     0.883     0.738  88.83   0
       144    612.1133    504.4531 300.2147507 +22.7170622     207.1748     69.38126      1.083     3.09    -10.30084      19.5646     41.26663         5     0.743     0.447  21.69   0
       145    494.3156    503.9276 300.1782534 +22.6815902     317.9533     69.45184      1.004     2.82    -10.23934      19.5646     67.65495         7     0.838     0.635 -87.45   0
       146    964.3835    501.7422 300.3253991 +22.8218597     528.2307     69.34595      1.133     2.37    -10.67562      19.5646     96.57104        12     0.874     0.805  -3.33   0
       147    950.1620    500.8874 300.3212422 +22.8173534     341.0854     69.32828      1.188     2.41    -10.67368      19.5646     57.33247         8     0.774     0.655  71.89   0
       148    836.1284    500.6270 300.2857776 +22.7831099     1032.184     69.32828      1.204     2.07    -10.68286      19.5646     161.0454        14     0.869     0.811  63.77   0
       149    874.2740    495.3603 300.2993786 +22.7930274     2059.576     69.32828      1.132     1.97    -10.65842      19.5646     328.4239        16     0.925     0.831  71.99   0
       150    966.2758    485.8017 300.3311687 +22.8178458     343.6053     69.25757      1.079     1.79    -10.58525      19.5646     74.64116         5     0.693     0.422 -74.42   0
       151    106.3793    485.8468 300.0635041 +22.5600244     569.8544     69.38126      1.266     2.57    -11.12086      19.5646     78.26228        11     0.940     0.715  41.87   0
       152    648.1403    465.9870 300.2384667 +22.7168165     428.4732     69.31061      1.214     2.45    -10.04934      19.5646     62.21055         6     0.835     0.473  54.89   0
       153    962.3687    458.2776 300.3388929 +22.8087653     204.3721     69.32828      1.140     3.11    -10.50095      19.5646     49.35529         6     0.959     0.517  56.53   0
       154    708.5138    458.0248 300.2598569 +22.7326263     451.0032     69.29293      1.208     1.76    -10.24713      19.5646     73.91933         6     0.690     0.490  78.09   0
       155    865.7582    454.1527 300.3101124 +22.7786359     453.5148     69.38126      1.150     2.77    -10.49831      19.5646     85.08086         9     0.835     0.779 -54.77   0
       156    594.3762    448.6524 300.2273572 +22.6957213     1576.653      69.3636      1.218     2.17    -9.798847      19.5646     212.6084        19     0.978     0.909  72.84   0
       157     70.9795    440.2449 300.0673203 +22.5363207     167.1085     69.39891      1.297     3.79    -10.63496      19.5646     34.06364         5     0.814     0.506  62.32   0
       158    434.2870    435.4560 300.1818191 +22.6439327      263.434     69.41656      1.031     3.22    -10.02302      19.5646     38.89878         5     0.750     0.441 -22.53   0
       159   1005.6109    427.7493 300.3622963 +22.8129440     616.3726     69.38126      1.100     2.40     -10.4276      19.5646     95.28759         8     0.814     0.635  73.24   0
       160    877.6948    426.9927 300.3226562 +22.7744079     373.9118     69.23988      1.566     4.76    -10.44284      19.5646     38.45554         7     0.949     0.677 -87.81   0
       161    963.9158    426.1560 300.3498104 +22.7999970     367.8401     69.31061      1.115     2.08    -10.42271      19.5646     80.83112         8     0.760     0.625  43.52   0
       162    704.9386    422.8685 300.2701635 +22.7214564     547.3392     69.39891      1.287     2.29     -9.97188      19.5646     74.49186         9     0.767     0.701  41.10   0
       163    208.9158    420.8720 300.1164724 +22.5721499     442.2826     69.45184      1.504     3.24    -10.42843      19.5646      43.6065         8     0.861     0.683   6.63   0
       164    271.3780    416.7792 300.1372187 +22.5897128       1802.3     69.34594      1.231     2.31    -9.994628      19.5646     231.1089        17     0.987     0.842  68.51   0
       165   1004.2220    414.9580 300.3660181 +22.8088512     2000.314     69.38126      1.188     1.83    -10.39748      19.5646     393.7305        20     0.926     0.880  89.86   0
       166    218.5515    411.5638 300.1224905 +22.5723696     3664.025      69.3636      1.204     2.18    -10.34417      19.5646      492.377        23     1.013     0.933  63.70   0
       167    359.2908    405.7992 300.1681223 +22.6129290     2424.026     69.23988      1.263     2.28    -9.780867      19.5646     340.0266        22     1.011     0.948  67.89   0
       168    984.3207    405.7969 300.3627869 +22.8002572     1026.522     69.25757      1.286     2.26    -10.37584      19.5646     170.2359        12     0.929     0.781  63.39   0
       169    603.4659    402.3391 300.2452306 +22.6851456     8858.399     69.38126      1.256     2.23    -9.434662      19.5646     1123.551        37     1.122     1.016  75.51   0
       170    937.1345    384.3760 300.3550297 +22.7799665     301.3008     69.32828      1.272     3.66    -10.27604      19.5646     58.47115        10     1.074     0.754 -58.06   0
       171    158.3141    382.5501 300.1131916 +22.5459733       922.59     69.34595      1.231     2.26     -10.1079      19.5646     141.5451        12     0.836     0.801  21.50   0
       172    544.0640    371.7831 300.2366613 +22.6585638     3203.169     69.32828      1.299     2.18    -9.431835      19.5646      478.485        25     1.073     0.985 -67.98   0
       173    258.9430    371.5022 300.1480566 +22.5729886     397.3324      69.4342      1.324     4.53    -9.763403      19.5646     43.06661         8     1.163     0.707  76.86   0
       174    957.6772    371.8904 300.3654903 +22.7825308     502.4486     69.48711      1.115     2.64    -10.26121      19.5646     95.46204        11     0.921     0.791  -1.07   0
       175    116.4750    364.4799 300.1060590 +22.5282362     162.8903     69.45184      1.286     3.27    -10.09023      19.5646     35.32999         5     0.902     0.517 -43.84   0
       176    657.9052    361.7227 300.2753732 +22.6897959     236.8094     69.45184      1.041     4.01    -9.428407      19.5646     39.30233         5     0.993     0.463 -63.72   0
       177    748.1808    360.6425 300.3038441 +22.7165381     505.4807      69.3636      1.255     2.29    -9.611399      19.5646     77.60867         9     0.838     0.641  66.12   0
       178    450.7486    358.0774 300.2120711 +22.6266528     2948.405     69.32828      1.282     2.17    -9.539076      19.5646     453.8929        23     1.051     0.934  58.07   0
       179    842.7976    352.4651 300.3359838 +22.7425361       713.06      69.3636      1.192     2.55    -10.02798      19.5646     99.13872        10     0.820     0.737  70.28   0
       180    939.9865    352.3173 300.3663302 +22.7716059     314.1083     69.32828      1.362     3.05    -10.16224      19.5646     43.19986         7     0.715     0.683   5.51   0
       181    815.4539    340.2104 300.3314411 +22.7308227     246.3563     69.34594      1.171     2.01    -9.867749      19.5646     48.74051         5     0.685     0.438  63.21   0
       182    338.3162    337.4110 300.1838067 +22.5870073      1349.82     69.31061      1.459     2.56    -9.501253      19.5646     145.2489        16     1.029     0.870  65.35   0
       183     56.5582    334.9051 300.0970481 +22.5017743     486.7755      69.3636      1.143     2.48    -9.961074      19.5646     71.79884         6     0.755     0.497  89.42   0
       184    307.6640    326.8246 300.1777116 +22.5747764     14677.18     69.32828      1.305     2.21    -9.415317      19.5646     2115.027        50     1.191     1.107  81.89   0
       185    842.2069    323.9675 300.3450532 +22.7341690     609.1467     69.34594      1.173     2.12    -9.767367      19.5646     110.0052         9     0.762     0.669  65.31   0
       186      3.8803    314.7037 300.0872457 +22.4801731     2450.809     65.73705      1.362     2.49    -9.767507      19.5646     302.1255        24     1.074     1.026 -77.45  24
       187    757.5864    312.8074 300.3223067 +22.7056113     291.8308     69.23988      1.041     1.76    -9.387636      19.5646     53.37917         5     0.658     0.456  66.79   0
       188    182.1177    312.3201 300.1433917 +22.5329601     236.7322     69.46947      1.591     5.87    -9.685252      19.5646     29.79519         6     1.433     0.678 -88.12   0
       189    405.9149    311.7995 300.2131481 +22.5999230      306.463     69.22219      1.311     3.99    -9.286381      19.5646     69.18624         6     0.992     0.460  52.62   0
       190    717.8245    306.5138 300.3119625 +22.6918897     861.0468     69.29293      1.218     2.09     -9.24203      19.5646     132.1823        11     0.816     0.746  85.38   0
       191    932.9241    299.0226 300.3814328 +22.7541706     273.6591     69.32828      1.254     2.08    -9.993237      19.5646     55.35221         5     0.619     0.548   1.19   0
       192    379.7268    291.2614 300.2116690 +22.5861742     1044.935     69.38126      1.509     2.59    -9.316046      19.5646     129.9029        19     1.122     0.986  45.26   0
       193    455.5899    270.3066 300.2420729 +22.6028995      550.746     69.29293      1.140     2.33    -9.061609      19.5646     79.66747        10     0.877     0.655  -2.72   0
       194    700.5453    262.3289 300.3209238 +22.6740163     1031.359      69.3636      1.225     2.19     -9.24812      19.5646     153.1327        16     0.974     0.871  76.43   0
       195    961.6976    256.6238 300.4041691 +22.7505976      1439.58     69.27525      1.156     2.12    -9.781082      19.5646     209.4495        15     0.918     0.800  78.00   0
       196    409.1196    246.0518 300.2354872 +22.5820036     212.5039     69.34594      1.178     3.02    -8.954324      19.5646     42.12973         6     0.785     0.645 -83.40   0
       197     83.7558    240.6134 300.1361036 +22.4828773     574.1645      69.3636      1.367     3.78    -9.303573      19.5646     67.18372        11     1.092     0.700 -36.96   0
       198    977.5676    236.7706 300.4155625 +22.7496411     100.6189     69.34595      1.010     3.13    -9.630739      19.5646     35.16396         5     0.718     0.479  76.37   0
       199    167.6904    232.3881 300.1648527 +22.5056912     130.8016     69.29293      1.059     2.80    -9.188662      19.5646     43.70472         5     0.696     0.484  -6.43   0
       200    771.5178    223.4531 300.3556528 +22.6841051     267.4005     69.38126      1.316     4.14    -9.432245      19.5646     37.48775         5     1.157     0.422  53.71   0
       201    362.5945    223.2169 300.2284256 +22.5614989      204.221     69.31061      1.461     3.76    -9.003105      19.5646     24.77445         5     1.012     0.401   5.87   0
       202    870.2283    212.5671 300.3899498 +22.7105399     1077.768      69.3636      1.308     2.42    -9.445345      19.5646     138.6618        12     0.917     0.767  39.23   0
       203    288.7108    210.1396 300.2096925 +22.5355934     1129.527      69.4342      1.338     2.56    -8.930431      19.5646     145.6967        15     1.045     0.841   3.46   0
       204    366.5628    204.9753 300.2355796 +22.5574500     382.5739      69.3636      1.483     2.74     -8.97343      19.5646     53.83501         7     0.776     0.692 -15.35   0
       205    183.2832    197.4124 300.1810485 +22.5003274     262.9048     69.31061      1.297     3.57    -9.072982      19.5646     42.43873         5     0.809     0.455  16.38   0
       206    721.4188    194.1574 300.3495513 +22.6606781       706.56      69.3636      1.110     2.09    -9.243883      19.5646     119.9156        11     0.834     0.715  49.85   0
       207    786.0754    193.8350 300.3698009 +22.6799520     324.9558     69.31061      1.470     2.94    -9.371446      19.5646     41.47655         6     0.876     0.466  34.47   0
       208    992.6404    186.4778 300.4365856 +22.7396913     419.8092     69.32828      1.005     2.28     -9.26245      19.5646     72.76805         6     0.777     0.479  87.87   0
       209    725.2945    185.8922 300.3534408 +22.6594635       376.27     69.50473      1.147     2.48    -9.211905      19.5646     51.58326         7     0.726     0.619  71.96   0
       210    645.7330    184.8277 300.3290046 +22.6353237     576.9953     69.32828      1.282     2.52    -9.087042      19.5646     82.77308        12     0.888     0.816   4.46   0
       211    841.3329    176.3885 300.3926833 +22.6914855     733.2452     69.34595      1.205     2.31    -9.367167      19.5646     106.9758        11     0.849     0.756 -17.77   0
       212    571.9929    176.5229 300.3087387 +22.6108441     482.1984     69.29293      1.218     2.70    -8.914689      19.5646     73.71305        10     0.928     0.715 -54.00   0
       213    853.3092    175.1700 300.3968117 +22.6947216     395.6133     69.31061      1.424     3.19    -9.365163      19.5646     45.95404         7     0.750     0.656  83.83   0
       214   1014.1448    166.1858 300.4498776 +22.7402930     852.3934     69.32828      1.238     2.22    -9.051403      19.5646     133.4421        12     0.931     0.782 -82.81   0
       215    970.0853    165.5796 300.4363325 +22.7269288     577.7896     69.27525      1.308     2.40    -9.207066      19.5646     79.47679         9     0.843     0.658  72.83   0
       216    204.1975    158.5098 300.2001711 +22.4954301      365.115     69.25757      1.446     2.49    -8.975398      19.5646     62.17392         6     0.859     0.479 -45.73   0
       217     66.0139    153.7290 300.1587840 +22.4526199     1177.078     69.34594      1.369     2.42    -9.223335      19.5646     161.4904        14     1.019     0.803  89.66   0
       218    889.2143    150.5903 300.4159797 +22.6984056     339.1523     69.25757      0.996     2.10     -9.26891      19.5646     62.67549         5     0.676     0.466 -18.69   0
       219    223.4416    147.1363 300.2098428 +22.4979345     2788.874     69.32828      1.299     2.33    -8.845473      19.5646     350.0604        25     1.063     0.979  84.16   0
       220      7.8191    141.4938 300.1446779 +22.4316542     750.3488     69.27525      1.564     3.63    -9.391094      19.5646     70.84139        15     1.103     0.924 -19.41   0
       221    206.8716    137.8724 300.2076974 +22.4903066     292.7403     69.39891      1.232     2.17    -8.798447      19.5646     54.73746         5     0.725     0.486 -47.86   0
       222   1022.1988    134.2815 300.4627415 +22.7335273     8715.934     61.30185      1.196     2.04    -8.925412      19.5646     1412.011        33     1.119     0.926  83.61  24
       223    867.4240    128.3792 300.4163929 +22.6854945     1689.456     69.34595      1.176     2.10    -9.126305      19.5646      223.986        20     1.000     0.887  63.85   0
       224    971.0242    127.1369 300.4490981 +22.7161537     1271.702     69.32828      1.198     2.33    -9.002947      19.5646     201.1832        16     0.978     0.780  49.41   0
       225    417.3483    124.1479 300.2776024 +22.5494564     275.5953     69.38126      1.197     2.57    -8.762159      19.5646     42.91861         5     0.724     0.444  72.50   0
       226    107.3590    112.5821 300.1849762 +22.4532076      370.133      69.3636      1.302     4.24    -9.040864      19.5646     40.54276         8     0.956     0.634  -1.37   0
       227    468.3446    111.0995 300.2977028 +22.5609898     806.1007      69.4342      1.192     2.53    -8.870133      19.5646     116.2269        14     0.959     0.812 -82.35   0
       228    396.5371    111.3144 300.2752910 +22.5395329     300.5302     69.45184      1.183     2.99    -8.747972      19.5646     38.07137         5     0.711     0.486 -77.76   0
       229    242.3722     90.9925 300.2339396 +22.4874879     2860.647     69.34594      1.292     2.35    -8.418095      19.5646     381.0543        23     1.061     0.939  64.39   0
       230     93.3256     90.0847 300.1879132 +22.4425411     372.9747      69.4342      1.333     2.77    -9.054448      19.5646     52.06329         7     0.795     0.657  34.88   0
       231    488.3850     76.2693 300.3152368 +22.5569870     3087.192      69.3636      1.270     2.26    -8.754735      19.5646     380.0075        23     1.044     0.947  56.03   0
       232    374.0656     76.3515 300.2796410 +22.5227548     293.4913      69.3636      1.351     3.94    -8.610723      19.5646     43.45448         9     0.923     0.678 -69.84   0
       233    741.0945     65.8510 300.3973062 +22.6296882      495.997     69.41656      1.437     2.79    -8.785932      19.5646     53.72047         8     0.806     0.657  47.00   0
       234    181.1539     60.0779 300.2249366 +22.4602584     186.9399     69.32828      1.195     3.92    -8.524494      19.5646     34.43624         5     0.820     0.535 -31.78   0
       235    616.7726     56.3131 300.3616765 +22.5897130     3036.558     69.34595      1.274     2.25     -8.80322      19.5646     412.9208        24     1.041     0.950  78.13   0
       236    391.6256     55.3704 300.2919079 +22.5219896     692.5511     69.34595      1.268     2.32    -8.507665      19.5646     126.7281        13     0.945     0.810 -86.70   0
       237    657.7311     53.4775 300.3753513 +22.6011655     526.3392     69.45184      1.477     3.70    -8.769087      19.5646     71.75757        13     1.081     0.893  62.79   0
       238    673.5369     49.8367 300.3814549 +22.6048526     389.1238     69.34594      1.474     3.82    -8.752651      19.5646     41.63333         6     1.012     0.476 -32.40   0
       239    140.7472     47.7430 300.2163793 +22.4446027     317.3898     69.39891      1.353     4.89    -8.630599      19.5646     47.08445         8     1.137     0.595   7.59   0
       240    712.0560     45.0231 300.3950144 +22.6150043     304.2755      69.3636      1.491     4.16    -8.686653      19.5646     31.49856         7     0.891     0.554  43.81   0
       241    660.9138     41.1644 300.3803358 +22.5985791     1418.597     69.32828      1.339     2.36    -8.735025      19.5646     181.9659        15     0.919     0.885  25.99   0
       242    675.9374     39.2771 300.3856271 +22.6025359      399.838     69.41656      1.708     6.33    -8.722308      19.5646     38.36868        10     1.741     0.647  71.32   0
       243    747.3715     32.6895 300.4100165 +22.6220333      869.851     69.32828      1.242     2.49    -8.567751      19.5646     108.5837        13     0.860     0.853  46.41   0
       244    907.4614     30.4570 300.4606365 +22.6693193     103.9472     69.41656      1.164     4.27    -8.411321      19.5646     29.42357         5     1.209     0.430  34.38   0
       245    685.1816     25.7892 300.3928803 +22.6014266     288.6071     69.31061      1.081     2.54    -8.665915      19.5646       54.344         8     0.795     0.643  43.90   0
       246    490.8758     25.5023 300.3324757 +22.5431450     408.9313     69.48711      1.202     2.76    -8.397749      19.5646     76.81661        10     0.968     0.704  16.83   0
       247     63.6293     25.3729 300.1996729 +22.4150584     213.8831     69.32828      1.124     4.66    -8.562725      19.5646     34.74794         7     1.148     0.537 -47.66   0
       248    395.0583     23.6591 300.3032592 +22.5139075     323.7664     69.41656      1.125     3.00     -8.35553      19.5646     48.33778         7     0.752     0.619  21.68   0
       249    777.0195     21.9768 300.4227283 +22.6278301     179.3249     69.34594      1.016     2.03    -8.453025      19.5646     39.61103         5     0.594     0.577  88.65   0
       250    290.9907   1021.8044 299.9465642 +22.7691154      608.778     62.86054      1.242     2.31    -12.57886      19.5646     100.2988        10     0.862     0.686 -77.22  16
       251    734.2792     13.6278 300.4121186 +22.6126322     281.7558      69.3636      1.080     1.97    -8.466765      19.5646     53.86818         5     0.655     0.472 -13.20   0
       252    132.2460   1011.9960 299.9004233 +22.7186223    -12.25469     69.32828      0.890     3.96     23.01275      19.5646     26.48247         5     1.382     0.325 -31.54   2
       253    125.6459   1017.4182 299.8966075 +22.7181930     1093.216     69.38126      3.453     8.09     24.64906      19.5646     45.13007        16     1.763     1.039 -53.92  18
