#   1 NUMBER                 Running object number                                     
#   2 X_IMAGE                Object position along x                                    [pixel]
#   3 Y_IMAGE                Object position along y                                    [pixel]
#   4 ALPHA_J2000            Right ascension of barycenter (J2000)                      [deg]
#   5 DELTA_J2000            Declination of barycenter (J2000)                          [deg]
#   6 FLUX_APER              Flux vector within fixed circular aperture(s)              [count]
#   7 FLUXERR_APER           RMS error vector for aperture flux(es)                     [count]
#   8 FLUX_RADIUS            Fraction-of-light radii                                    [pixel]
#   9 FWHM_IMAGE             FWHM assuming a gaussian core                              [pixel]
#  10 BACKGROUND             Background at centroid position                            [count]
#  11 THRESHOLD              Detection threshold above background                       [count]
#  12 FLUX_MAX               Peak flux above background                                 [count]
#  13 ISOAREA_IMAGE          Isophotal area above Analysis threshold                    [pixel**2]
#  14 A_IMAGE                Profile RMS along major axis                               [pixel]
#  15 B_IMAGE                Profile RMS along minor axis                               [pixel]
#  16 THETA_IMAGE            Position angle (CCW/x)                                     [deg]
#  17 FLAGS                  Extraction flags                                          
         1    165.4718     11.9691 300.2354461 +22.4424327     1742.189     69.61703      1.285     2.36    -8.709882     19.64108     246.0839        18     0.964     0.925  43.26   0
         2    733.7087     12.3607 300.4121284 +22.6127550     252.1508     69.61703      1.130     3.12    -7.676297     19.64108     41.80747         6     0.838     0.510  46.16   0
         3    726.6694      4.4442 300.4125023 +22.6083714      457.854     67.62011      1.306     3.08    -7.619895     19.64108     61.18896        10     0.877     0.803   7.10  16
         4    281.3488      3.9822 300.2740558 +22.4748638     587.8466     66.19948      1.355     2.49    -8.586973     19.64108     76.02064         9     0.791     0.707  40.22  16
         5    164.6971   1005.5791 299.9123775 +22.7272146     1428.805     69.54607      5.648    16.57     22.32789     19.64108     49.66043        37     4.359     1.751  38.82  18
         6    727.1758   1022.4705 300.0818584 +22.9008975     263.9895     60.32594      1.218     3.64     -13.7994     19.64108     28.16393         5     1.027     0.371 -84.80  24
         7     70.1482    963.0385 299.8968557 +22.6866288     2357.993     69.61703     29.402    86.44   -0.3149213     19.64108     60.89387      1569    18.061    11.479 -80.20  18
         8    224.5632    976.4929 299.9404499 +22.7368583     1711.709      69.5993      7.608    14.11       9.7391     19.64108     48.94997        46     2.988     1.852  36.48   3
         9    205.1363   1000.5042 299.9265955 +22.7379052     951.1286     69.70564      7.503     8.72     20.55008     19.64108     44.43536        18     1.638     1.297  81.30   1
        10    188.1270    998.4543 299.9219773 +22.7322097     544.4388      69.5993      2.362     2.58     19.34394     19.64108     51.09186         5     0.720     0.461  19.98   1
        11    211.6996    996.3417 299.9299903 +22.7386834     1813.304     69.70564     11.148    14.94     18.46368     19.64108     43.06783        51     2.962     2.097   1.20   3
        12    159.0304    984.3116 299.9175407 +22.7194191     923.6392      69.5993      3.303     6.68      14.2939     19.64108     46.40049        10     1.615     0.774 -38.13   2
        13    221.3724    992.2936 299.9343143 +22.7404281     1381.746     69.52832     10.263    12.82     16.71124     19.64108     44.62904        26     3.022     1.513  10.14   3
        14     89.8710    985.6400 299.8956240 +22.6990279     831.9718     69.58157      4.549     4.86     12.45829     19.64108     33.34476         5     1.493     0.448  -6.99   1
        15      2.2501   1001.0632 299.8633932 +22.6771249     523.2604     59.08539      3.889     4.96    -19.32151     19.64108     34.54505         5     1.171     0.594  31.02  24
        16    541.7921    999.5357 300.0316075 +22.8386940      1119.33      69.5993      1.049     1.76    -13.64296     19.64108     213.7474        12     0.835     0.707  61.21   0
        17    212.9216    989.6089 299.9325620 +22.7371211     1830.926     69.58157      9.890    15.33     15.93642     19.64108     50.24419        48     2.767     2.362  40.74   3
        18    921.0147    978.4025 300.1566093 +22.9463916     361.1787     69.45726      1.065     2.27    -13.44396     19.64108      86.6874         8     0.814     0.688 -66.04   0
        19    101.6747    972.7771 299.9034777 +22.6988881     1135.027     69.65249      9.865     9.14     9.959088     19.64108     41.05686        18     2.155     1.185  57.54   3
        20    139.6124    964.7807 299.9178658 +22.7079911     851.9005     69.58157      5.448     7.91     7.220148     19.64108     42.38577        12     2.522     0.693  21.68   0
        21    193.3722    995.3409 299.9246208 +22.7328928     1673.035     69.61703      8.449    14.13     18.13929     19.64108     47.99063        46     2.898     1.917  69.07   3
        22    646.4926    961.8587 300.0764668 +22.8593047      3338.86     69.67021      1.186     1.94    -13.10783     19.64108     557.3292        26     1.004     0.947  82.98   0
        23    197.0484    994.6310 299.9259943 +22.7337934     1204.625     69.65249      6.153     6.85     18.11928     19.64108     41.25108        14     1.557     1.156  38.31   3
        24     69.4778    927.1810 299.9083186 +22.6761543     2186.181     69.61703     22.708    44.59    -9.059921     19.64108     55.84601       424    10.613     5.199 -46.99   3
        25    526.1384    955.9460 300.0409271 +22.8214962     177.9163     69.67021      1.228     3.65    -13.15144     19.64108     49.17197         7     1.005     0.581  88.68   0
        26    237.7982    956.2117 299.9511654 +22.7350200    -91.45998     69.43948      0.962     2.84    -1.670743     19.64108     49.38442         5     0.894     0.346  47.73   0
        27    798.5233    954.8365 300.1261061 +22.9028946     330.1788     69.58157      2.086     4.85    -13.21469     19.64108     32.45929         8     1.192     0.560 -53.50   0
        28    628.2011    994.7081 300.0600768 +22.8632389     4197.952     69.51056      1.177     1.91    -13.48333     19.64108     698.9521        25     0.979     0.922  76.24   3
        29    555.1809    952.6563 300.0510367 +22.8292678     795.0638      69.5993      1.100     1.70    -13.10352     19.64108     151.7245        10     0.769     0.673  45.70   0
        30     98.1185   1021.6572 299.8864597 +22.7118233     2370.486     63.88396      8.214    27.07     28.64434     19.64108      77.5189       186     6.964     2.922  10.45  27
        31    448.9276    949.0424 300.0191503 +22.7963449     472.8845      69.5993      1.144     1.95    -13.07804     19.64108     100.3248         9     0.736     0.689  56.29   0
        32    379.4694    947.1481 299.9981619 +22.7749539     3199.269      69.5993      1.116     1.85    -12.92889     19.64108     583.8043        21     0.918     0.869  82.67   0
        33    104.7086    945.4815 299.9133050 +22.6919788     1337.629     69.74105     12.964    12.96    -0.657668     19.64108     37.44595        30     2.457     1.902 -74.64   1
        34     87.2822    934.5868 299.9114381 +22.6836235     1217.906      69.5993      8.011     6.97    -5.623064     19.64108     58.34158        20     1.451     1.349  13.65   1
        35    908.9976    934.8399 300.1670455 +22.9302849     761.9879     69.61703      0.451     2.20    -13.23918     19.64108     653.0397         6     0.459     0.322  69.73   0
        36    633.7731    992.4197 300.0625567 +22.8642544     4590.317     69.61703      1.115     1.85    -13.43752     19.64108     793.3257        27     1.006     0.899 -81.96   2
        37    925.8125    925.7294 300.1752530 +22.9327114      937.091     69.63477      1.087     2.01    -13.18746     19.64108     174.8124        12     0.958     0.674 -60.11   0
        38     76.4138   1015.0494 299.8818697 +22.7034106     3001.052     69.65249     15.377    40.11     15.73425     19.64108     65.96945       441     7.421     6.017 -72.79  27
        39    235.2767    983.4832 299.9415039 +22.7420786     3971.418     69.70564      7.073    28.18     8.845807     19.64108     111.7006       281     7.586     3.264  64.25  18
        40    226.9215   1009.2244 299.9305267 +22.7469462     348.4684      69.5993      1.738     6.73     22.91359     19.64108     36.32627         8     1.280     0.992 -44.85   0
        41    749.6516    908.8602 300.1258466 +22.8750441     468.5398     69.67021      1.177     2.10    -12.68743     19.64108     82.48911         8     0.752     0.626 -46.05   0
        42    771.5575    902.5067 300.1347388 +22.8797907     5588.097     69.63477      1.025     1.82    -12.69211     19.64108     910.5669        26     0.928     0.882 -65.66   0
        43     83.1111    894.1282 299.9233097 +22.6707782     560.6318     69.77644      1.606     2.26    -10.02166     19.64108     59.16729         5     0.729     0.496 -40.01   0
        44    779.9985    884.5906 300.1431997 +22.8771807     592.3419     69.43948      1.025     2.52    -12.54704     19.64108      118.484         9     0.845     0.686 -49.22   0
        45    632.5085    881.7227 300.0981966 +22.8321207     407.0273     69.75875      1.248     2.82    -12.67733     19.64108     46.83186         5     0.713     0.469  71.24   0
        46    818.1555    878.0107 300.1572302 +22.8867346      416.676     69.61703      1.055     1.76    -12.56506     19.64108       92.981         6     0.662     0.538  42.92   0
        47    866.6023    869.1404 300.1752149 +22.8987150     215.4553      69.5993      1.223     2.21    -12.66802     19.64108     56.41241         6     0.705     0.583  26.52   0
        48    718.1063    868.1877 300.1292576 +22.8539119     218.6915     69.56382      0.944     2.02    -12.46378     19.64108     80.66201         6     0.683     0.591 -16.74   0
        49    430.6538    864.7837 300.0408886 +22.7666989     2007.539      69.5993      1.087     1.79    -12.58597     19.64108     397.3557        17     0.856     0.812  24.44   0
        50    729.1272    865.5518 300.1335482 +22.8564608      299.436     69.61703      1.073     2.02    -12.40673     19.64108     66.44942         5     0.677     0.466 -20.80   0
        51    156.1284    850.5930 299.9601586 +22.6802273     469.5571     69.58157      1.327     2.90    -11.64606     19.64108     51.89651         9     0.845     0.741  28.49   0
        52    132.8605    847.5880 299.9539073 +22.6723799     686.3569     69.58157      1.202     2.45     -11.6561     19.64108     113.6832        11     0.872     0.755  66.59   0
        53   1004.5457    836.4094 300.2288728 +22.9306694     994.2183     69.61703      1.058     1.95    -12.64375     19.64108     186.3977        14     0.926     0.751  64.82   0
        54    958.9552    834.7799 300.2151864 +22.9165365     1102.275     69.67021      1.128     1.81    -12.58079     19.64108      218.731        11     0.877     0.679 -79.72   0
        55    742.5253    828.6938 300.1497153 +22.8499012     334.9947     69.75875      1.009     2.46    -12.31887     19.64108     57.02217         6     0.669     0.621 -52.18   0
        56    165.0519    829.4854 299.9697986 +22.6768564     285.8961     69.63477      1.458     3.43    -11.67549     19.64108     32.18047         6     0.785     0.499   1.66   0
        57    977.0044    823.3946 300.2245191 +22.9186773     207.1164     69.47504      1.070     4.13    -12.54387     19.64108     29.50317         5     1.088     0.447  65.74   0
        58    610.5762    822.7982 300.1105422 +22.8086359     2390.957     69.56382      1.031     1.79    -12.20462     19.64108     476.5052        17     0.845     0.804  78.21   0
        59    412.9175    820.0750 300.0499184 +22.7485546     417.4341     69.72335      1.052     2.31    -12.33259     19.64108     62.85154         5     0.599     0.588  31.72   0
        60    160.8309    816.7128 299.9726424 +22.6719281     645.9555      69.5993      1.118     2.47    -11.68339     19.64108     114.4226        11     0.884     0.765 -17.13   0
        61    631.2219    815.3762 300.1193849 +22.8126988     417.5633     69.58157      0.981     1.68    -12.20009     19.64108     81.90103         6     0.641     0.551 -65.08   0
        62    786.6049    802.5922 300.1719402 +22.8556269     2100.675     69.47504      1.028     1.91    -12.24118     19.64108      357.543        18     0.889     0.775  64.57   0
        63   1003.1181    802.6151 300.2394235 +22.9205369     591.7034      69.5993      1.268     2.90    -12.51285     19.64108     88.20472        10     0.963     0.745  28.30   0
        64    503.5749    795.0325 300.0862708 +22.7685720     183.9922     69.61703      1.084     2.30    -11.78605     19.64108     52.44236         6     0.738     0.494 -89.57   0
        65    149.8478    793.0446 299.9769292 +22.6618464       473.34     69.63477      1.239     3.10    -11.69411     19.64108     84.48325        10     0.969     0.700  29.31   0
        66    299.7145    785.3015 300.0260268 +22.7046109     26709.89     69.77644      1.128     1.87    -11.81211     19.64108     4657.101        62     1.105     1.064  61.48   0
        67    557.5930    784.3436 300.1065595 +22.7817098     852.1802      69.5993      1.058     1.98    -11.85412     19.64108     153.8468        12     0.909     0.726  86.13   0
        68    970.3581    783.1596 300.2355373 +22.9051314     491.6551     69.70564      1.162     1.92     -12.3271     19.64108     91.45161         9     0.801     0.618 -19.94   0
        69    586.3444    780.4930 300.1167618 +22.7892291     501.4346     69.67021      1.035     3.07    -11.82056     19.64108     85.88525         5     0.799     0.444 -46.57   0
        70    597.2029    778.5119 300.1207865 +22.7919175     342.5052     69.54607      1.064     2.27    -11.81063     19.64108     48.50779         5     0.701     0.439 -26.02   0
        71    917.2177    775.6250 300.2214200 +22.8870405     135.5326     69.61703      0.984     3.19    -12.06272     19.64108     35.41778         5     0.746     0.438 -19.99   0
        72    740.3561    764.7783 300.1698333 +22.8309057     414.8677     69.67021      1.220     3.02    -11.97611     19.64108     64.07773         6     0.846     0.476  51.33   0
        73    349.4125    762.5082 300.0488939 +22.7129885     15393.38     69.56382      1.068     1.91    -11.41903     19.64108      2340.34        43     1.056     0.974  85.71   0
        74    363.7410    762.8870 300.0532266 +22.7173967     940.4396     69.70564      1.210     2.15    -11.48576     19.64108     182.7237        12     0.885     0.725  76.78   0
        75    872.4746    758.2226 300.2131338 +22.8686321     1325.595     69.65249      1.056     1.85    -11.86421     19.64108     254.2927        14     0.848     0.742 -61.73   0
        76    360.3315    756.8744 300.0541220 +22.7146492       264.86     69.68793      0.969     1.89    -11.39107     19.64108     59.00019         5     0.683     0.443 -72.20   0
        77    466.3656    754.6567 300.0878265 +22.7458265     207.2917     69.63477      0.955     2.81    -11.62643     19.64108     43.05113         5     0.711     0.468 -77.88   0
        78    232.0998    754.2690 300.0151019 +22.6754197      381.179     69.70564      1.116     2.85    -11.56992     19.64108     85.04213         8     0.891     0.761 -38.32   0
        79    630.3457    754.2443 300.1389989 +22.7948937     576.5298     69.63477      1.279     2.12    -11.66812     19.64108     86.13617         9     0.809     0.653 -22.95   0
        80     36.3464    749.7080 299.9557686 +22.6153483     261.4978     69.67021      1.168     4.56      -12.003     19.64108     35.13561         7     1.062     0.557  63.14   0
        81    477.4725    749.0883 300.0930935 +22.7475610     334.4626     69.77644      1.289     2.31    -11.57128     19.64108     55.10802         6     0.738     0.499  88.28   0
        82    878.4005    745.8530 300.2190044 +22.8668567     209.9138     69.58157      0.879     1.61    -11.79484     19.64108     68.50424         5     0.656     0.432 -62.02   0
        83    423.5159    744.1667 300.0779075 +22.7299621     264.3251     69.58157      1.202     3.49    -11.65867     19.64108     36.12976         5     0.973     0.362   5.71   0
        84     64.7973    743.8172 299.9665202 +22.6222019     193.0725     69.52832      1.070     2.64    -11.85306     19.64108     44.89684         6     0.753     0.532  37.84   0
        85    229.6106    738.7891 300.0193628 +22.6702340     244.7818     69.51056      1.145     3.10    -11.52496     19.64108     51.16625         6     0.861     0.485 -44.47   0
        86    522.3535    727.1503 300.1141947 +22.7547296     332.1371     69.65249      1.014     2.69    -11.48067     19.64108     59.28251         5     0.712     0.458  75.48   0
        87    544.3334    724.6574 300.1218461 +22.7606070     725.8329     69.65249      1.023     1.73    -11.50392     19.64108     140.6163         8     0.770     0.552  19.38   0
        88    938.8508    723.5179 300.2451138 +22.8785607     2068.706     69.63477      1.002     1.65    -11.76592     19.64108     410.5591        17     0.888     0.806  12.25   0
        89    927.3235    714.9249 300.2443147 +22.8726382     925.9988     69.70564      1.088     1.68    -11.64383     19.64108      199.621        11     0.836     0.674  81.74   0
        90    290.3894    709.1854 300.0478833 +22.6799844     479.4907     69.52832      1.081     2.00    -11.13466     19.64108     94.06254         5     0.689     0.447  68.18   0
        91    753.4548    706.3566 300.1929154 +22.8180621     1248.771     69.61703      1.030     1.97    -11.58516     19.64108     224.4243        14     0.880     0.733 -85.22   0
        92    958.3766    705.0728 300.2572008 +22.8791146      846.609     69.65249      1.084     1.74    -11.79088     19.64108      163.514         9     0.732     0.654 -25.58   0
        93    836.0002    692.1109 300.2232682 +22.8387160     264.0629     69.52832      1.450     3.52    -11.47035     19.64108     46.03377         5     1.116     0.321  67.72   0
        94    872.0368    683.1465 300.2374147 +22.8469426     71590.11     69.63477      1.121     1.70    -11.48821     19.64108     15917.33       102     1.179     1.059  80.62   0
        95    634.6517    686.7145 300.1623017 +22.7768037     192.0566     69.63477      0.874     2.77    -11.33685     19.64108     39.12536         5     0.721     0.453  74.74   0
        96   1019.0869    684.6906 300.2827618 +22.8914513     701.7977     69.77644      1.164     1.58    -11.99699     19.64108     140.6421        11     0.866     0.658 -76.93  16
        97    724.3980    683.2520 300.1913774 +22.8027180     391.4241     69.58157      1.197     3.49    -11.48103     19.64108     56.59637         8     1.038     0.485  34.25   0
        98    904.8181    676.3076 300.2498571 +22.8548029     160.5324     69.54607      0.955     1.78    -11.45646     19.64108     53.87365         5     0.680     0.437 -16.47   0
        99    558.4858    672.0472 300.1433593 +22.7497541     800.0809     69.58157      1.147     2.16    -11.27032     19.64108     131.8609        11     0.817     0.760  49.54   0
       100    739.5447    669.3436 300.2006182 +22.8032657     4486.093     69.67021      1.043     1.87    -11.43125     19.64108     731.6212        24     0.974     0.814  74.12   0
       101    241.1154    664.7173 300.0470247 +22.6524453     2344.123     69.74105      1.161     1.88    -11.05951     19.64108     416.4576        21     0.986     0.910  30.14   0
       102    323.1592    662.7167 300.0731816 +22.6764888     534.7087     69.58157      1.072     1.95    -10.99051     19.64108     102.1919         8     0.738     0.593  39.81   0
       103    531.4332    658.1540 300.1394565 +22.7376540     383.4923     69.65249      1.148     2.83    -11.00693     19.64108     67.36078         9     0.955     0.662  69.02   0
       104    523.0372    650.2574 300.1394108 +22.7328699     1562.606     69.61703      1.144     1.88    -10.86998     19.64108     308.0077        16     0.904     0.780  58.51   0
       105    513.1223    643.8653 300.1384033 +22.7280620     608.2504     69.70564      1.144     2.09    -10.75671     19.64108     131.4896        10     0.830     0.711  52.42   0
       106    176.5831    640.1985 300.0349398 +22.6260484     302.8177     69.52832      1.046     3.17    -11.24788     19.64108     63.40622         7     0.835     0.646  39.39   0
       107    190.9373    638.7086 300.0398848 +22.6299288     259.2499     69.70564      1.074     2.32    -11.19472     19.64108     61.52522         7     0.791     0.564 -21.32   0
       108    438.0901    633.8611 300.1183091 +22.7026876     843.7191     69.70564      1.140     1.97    -10.74575     19.64108     163.0422        11     0.881     0.699  80.00   0
       109     92.0503    628.8629 300.0123613 +22.5974281     9855.185     69.67021      1.221     1.99    -11.31063     19.64108     1695.024        42     1.129     1.036  74.60   0
       110   1013.7137    630.8393 300.2985961 +22.8743708      491.161      69.5993      1.132     2.84    -11.40457     19.64108     87.41161         9     0.884     0.697  53.91   0
       111     12.8709    630.6030 299.9872044 +22.5741601     210.6551     69.56382      0.936     1.74    -11.35047     19.64108      53.5303         5     0.653     0.457  21.92   0
       112    523.0494    628.9274 300.1463491 +22.7267521      540.009      69.5993      1.256     2.16    -10.62244     19.64108     84.12943         8     0.765     0.621  33.59   0
       113    941.1022    614.9901 300.2811057 +22.8480630     499.3163     69.51056      1.034     1.87     -11.2017     19.64108     117.4662         7     0.658     0.619  81.20   0
       114     38.0698    613.0267 300.0007428 +22.5766853     667.2585     69.61703      1.582     5.52    -11.22134     19.64108     69.19903        12     1.438     0.610 -84.36   0
       115    807.7750    613.0661 300.2401731 +22.8075574     241.4891      69.5993      1.223     4.06    -10.88265     19.64108     39.25259         6     1.041     0.453  62.89   0
       116    486.4741    609.7229 300.1412099 +22.7102720     194.5558     69.72335      0.994     2.24    -10.33794     19.64108     45.79485         5     0.678     0.464 -67.98   0
       117    443.0610    601.7085 300.1303074 +22.6949523     394.6624     69.70564      1.187     2.90    -10.53757     19.64108     60.18205         8     0.833     0.616  87.08   0
       118    591.0383    600.2115 300.1768466 +22.7388967     297.6648     69.61703      1.222     3.34    -10.39176     19.64108     35.34736         6     0.746     0.569  38.88   0
       119    637.9728    598.9001 300.1918857 +22.7525918     198.1959     69.56382      1.025     2.75    -10.51045     19.64108     48.10136         6     0.728     0.571  47.68   0
       120    487.5002    597.7648 300.1454162 +22.7071479     443.0644      69.5993      1.159     2.21    -10.31347     19.64108     86.03495         8     0.832     0.630  75.06   0
       121    453.0009    593.4711 300.1360774 +22.6955695     803.6575     69.52832      1.130     2.08    -10.43927     19.64108     149.0052        12     0.939     0.733  69.91   0
       122    920.9407    593.1464 300.2819207 +22.8357472     1512.875     69.67021      1.033     1.69    -11.13932     19.64108     375.3008        12     0.811     0.698 -78.09   0
       123     14.7802    587.0779 300.0019442 +22.5622551     2456.763     69.61703      1.239     2.09    -11.15344     19.64108     417.9315        20     0.964     0.876  31.47   0
       124    960.0390    582.8209 300.2974676 +22.8444949     207.7171     69.65249      1.316     3.69    -11.17084     19.64108      44.9669         5     1.126     0.347  -8.72   0
       125    316.2758    580.1044 300.0978958 +22.6507245     4384.221     69.75875      1.176     1.95    -10.75172     19.64108     778.2646        24     0.999     0.876  62.82   0
       126    438.7228    577.0842 300.1369614 +22.6865848      4388.12     69.72335      1.178     1.95    -10.42027     19.64108     761.2277        26     0.994     0.896  51.13   0
       127    934.8960    568.2241 300.2943725 +22.8327686      6128.74     69.51056      1.096     1.74    -11.17084     19.64108     1251.805        30     0.987     0.895  81.23   0
       128    850.2462    570.8041 300.2671464 +22.8081468     956.6893      69.5993      1.113     1.84    -10.86363     19.64108     199.2825        12     0.878     0.731  88.58   0
       129    499.2171    566.6983 300.1591597 +22.7017452      5563.72     69.54607      1.115     1.94    -10.26798     19.64108      994.052        28     0.987     0.886  83.63   0
       130    226.3778    562.1469 300.0757844 +22.6186037     723.4744     69.63477      1.108     2.16    -11.02355     19.64108     125.6591        10     0.826     0.698  70.98   0
       131    668.3527    562.3468 300.2132271 +22.7512041     260.6946     69.65249      1.163     2.71    -10.41714     19.64108     51.28734         6     0.668     0.659 -40.61   0
       132    430.8580    554.8947 300.1417262 +22.6778582     2178.988     69.68793      1.144     1.95    -10.30706     19.64108     422.4805        16     0.912     0.773  59.56   0
       133    773.7325    554.5980 300.2485706 +22.7805634     255.8641     69.61703      0.906     1.60    -10.53527     19.64108     79.55299         5     0.634     0.460  22.95   0
       134    409.3043    553.4164 300.1355016 +22.6709700     572.5095     69.52832      1.119     2.24    -10.31878     19.64108     100.5264        10     0.813     0.734 -57.34   0
       135    163.2686    552.4399 300.0593260 +22.5968844     415.2463     69.58157      1.264     3.38    -11.17205     19.64108     52.01855         5     0.738     0.447  21.52   0
       136    850.8036    550.2755 300.2739923 +22.8024171     637.9479     69.52832      1.191     2.39    -10.84729     19.64108     117.1008        11     0.900     0.719 -38.99   0
       137    731.4206    547.0009 300.2378579 +22.7657009     467.9884     69.54607      1.180     1.96    -10.36073     19.64108     79.79738         6     0.725     0.493  88.28   0
       138    547.5447    542.3572 300.1821111 +22.7092486       100524     69.61703      1.116     1.95    -10.20237     19.64108     15195.74       126     1.229     1.209 -17.75   0
       139    233.5654    542.3818 300.0844415 +22.6150902     1739.356     69.61703      1.094     2.06    -10.95884     19.64108     283.9174        16     0.894     0.831  77.68   0
       140    799.3586    538.4422 300.2618059 +22.7836027       291.87     69.70564      1.076     2.64    -10.54385     19.64108     47.75543         6     0.821     0.480  89.46   0
       141    438.2491    522.8890 300.1544263 +22.6708890     1382.548     69.61703      1.273     4.51    -10.22768     19.64108     209.9858        16     1.289     0.780 -82.37   0
       142    835.1053    508.6744 300.2826189 +22.7857631     799.4861     69.75875      1.094     1.78    -10.57744     19.64108     171.4467         9     0.767     0.625  64.50   0
       143    706.2610    506.4607 300.2431950 +22.7465180     1212.779     69.65249      1.042     2.03    -10.32971     19.64108     216.5662        12     0.834     0.740  44.89   0
       144    493.5254    502.4029 300.1782820 +22.6815832     387.0936     69.52832      1.330     3.06    -10.09584     19.64108     50.56562         8     0.881     0.666 -47.56   0
       145    963.6406    500.2448 300.3254275 +22.8218474     608.5698     69.68793      1.064     2.08    -10.95375     19.64108     119.6329        10     0.785     0.734 -87.98   0
       146    835.4804    499.2506 300.2857979 +22.7831682     941.0881     69.63477      1.055     1.96    -10.52786     19.64108     164.6183        12     0.812     0.759  89.86   2
       147    834.6093    495.1188 300.2868690 +22.7817203      154.835     69.56382      1.300     3.42    -10.50803     19.64108     29.39567         5     0.763     0.444 -71.03   3
       148    949.5522    499.0286 300.3214297 +22.8172779       350.87     69.63477      1.285     2.11    -10.86551     19.64108     65.79688         7     0.700     0.664  84.22   0
       149    588.6774    496.5701 300.2097934 +22.7084345      273.769      69.5993      1.372     3.83    -9.974611     19.64108     38.71433         6     0.902     0.467  88.48   0
       150    873.4836    493.8944 300.2993831 +22.7930152     2046.785     69.79414      1.055     1.83     -10.5956     19.64108     395.6439        18     0.928     0.809  88.22   0
       151    105.7620    484.3005 300.0635985 +22.5600858     506.7596     69.63477      1.170     2.81     -11.0848     19.64108     72.97978        10     0.845     0.809  63.04   0
       152    965.3115    483.8557 300.3312738 +22.8176382      369.722     69.65249      1.215     2.83    -10.88446     19.64108     79.92828         7     0.996     0.556  75.38   0
       153    647.0712    464.3457 300.2384443 +22.7166838     309.3643     69.63477      1.024     2.69    -10.13176     19.64108     64.26257         5     0.732     0.436  18.84   0
       154    708.0472    456.5567 300.2599651 +22.7327205     351.6903     69.65249      1.225     3.57    -10.27578     19.64108     57.02229         8     0.945     0.706  33.38   0
       155    864.9088    452.8756 300.3100372 +22.7786611     508.0425     69.75875      1.149     2.74    -10.45241     19.64108     90.81921         8     0.839     0.683 -65.88   0
       156    849.1558    449.1311 300.3063438 +22.7728661     350.2904     69.58157      1.154     2.09    -10.42483     19.64108     64.69659         6     0.695     0.545  26.84   0
       157    593.6575    447.3347 300.2273395 +22.6957898     1500.946     69.65249      1.103     2.02    -9.820149     19.64108     241.1363        15     0.900     0.827 -64.45   0
       158    954.2184    446.0480 300.3400981 +22.8034507     369.0916     69.65249      1.172     2.10     -10.6803     19.64108     63.71902         7     0.712     0.629 -79.80   0
       159   1004.8508    426.0885 300.3623718 +22.8128778     667.8729     69.61703      1.013     1.70    -10.86052     19.64108     144.3152        10     0.788     0.658  82.72   0
       160    876.6540    425.8230 300.3224863 +22.7744062     335.0587     69.63477      1.188     2.25    -10.42881     19.64108     56.34101         6     0.694     0.600 -29.65   0
       161    963.0214    424.8226 300.3497381 +22.7999870      376.239     69.61703      1.071     2.02    -10.66215     19.64108     87.49522         7     0.671     0.645  60.53   0
       162    704.1298    420.9559 300.2703095 +22.7213208      507.307     69.58157      1.089     2.46    -10.18443     19.64108     98.63628         8     0.827     0.622  61.18   0
       163    208.4101    419.7548 300.1164607 +22.5723624     460.4978     69.63477      1.302     3.23    -10.39464     19.64108     68.55556         7     1.074     0.486  62.23   0
       164   1003.4723    413.4911 300.3660338 +22.8088440      2077.22     69.77644      1.025     1.97    -10.79526     19.64108     350.2074        18     0.961     0.789  75.68   0
       165    270.4239    415.2156 300.1372118 +22.5896591     1831.005     69.61703      1.165     2.10    -10.14732     19.64108     272.3332        16     0.910     0.827  74.32   0
       166    217.6927    410.0429 300.1225001 +22.5723598     3732.049     69.63477      1.214     2.03    -10.25366     19.64108     614.6863        22     1.009     0.875  57.49   0
       167    358.5035    404.2280 300.1681686 +22.6129181     2357.521     69.56382      1.183     2.20    -9.979573     19.64108     328.0095        21     1.002     0.893  61.78   0
       168    983.4158    404.4663 300.3627102 +22.8002439      952.969      69.5993      1.014     2.01    -10.68624     19.64108     159.6331        13     0.840     0.801  53.95   0
       169    602.6359    400.8592 300.2452307 +22.6851340     8912.856     69.63477      1.153     1.92    -9.746561     19.64108      1568.59        36     1.048     0.956  59.35   0
       170    620.1360    400.5919 300.2507663 +22.6903018      482.941      69.5993      1.976     5.66    -9.805413     19.64108     45.94651         9     1.493     0.604 -41.66   0
       171    936.0627    383.1436 300.3548697 +22.7799344     515.2388     69.67021      1.337     1.80    -10.29369     19.64108      86.3441         7     0.764     0.506  45.26   0
       172    157.3642    381.2608 300.1130984 +22.5460064      1080.89     69.63477      1.229     2.28    -10.36502     19.64108     143.8436        15     0.921     0.824 -71.79   0
       173    543.3206    370.2481 300.2367071 +22.6585660     3275.961     69.63477      1.172     1.97    -9.537792     19.64108     518.2187        23     1.069     0.854  63.04   0
       174    956.8115    370.4503 300.3654617 +22.7824996     689.9485     69.65249      1.268     2.53    -10.38565     19.64108      113.903        12     1.003     0.811  24.89   0
       175    258.2339    369.5741 300.1482443 +22.5729049     188.4439     69.63477      1.064     2.65    -9.791444     19.64108     57.11388         7     0.896     0.478   9.70   0
       176    115.5294    362.8255 300.1060862 +22.5281684     227.7816     69.61703      1.236     3.40    -10.23248     19.64108     34.90903         5     0.781     0.428  66.79   0
       177    747.2802    359.0815 300.3038466 +22.7164740     505.5898     69.75875      1.243     4.39    -9.982541     19.64108     88.28818         9     1.312     0.580  59.29   0
       178    449.9300    356.6298 300.2120662 +22.6266632     3030.045     69.61703      1.171     2.02    -9.419315     19.64108     511.4197        22     0.981     0.866  61.73   0
       179    939.1502    350.3997 300.3664661 +22.7714475     425.3558      69.5993      1.231     3.01    -10.11398     19.64108     59.98212         8     0.963     0.580 -64.79   0
       180    841.9776    350.8189 300.3360379 +22.7424661     765.1443     69.61703      1.243     2.01    -9.981981     19.64108     140.0666        11     0.922     0.711 -67.96   0
       181    434.2583    345.5468 300.2107890 +22.6187832     233.4421     69.67021      1.117     4.44    -9.309115     19.64108     41.28062         5     0.839     0.668  35.23   0
       182    814.7537    338.1406 300.3316704 +22.7306686      329.081     69.65249      1.368     4.29    -9.853293     19.64108     50.96191         6     1.042     0.542 -64.16   0
       183    337.5065    335.8160 300.1838538 +22.5869847     1271.879     69.54607      1.236     2.11    -9.429179     19.64108     198.2205        16     0.960     0.826  51.81   0
       184     55.8127    333.0931 300.0971893 +22.5017251     464.1269     69.56382      1.321     3.03    -10.18208     19.64108     72.08511        10     0.981     0.707 -89.81   0
       185    306.8073    325.3148 300.1777170 +22.5747660     14605.59     69.54607      1.218     2.08    -9.417085     19.64108     2223.982        43     1.127     1.000  74.67   0
       186    841.4047    322.5901 300.3450254 +22.7341820     550.2803     69.47504      1.011     2.08    -9.838652     19.64108     100.3014         9     0.810     0.619  53.69   0
       187      3.2121    313.2863 300.0872835 +22.4802635     2447.886     63.30159      1.229     2.24    -10.24445     19.64108      355.942        22     1.039     0.889  56.83  24
       188    756.7899    311.4199 300.3222851 +22.7056280      298.148      69.5993      1.364     2.39    -9.816752     19.64108     48.65142         6     0.716     0.602  59.39   0
       189    181.2206    311.4744 300.1431705 +22.5331356     309.3107     69.61703      1.513     4.21    -9.815351     19.64108     42.18962         6     0.727     0.696 -31.71   0
       190    405.2379    310.4211 300.2131653 +22.5999986     319.3494     69.63477      1.037     2.48    -9.259236     19.64108     37.42065         5     0.697     0.464  18.88   0
       191    717.1375    304.8535 300.3120642 +22.6918632     944.0618     69.67021      1.259     2.34    -9.820144     19.64108     156.0854        12     0.896     0.742  67.18   0
       192    379.0493    289.7299 300.2117361 +22.5862074         1032     69.61703      1.389     3.57    -9.243081     19.64108      141.508        14     1.363     0.678  62.53   0
       193    591.5839    288.6924 300.2782112 +22.6496047     142.5627     69.54607      0.995     3.46    -9.443357     19.64108     30.41125         5     0.769     0.449  70.93   0
       194    817.7965    282.3351 300.3507371 +22.7155421     201.7613     69.61703      1.064     3.27    -9.490836     19.64108     40.54739         6     0.723     0.636  66.48   0
       195    700.2249    280.3292 300.3147577 +22.6797502     183.2997     69.61703      1.246     3.66    -9.634749     19.64108     33.64688         6     0.718     0.660 -81.85   0
       196    454.8425    268.9239 300.2420689 +22.6029502     626.5613      69.5993      1.219     2.54    -9.234851     19.64108     116.4261        12     0.905     0.786  37.01   0
       197    699.6208    260.7177 300.3209356 +22.6739341     1024.281     69.58157      1.165     2.28    -9.541282     19.64108     166.7784        13     0.879     0.757  60.53   0
       198    960.8428    254.9601 300.4042163 +22.7505061     1480.872     69.70564      1.117     1.90    -9.850879     19.64108     305.7959        15     0.875     0.755  50.92   0
       199   1022.1357    249.6819 300.4250454 +22.7673372     377.4777     61.96131      1.738     4.17    -10.24934     19.64108     33.97133         6     0.758     0.653  58.54  16
       200    407.7921    244.5961 300.2353270 +22.5818624     243.7644     69.45726      1.149     2.31    -9.236795     19.64108       47.536         5     0.708     0.445  22.15   0
       201    113.4470    238.5490 300.1457818 +22.4918825     243.5012     69.65249      1.352     3.80    -9.764597     19.64108     43.37494         9     0.986     0.764 -80.17   0
       202     82.9905    238.6596 300.1362841 +22.4827806      831.863     69.58157      1.766     4.92    -9.873482     19.64108     78.49467        15     1.339     0.951 -31.31   0
       203    166.3995    231.1919 300.1646230 +22.5056495     251.5404     69.43948      1.216     3.45    -9.403158     19.64108     28.67855         5     0.758     0.453  72.18   0
       204    771.3807    222.2133 300.3557885 +22.6843617      357.233     69.58157      1.253     3.42    -9.302842     19.64108     47.54117         5     0.766     0.441  71.16   0
       205    869.4256    211.1267 300.3899418 +22.7105339     1065.914     69.63477      1.140     2.10      -9.3157     19.64108     167.8296        13     0.827     0.783 -82.87   0
       206    288.0434    208.6977 300.2097347 +22.5356612     1119.858     69.61703      1.298     2.36    -9.208529     19.64108     160.6148        15     1.010     0.806  61.88   0
       207    365.6203    203.5808 300.2355199 +22.5574446     445.0783     69.61703      1.402     3.14    -9.103355     19.64108     59.62745        10     0.983     0.717  30.10   0
       208    768.1407    202.8085 300.3610765 +22.6778140      180.331     69.58157      1.152     2.59    -9.182837     19.64108     48.38352         5     0.704     0.669  41.95   0
       209    182.7285    195.9213 300.1811430 +22.5004211      361.177     69.72335      1.230     2.69    -9.272386     19.64108     51.08737         9     0.881     0.646 -17.43   0
       210    720.5144    192.6950 300.3495208 +22.6606441     808.2598     69.79414      1.162     2.29    -9.147241     19.64108     125.7331        14     0.888     0.840  -0.19   0
       211    785.4509    192.2043 300.3699113 +22.6799497      259.493     69.61703      1.087     1.87     -9.08882     19.64108     53.04273         5     0.651     0.477  71.37   0
       212    204.2656    189.2451 300.1900030 +22.5049615     260.4792     69.61703      0.980     2.38    -9.173367     19.64108     43.50745         6     0.714     0.549  40.75   0
       213    992.0349    184.9498 300.4366659 +22.7397122     485.9979     69.63477      1.200     2.61    -9.019588     19.64108     85.19847         8     0.841     0.651  59.65   0
       214    724.5036    183.8651 300.3536288 +22.6593010     389.5312     69.72335      1.302     3.34    -9.080396     19.64108     49.06682         8     0.855     0.679 -31.63   0
       215    644.9385    183.3372 300.3290184 +22.6353190      596.873     69.65249      1.149     2.39    -9.047877     19.64108     94.13355        10     0.848     0.732  52.28   0
       216    840.5777    174.7666 300.3927494 +22.6914435      724.256     69.61703      1.240     2.48    -9.122758     19.64108     108.2747        12     0.925     0.712  46.23   0
       217    571.4032    175.2872 300.3087345 +22.6109783     498.1384     69.54607      1.208     2.20    -8.982759     19.64108     80.59457         6     0.661     0.602  21.33   0
       218    852.7116    173.7827 300.3968506 +22.6947935     390.7497     69.54607      1.213     2.87    -9.162896     19.64108     57.95143         9     0.864     0.729  82.62   0
       219   1013.3842    164.6914 300.4498983 +22.7402760      754.726     69.54607      1.057     2.09    -8.344106     19.64108     148.4463        13     0.889     0.750  78.04   0
       220    969.1619    164.1397 300.4362853 +22.7268813     495.4781     69.63477      1.126     2.01    -8.766304     19.64108     105.0373         8     0.698     0.646 -75.33   0
       221    203.4303    157.6692 300.1999882 +22.4956460     391.0589      69.5993      1.431     2.40    -9.036589     19.64108     56.27722         5     0.666     0.492 -82.56   0
       222     65.2301    152.3270 300.1587799 +22.4526777     1133.025     69.61703      1.286     2.41    -9.169761     19.64108     132.1782        15     1.040     0.807  51.36   0
       223    888.2509    148.7765 300.4160425 +22.6982435     441.5577     69.61703      1.075     1.81    -9.056514     19.64108     80.66497         6     0.651     0.576  61.96   0
       224     14.8352    149.0544 300.1441893 +22.4366266      250.163     69.63477      1.290     4.35    -9.149102     19.64108     27.35567         6     0.806     0.667 -83.39   0
       225    222.6751    145.6057 300.2098837 +22.4979514      2848.76     69.54607      1.216     2.17    -8.856988     19.64108     436.3023        22     1.096     0.831  66.48   0
       226      6.7961    139.9328 300.1446518 +22.4315981     695.7777      69.5993      1.337     2.75    -9.087128     19.64108     95.61175        12     1.030     0.703 -87.39  16
       227    205.5123    135.9683 300.2076755 +22.4900396     251.7609     69.58157      1.160     3.42    -8.882403     19.64108     42.76885         5     0.738     0.625  -5.75   0
       228   1021.3857    132.8016 300.4627410 +22.7334986     8931.212     64.76675      1.150     2.01    -8.248149     19.64108     1486.464        35     1.034     0.946  86.12  24
       229    866.6473    126.9104 300.4164023 +22.6854889     1731.516     69.58157      1.153     2.10    -8.850883     19.64108      292.917        15     0.870     0.839 -12.50   0
       230    970.3756    125.5515 300.4491838 +22.7161469     1282.799     69.61703      1.087     2.06    -8.589849     19.64108     214.9292        14     0.905     0.727  59.24   0
       231    416.1519    122.0756 300.2776828 +22.5491778      262.989     69.61703      1.348     2.78    -9.044848     19.64108     45.53599         6     0.869     0.467  56.52   0
       232    340.1215    114.1456 300.2566058 +22.5241175      392.082     69.65249      1.144     2.57    -8.873242     19.64108     45.64366         6     0.725     0.564  39.31   0
       233    395.5129    110.2035 300.2751134 +22.5395834     277.7595     69.54607      1.493     3.42     -9.00063     19.64108     36.94548         5     1.079     0.313  67.83   0
       234    106.6267    110.9904 300.1850490 +22.4532243     320.7411     69.61703      1.320     3.96     -8.88138     19.64108     42.42654         7     0.747     0.684  89.30   0
       235    467.4459    109.6343 300.2976782 +22.5609720     847.7013     69.63477      1.102     2.22    -8.874776     19.64108     132.4808        13     0.885     0.770  76.33   0
       236    756.2883     99.1378 300.3910196 +22.6444641     219.5606     69.70564      1.115     3.03    -8.412333     19.64108     36.42056         6     0.739     0.621 -17.53   0
       237    241.5495     89.4609 300.2339630 +22.4874871     2850.222     69.67021      1.203     2.27    -8.606475     19.64108     382.5288        22     1.061     0.868  70.56   0
       238     92.3667     89.1691 300.1876965 +22.4426849     443.2552     69.63477      1.262     2.62    -8.791027     19.64108     49.23163         6     0.712     0.614 -13.30   0
       239    487.5557     74.7826 300.3152404 +22.5569830     3121.605     69.63477      1.272     2.33    -8.667017     19.64108     457.1686        24     1.067     0.949  39.24   0
       240    372.8488     74.8584 300.2795277 +22.5226395     419.4102     69.67021      1.578     3.38    -9.044809     19.64108     43.33265         7     0.961     0.636  34.71   0
       241    739.8777     64.2518 300.3972223 +22.6295212     420.9304     69.61703      1.449     2.80    -8.092643     19.64108      56.7121         8     0.883     0.624   6.34   0
       242    180.5771     58.1332 300.2251712 +22.4602165     364.3098      69.5993      1.500     4.37    -8.680894     19.64108     47.30804         6     0.930     0.584 -50.61   0
       243    615.9669     54.7295 300.3617172 +22.5896809     2997.391     69.61703      1.236     2.18    -8.347356     19.64108     496.4057        21     1.047     0.863  74.93   0
       244    390.7442     53.7595 300.2919369 +22.5219401     749.7284      69.5993      1.231     2.46    -9.140912     19.64108     113.3648        14     0.949     0.844 -66.13   0
       245    657.0308     52.0570 300.3753714 +22.6012095     517.7694     69.63477      1.252     2.36    -8.144508     19.64108     70.65202         9     0.775     0.718  89.37   0
       246    672.9998     47.7783 300.3817325 +22.6047612     172.7632     69.54607      1.214     2.41    -8.035331     19.64108     43.03846         7     0.705     0.666  -2.33   0
       247    942.6851     45.5555 300.4664971 +22.6848512     380.5759      69.5993      1.371     3.31     -8.66778     19.64108     44.78587         7     0.928     0.517  58.01   0
       248    139.9158     46.2412 300.2163917 +22.4446141     287.8604     69.58157      0.960     1.84    -8.741931     19.64108     59.58053         6     0.683     0.527 -58.62   0
       249    982.0751     45.0250 300.4789527 +22.6964861     181.5246     69.63477      0.989     3.18    -8.948033     19.64108      32.5554         5     0.617     0.610 -14.33   0
       250    711.2609     43.3783 300.3950770 +22.6149523     122.3347     69.58157      0.940     4.16    -7.951127     19.64108     47.00156         6     0.746     0.663  77.21   0
       251    660.1585     39.5827 300.3803909 +22.5985602     1305.821     69.63477      1.251     2.27    -8.049625     19.64108     203.0003        16     1.005     0.800  60.69   0
       252    674.9110     37.8892 300.3855348 +22.6024906     316.6963     69.77644      1.378     4.50    -7.952106     19.64108     48.38299         9     1.168     0.754  40.14   0
       253    746.6706     31.0238 300.4101147 +22.6220015     690.7513     69.63477      1.150     2.30    -7.824406     19.64108     124.3704        11     0.888     0.723  39.23   0
       254    684.4980     24.0981 300.3929930 +22.6013965     294.3751     69.81182      1.295     2.66    -7.828706     19.64108      56.1666         7     0.838     0.570   6.92   0
       255    490.0888     23.6524 300.3326102 +22.5430495      494.995     69.63477      1.432     2.93    -8.490735     19.64108     70.45387         9     0.899     0.728  29.76   0
       256    394.1281     22.1615 300.3032361 +22.5138759     493.8217     69.58157      1.242     2.91    -9.254595     19.64108     68.35192         8     0.974     0.522  55.31   0
       257     62.5314     23.6288 300.1996820 +22.4149251     152.8864      69.5993      1.022     3.90    -8.791027     19.64108     33.45846         6     0.901     0.482  -1.96   0
       258    776.3742     20.2271 300.4228707 +22.6277892     186.6213     69.58157      1.251     3.47    -7.719128     19.64108     31.97803         5     0.782     0.444  72.66   0
       259    290.1076   1020.4169 299.9465226 +22.7691274     627.9872     67.92975      1.231     2.27    -12.33385     19.64108     85.11246        11     0.888     0.706  75.48  16
       260    125.7937   1015.1212 299.8971845 +22.7182638     867.1449     69.54607      3.583     5.35     25.79442     19.64108      47.5206         7     1.188     0.750 -45.64   2
       261    192.3947   1016.4478 299.9174451 +22.7386471     378.3394      69.5993      2.411     6.33     26.49355     19.64108     69.17844         9     2.453     0.458 -17.27  18
