#   1 NUMBER                 Running object number                                     
#   2 X_IMAGE                Object position along x                                    [pixel]
#   3 Y_IMAGE                Object position along y                                    [pixel]
#   4 ALPHA_J2000            Right ascension of barycenter (J2000)                      [deg]
#   5 DELTA_J2000            Declination of barycenter (J2000)                          [deg]
#   6 FLUX_APER              Flux vector within fixed circular aperture(s)              [count]
#   7 FLUXERR_APER           RMS error vector for aperture flux(es)                     [count]
#   8 FLUX_RADIUS            Fraction-of-light radii                                    [pixel]
#   9 FWHM_IMAGE             FWHM assuming a gaussian core                              [pixel]
#  10 BACKGROUND             Background at centroid position                            [count]
#  11 THRESHOLD              Detection threshold above background                       [count]
#  12 FLUX_MAX               Peak flux above background                                 [count]
#  13 ISOAREA_IMAGE          Isophotal area above Analysis threshold                    [pixel**2]
#  14 A_IMAGE                Profile RMS along major axis                               [pixel]
#  15 B_IMAGE                Profile RMS along minor axis                               [pixel]
#  16 THETA_IMAGE            Position angle (CCW/x)                                     [deg]
#  17 FLAGS                  Extraction flags                                          
         1    167.2132     17.0432 300.2354511 +22.4425095     1868.319     69.23338      1.302     2.33    -8.515757     19.52787     248.8178        21     0.996     0.991  47.45   0
         2    728.4883      9.3178 300.4125731 +22.6084359     365.4368     69.32145      1.187     2.99    -7.671487     19.52787     57.65582         8     0.960     0.710 -29.44   0
         3    283.0754      9.0231 300.2740629 +22.4749321     476.2892       69.251      1.248     3.13    -8.437684     19.52787     66.61076         9     0.800     0.738  56.38   0
         4    689.5345      3.9737 300.4021739 +22.5952367     323.9686     65.76225      1.411     2.77    -7.839362     19.52787     43.39693         6     0.773     0.490  80.96  16
         5    786.3843      1.2218 300.4332351 +22.6234423     576.3506     53.25346      0.955     2.12    -7.519099     19.52787     141.1836         6     0.826     0.414   2.28  24
         6    142.9808   1019.9245 299.9019736 +22.7227624     462.3262     68.72034      4.123     5.45     24.74429     19.52787     36.32501         5     1.416     0.593  13.11  16
         7    130.0000   1020.8810 299.8976300 +22.7191369     992.0731     66.11387      2.417     5.10     24.47479     19.52787     31.97253         5     2.169     0.339  80.85  18
         8     79.4377   1011.1631 299.8850916 +22.7011648     2483.025     69.28623     22.509    74.60     12.39557     19.52787     63.46796      1020    17.173     8.990  44.24  27
         9     72.7054    924.0499 299.9113662 +22.6741974     2067.305     69.26862     15.785    26.41    -8.866446     19.52787     45.50505       164     6.234     3.107 -34.62   3
        10     61.3436    976.0724 299.8909001 +22.6856815     2123.125     69.23338     21.253    32.23    -1.008856     19.52787     60.38062       238     6.288     4.586  39.43   3
        11     76.3680    962.8958 299.8998561 +22.6864218     2680.742     69.18048     25.912    62.01   -0.2784825     19.52787      63.8783       913    13.216     8.073  63.22  19
        12    226.1635    980.7571 299.9405726 +22.7365293     1568.566     69.28623      8.297    16.07     8.906335     19.52787     55.34647        41     3.149     2.281  49.38   3
        13    237.5327    988.4601 299.9415972 +22.7421501     4104.535       69.251      7.087    28.06     7.032065     19.52787      100.976       245     7.380     2.963  68.11  18
        14    635.5797    997.3115 300.0625196 +22.8641803     4442.352      69.1452      1.131     1.92    -13.10227     19.52787     691.8161        30     1.130     0.929 -48.11   3
        15    730.1299   1000.1221 300.0910442 +22.8933564     215.4636     69.32145      0.928     1.99    -13.52231     19.52787     69.80605         8     0.774     0.616 -54.01   0
        16    164.3338    989.6752 299.9184580 +22.7205137     1036.024     69.28623      5.330     9.69     15.05694     19.52787     42.18492        16     2.420     1.082  56.32   2
        17    194.4688   1014.4254 299.9197599 +22.7366533     766.8958     69.21575      5.439     7.26     22.55944     19.52787     38.58064        13     1.485     0.995  83.71  16
        18    923.0126    983.2658 300.1566301 +22.9463794     399.1689     69.16284      1.193     1.89    -13.51183     19.52787     80.84427         7     0.664     0.650  -4.18   0
        19    157.6394   1011.7753 299.9091811 +22.7248320     375.6952       69.251      1.881     7.21     22.67641     19.52787     39.21958        10     2.125     0.685  81.67  16
        20    225.5771   1013.2552 299.9298069 +22.7456615     429.9881     69.23338      1.555     2.57     20.77834     19.52787     48.98378         5     0.705     0.456 -69.35   2
        21    629.9829    999.6752 300.0600075 +22.8631785     3993.985     69.21575      1.199     1.88    -13.11134     19.52787     694.9273        28     1.042     0.939 -17.34   3
        22    141.4685    970.2928 299.9176667 +22.7080949     786.6704     69.33905      4.174     6.59     7.610868     19.52787     41.99154         9     1.495     0.815  46.71   0
        23    648.2826    966.7657 300.0764222 +22.8592347     3557.102     69.18048      1.222     2.13    -13.01743     19.52787     549.9737        27     1.058     0.973 -88.86   0
        24     75.9674    934.6825 299.9089176 +22.6782221      2106.44     69.19812     20.012    28.38    -6.966274     19.52787     61.50079       176     7.634     2.928 -21.95   3
        25    351.8966   1011.2568 299.9697213 +22.7830229     339.2345     69.30385      1.626     3.94    -13.14941     19.52787     46.97658         5     0.788     0.673  52.81   0
        26    206.7262   1007.1342 299.9259430 +22.7382466     1083.658       69.251     10.478    11.67     19.60885     19.52787     42.36469        24     2.645     1.433 -49.08  19
        27    222.9452    998.7311 299.9337193 +22.7407110     1221.091       69.251     12.684    15.15     16.09207     19.52787     44.33069        33     3.003     2.126 -12.81   3
        28    527.5977    960.8434 300.0407887 +22.8213205     219.2262     69.21575      1.431     3.43    -13.34465     19.52787     31.90215         5     0.746     0.456  72.17   0
        29    230.3344    986.7855 299.9399056 +22.7395086     1479.304     69.19812      7.182     9.90     9.665163     19.52787     61.71885        32     3.895     0.702 -85.93   3
        30    215.6621   1000.6139 299.9308430 +22.7390630     1698.078     69.18048      7.963    10.77     17.08644     19.52787     46.51347        31     2.495     1.296 -34.20   3
        31    215.9153    994.8197 299.9328087 +22.7374794     2121.742      69.1452     10.995    14.24     14.85077     19.52787     54.08298        69     2.750     2.348 -11.97   3
        32    106.9418    952.4540 299.9127510 +22.6926154     1336.895     69.26862     15.435    15.33    0.5992853     19.52787     47.62109        36     3.069     2.128  71.49   3
        33     52.8220    956.6790 299.8945687 +22.6775683     989.2736     69.19812      6.132     4.89    -5.752248     19.52787      37.1636         5     1.202     0.713  19.95   3
        34    450.5985    954.0496 300.0190460 +22.7962622     544.5012     69.19812      1.093     1.96    -13.23993     19.52787     101.3048         8     0.720     0.656 -10.52   0
        35    381.2525    952.0586 299.9981273 +22.7748748     3170.029     69.26862      1.170     2.04    -12.82417     19.52787     535.0237        23     0.952     0.928 -51.58   0
        36    556.9286    957.3958 300.0510385 +22.8291349     768.5509     69.16284      1.200     2.19    -13.23815     19.52787     114.8964        10     0.850     0.648 -57.70   0
        37    543.5195   1004.5001 300.0315254 +22.8386125     920.9296     69.33905      1.041     2.20    -13.85595     19.52787     151.3172        14     0.932     0.749 -47.11   0
        38    413.6496    938.7619 300.0125317 +22.7807898     316.9715     69.23338      1.251     3.52    -13.01203     19.52787     45.92087         7     0.911     0.561  37.17   0
        39    927.5704    930.6041 300.1752005 +22.9326380     1064.823     69.18048      1.164     2.05    -13.32796     19.52787     145.2132        14     1.046     0.750  60.03   0
        40    716.2936    919.3915 300.1130251 +22.8660549      395.578     69.12754      1.727     5.11    -12.90802     19.52787     54.19756         8     1.452     0.632  69.30   0
        41    196.9988    998.7455 299.9256526 +22.7329225     1826.959      69.1452      7.252    16.90     17.01748     19.52787     70.13256        66     3.597     2.206 -40.25   3
        42    751.0845    913.9357 300.1256369 +22.8749265     550.9922     69.30384      1.224     2.87    -12.97721     19.52787      104.113        10     0.964     0.789 -44.45   0
        43    528.7092    914.7876 300.0561306 +22.8084519     117.6057     69.16284      1.139     4.13    -12.86447     19.52787     28.79621         6     0.748     0.652 -22.69   0
        44    773.3918    907.4180 300.1347073 +22.8797482     5627.293     69.16284      1.086     1.91    -13.05966     19.52787     905.5888        27     0.981     0.907 -79.02   0
        45    964.3340    906.6780 300.1944514 +22.9367963     177.0937     69.30385      1.010     2.57    -13.13196     19.52787     49.91439         5     0.713     0.458  -9.48   0
        46     84.9147    899.0872 299.9232841 +22.6707155     326.0741     69.33905      1.237     3.77     -9.94704     19.52787     39.58136         9     0.926     0.702 -69.66   0
        47    781.8463    889.5483 300.1431588 +22.8771583      771.858       69.251      1.076     2.26    -13.01998     19.52787      124.444        10     0.902     0.651 -51.51   0
        48    820.2290    882.9919 300.1572509 +22.8867889     358.7764     69.21575      1.207     2.21    -13.02037     19.52787     73.23505         7     0.715     0.620  57.87   0
        49    868.4470    874.3549 300.1750873 +22.8987707     300.1308       69.251      1.099     2.54    -12.92442     19.52787     51.99197         5     0.683     0.494  83.58   0
        50    432.4787    869.6879 300.0408752 +22.7666439     1916.168     69.35665      1.106     2.04    -12.30954     19.52787     307.9635        16     0.896     0.824 -85.81   0
        51    731.1735    870.3766 300.1336165 +22.8564605     254.3367     69.18048      1.043     2.19    -12.85225     19.52787     57.66595         6     0.702     0.573  87.05   0
        52     94.0720    858.6092 299.9393033 +22.6618720     201.5905     69.19812      1.238     4.06    -12.25826     19.52787     33.15785         5     0.782     0.603 -79.68   0
        53    157.6276    855.5052 299.9600549 +22.6800686     419.3495     69.12754      1.114     3.55    -12.03793     19.52787     67.47495         7     0.924     0.502 -62.45   0
        54    134.8402    852.5978 299.9539224 +22.6723929     869.1862     69.21575      1.254     2.38    -12.11698     19.52787     125.3811        14     0.966     0.849  89.06   0
        55   1006.4355    841.2495 300.2288785 +22.9306410     1097.314     69.23338      1.192     2.11    -12.63354     19.52787     150.2364        13     0.916     0.752 -15.10   0
        56    651.2617    842.4413 300.1178260 +22.8244780     845.5699     69.19812      0.734     0.98    -12.53928     19.52787     378.1906         5     0.516     0.468  49.77   0
        57    960.6741    839.9326 300.2150392 +22.9165451       920.57     69.28623      1.078     2.06     -12.6442     19.52787     170.8647        11     0.825     0.714 -17.14   0
        58    744.0200    833.8676 300.1495014 +22.8498412     273.1291     69.18048      1.258     3.66    -12.58282     19.52787     51.88486         5     0.763     0.538 -23.94   0
        59    166.6168    833.8706 299.9698886 +22.6765697      211.629     69.23338      1.248     3.13    -12.01926     19.52787      35.0537         5     0.749     0.433  68.74   0
        60    612.4099    827.8080 300.1104937 +22.8086263      2210.23     69.09223      1.064     1.90     -12.3806     19.52787     395.5618        15     0.843     0.781 -89.47   0
        61    414.7664    824.7178 300.0500030 +22.7484375     343.6149     69.18048      1.199     2.65    -12.23607     19.52787     57.63108         7     0.816     0.580 -32.73   0
        62    162.5632    821.8190 299.9725513 +22.6718997     749.7289     69.21575      1.339     2.53    -12.02376     19.52787     97.71686        12     0.902     0.779  51.82   0
        63    632.9816    820.0474 300.1194234 +22.8125718      330.877       69.251      1.182     1.91    -12.36939     19.52787     78.68237         7     0.811     0.479 -39.87   0
        64   1004.9386    807.5140 300.2393920 +22.9205091     739.6327     69.32145      1.459     3.55    -12.17834     19.52787     86.31515        12     1.042     0.846 -87.26   0
        65    788.4025    807.4957 300.1719094 +22.8555855     2025.627     69.12754      1.024     1.86    -12.40615     19.52787      340.608        15     0.834     0.782  58.17   0
        66    505.2618    799.8477 300.0862474 +22.7684625     217.6755       69.251      1.106     2.17    -12.23527     19.52787      53.0376         6     0.696     0.556 -49.42   0
        67    151.7498    798.1535 299.9768929 +22.6618726     398.9415       69.251      1.141     2.29    -12.03743     19.52787     87.76942         9     0.860     0.635  29.40   0
        68    567.6020    793.1977 300.1078106 +22.7852587     263.9982     69.00387      1.188     3.43    -12.11949     19.52787     53.78102         5     0.882     0.479 -40.76   0
        69    301.5153    790.2267 300.0260130 +22.7045608     26068.98     69.21575      1.170     1.92    -11.82252     19.52787     4100.122        62     1.135     1.070  88.90   0
        70    559.2776    789.1518 300.1065365 +22.7816012     778.5277     69.21575      1.134     2.03    -12.03929     19.52787     127.5286        11     0.790     0.747 -55.30   0
        71    972.1573    788.3677 300.2354019 +22.9051875     414.3499       69.251      1.183     2.29    -12.03134     19.52787     91.79343         7     0.829     0.551 -84.43   0
        72    229.8711    788.1968 300.0044057 +22.6824733     181.9972     69.16284      0.964     2.39    -11.83398     19.52787     46.47625         6     0.715     0.555 -60.22   0
        73    588.4016    785.1648 300.1168982 +22.7891947     489.5242     69.18048      1.216     2.45    -12.03427     19.52787     92.44658         9     0.870     0.720  48.54   0
        74    599.3067    783.1693 300.1209419 +22.7918936     317.3235      69.1452      1.118     2.50    -12.03513     19.52787     61.55711         6     0.784     0.589  60.49   0
        75    919.0167    780.9565 300.2212475 +22.8871310     62.78271     69.23338      0.973     2.09    -12.06015     19.52787     46.58825         5     0.610     0.563   0.75   0
        76    742.0377    769.9504 300.1696850 +22.8309101     369.3571     69.23338      1.194     1.98    -11.99653     19.52787     76.74905         7     0.801     0.504 -38.68   0
        77    351.2067    767.4649 300.0488680 +22.7129505     15216.99     69.18048      1.144     1.95    -11.70803     19.52787     2411.709        43     1.081     0.982 -80.68   0
        78    365.5053    767.8886 300.0531762 +22.7173631     1031.724     69.39183      1.221     2.30    -11.74738     19.52787     134.7034        15     0.964     0.803  86.84   0
        79    874.3082    763.2006 300.2130908 +22.8686323     1426.825     69.09223      1.120     1.77    -11.99238     19.52787     291.8823        16     0.924     0.789 -63.31   0
        80    362.5496    761.8444 300.0542237 +22.7147433     358.9359       69.251      1.415     2.09    -11.70829     19.52787     42.96941         5     0.688     0.452  66.37   0
        81    233.6294    759.3519 300.0149587 +22.6753351      389.684     69.23338      1.288     3.27    -11.81096     19.52787      48.2121         9     0.961     0.641 -80.43   0
        82    632.0486    759.2441 300.1389191 +22.7948524     521.4604       69.251      1.134     2.43    -11.81123     19.52787     98.29688         9     0.855     0.672  -8.74   0
        83     38.4392    754.6727 299.9558478 +22.6153923     251.9286     69.19812      1.224     3.53    -11.99222     19.52787     45.67729         7     0.939     0.490  84.48   0
        84    479.6892    754.2546 300.0931266 +22.7477165     442.5158       69.251      1.084     2.16    -11.73993     19.52787     70.22538         6     0.695     0.547 -39.16   0
        85    231.7041    743.9097 300.0193842 +22.6703315     363.6375     69.39183      1.343     2.65    -11.80054     19.52787     46.90035         6     0.755     0.581  41.57   0
        86    524.0382    732.1713 300.1141099 +22.7546886     236.0188     69.21575      0.946     2.29     -11.1496     19.52787     57.00518         6     0.846     0.440 -39.99   0
        87    940.5513    728.4924 300.2450312 +22.8785273     2173.686       69.251      1.056     1.93    -11.60319     19.52787     322.9661        16     0.888     0.790 -81.93   0
        88    546.1608    729.5112 300.1218594 +22.7605620     526.6871     69.19812      1.134     1.97    -10.97747     19.52787     114.0006        11     0.888     0.666  77.84   0
        89    466.1705    729.5544 300.0969568 +22.7365778     84.79501       69.251      0.977     2.86    -11.48201     19.52787     33.42406         5     0.723     0.466 -18.23   0
        90    929.1101    719.8802 300.2442666 +22.8726259     771.7446     69.33905      1.121     1.73    -11.51142     19.52787     187.9504        11     0.776     0.742 -71.37   0
        91    292.0466    713.9608 300.0478818 +22.6798585     339.9643     69.26862      1.109     3.03     -11.5048     19.52787     73.64896         9     0.875     0.737  13.59   0
        92    755.3561    711.2693 300.1929254 +22.8180665     1233.732     69.18048      1.109     1.90    -11.57305     19.52787      226.992        16     0.994     0.858  44.90   0
        93    960.2867    710.1258 300.2571591 +22.8791698     946.3809     69.35665      1.233     2.17    -11.46827     19.52787     166.2865        13     0.918     0.789 -71.54   0
        94    973.9653    700.9029 300.2644241 +22.8806215     112.4143     69.21575      1.089     4.40     -11.4511     19.52787     32.28967         5     1.084     0.509  37.02   0
        95    837.3926    696.8616 300.2231702 +22.8385264     318.0573     69.19812      1.302     4.15    -11.43479     19.52787     42.72966         6     0.746     0.658  55.76   0
        96    873.8201    688.1029 300.2373710 +22.8469319     71901.57      69.1452      1.150     1.81    -11.33965     19.52787        14245       104     1.214     1.116  89.70   0
        97   1020.7643    689.7421 300.2826474 +22.8914414     622.4786     66.64698      1.173     2.21    -11.62589     19.52787     119.6887        10     0.879     0.648 -40.31  16
        98    726.2524    688.4335 300.1912890 +22.8027876     312.5586     69.23338      0.965     1.72    -11.43396     19.52787     71.48148         5     0.635     0.472  20.88   0
        99    906.4487    680.8301 300.2499061 +22.8546240     237.6183     69.23338      0.988     2.36    -11.15253     19.52787     50.43167         5     0.697     0.473 -72.52   0
       100    560.1036    677.1716 300.1432241 +22.7497316     744.2767     69.16284      1.148     1.88    -10.75774     19.52787     142.3284        10     0.819     0.640 -81.84   0
       101    741.2589    674.2587 300.2005735 +22.8032194     4481.914     69.28623      1.139     1.83    -11.44049     19.52787     814.3795        23     0.922     0.893  82.10   0
       102    223.1795    675.5887 300.0389583 +22.6481908     187.1006     69.19812      1.180     3.50    -11.11069     19.52787     25.33391         5     0.786     0.449 -18.17   0
       103    768.4167    671.3433 300.2099811 +22.8105248     11991.62     69.18048      0.821     2.77    -11.33783     19.52787     3345.479        14     0.687     0.496 -54.03   0
       104    242.9520    669.7131 300.0470140 +22.6524407     2364.705     69.21575      1.192     2.10    -11.04972     19.52787     379.1675        20     0.964     0.876 -63.48   0
       105    324.7769    667.4830 300.0731742 +22.6763560     415.8559     69.18048      1.080     2.79    -10.96931     19.52787     76.00822         9     0.817     0.794   6.42   0
       106    200.4105    664.9301 300.0353493 +22.6383019     108.3495     69.19812      0.982     3.27    -11.04305     19.52787     40.15511         5     0.743     0.445 -69.32   0
       107    533.3375    663.0642 300.1394828 +22.7376570      375.901       69.251      1.260     2.19    -10.66514     19.52787     70.11078         7     0.688     0.651 -76.70   0
       108    524.7250    655.2224 300.1393531 +22.7328244     1514.585     69.21575      1.190     1.95    -10.62877     19.52787     266.8925        17     0.964     0.807  88.44   0
       109    515.0507    649.0305 300.1383565 +22.7281466     606.4221       69.251      1.167     2.20    -10.60361     19.52787     117.9268         9     0.781     0.674 -51.14   0
       110    908.7158    646.3774 300.2618187 +22.8454129      176.425     69.18048      0.990     3.60    -10.90496     19.52787     42.03773         5     0.851     0.439 -46.70   0
       111    178.6395    645.0898 300.0350368 +22.6260808     368.7713     69.21575      1.146     2.51    -10.89152     19.52787     51.87186         7     0.721     0.635 -67.68   0
       112    192.5506    643.6907 300.0398141 +22.6298549     265.3834     69.21575      1.131     3.16    -10.87098     19.52787     50.07101         9     0.913     0.726 -74.09   0
       113    439.8783    638.7919 300.1182991 +22.7026615     915.9664     69.16284      1.243     2.11     -10.5718     19.52787     142.8932        13     0.908     0.787  89.47   0
       114   1015.5780    635.7886 300.2985791 +22.8743949     374.2006     69.19812      0.991     2.21    -10.96864     19.52787     70.33463         5     0.696     0.449  67.33   0
       115     93.8776    633.8227 300.0123697 +22.5974097     9843.069     69.18048      1.261     2.13    -10.93644     19.52787     1521.897        40     1.100     1.049  78.86   0
       116    524.7255    633.8458 300.1463051 +22.7266927     529.8033     69.21575      1.216     2.26    -10.49502     19.52787     90.99294         9     0.821     0.664  85.16   0
       117    277.6948    625.4329 300.0722123 +22.6501723     172.9709     69.19812      1.210     5.38    -10.66247     19.52787     29.44811         5     0.999     0.819 -72.71   0
       118    942.7589    620.1791 300.2809508 +22.8480931     684.3054       69.251      1.374     2.81    -10.72434     19.52787     105.3004         9     0.877     0.739  37.23   0
       119     39.8024    617.9051 300.0007522 +22.5766153     814.9644     69.12754      1.658     5.40    -10.85425     19.52787      68.8905        17     1.371     0.867 -75.78   0
       120    488.0109    614.6012 300.1411392 +22.7101606     282.0998     69.03922      1.347     4.09    -10.37589     19.52787     33.26306         5     0.794     0.600 -88.61   0
       121    882.9655    612.5417 300.2647965 +22.8279818     393.4204     69.23338      1.324     2.00    -10.74508     19.52787     69.49789         6     0.743     0.496  -4.64   0
       122    444.7407    607.1029 300.1301161 +22.6950313     373.1964     69.28623      1.369     2.06    -10.31135     19.52787     62.82896         7     0.780     0.583  64.82   0
       123    592.6847    605.2357 300.1767589 +22.7388653     361.7692     69.19812      1.266     2.69    -10.33272     19.52787     47.33739         6     0.696     0.642  38.82   0
       124    610.8109    603.5476 300.1829502 +22.7438162     194.9741     69.21575      1.076     2.65    -10.33826     19.52787     39.24375         5     0.715     0.458  20.88   0
       125    489.1011    602.7885 300.1453194 +22.7070991     419.8166     69.12754      1.159     2.41    -10.27733     19.52787     67.53045         6     0.717     0.558 -59.40   0
       126    922.7367    598.1277 300.2818800 +22.8357617     1576.616       69.251      1.109     1.73    -10.66349     19.52787     338.8066        15     0.919     0.738 -60.48   0
       127    454.6089    598.2345 300.1360694 +22.6954475      849.778     69.19812      1.151     2.08    -10.23461     19.52787     135.4563        12     0.899     0.763 -11.91   0
       128   1020.7968    596.2338 300.3130697 +22.8645992     392.8917      66.5737      1.163     2.44    -10.46674     19.52787     71.26511         9     0.870     0.694 -45.15  16
       129     16.5976    592.0016 300.0019688 +22.5622263     2584.236     69.00387      1.255     2.23    -10.74039     19.52787     378.2697        22     1.001     0.945 -65.57   0
       130    318.0638    585.0262 300.0978996 +22.6506987     4404.251     69.19812      1.234     2.01    -10.36163     19.52787     760.1709        26     1.004     0.960  64.11   0
       131    440.4712    582.0474 300.1369344 +22.6865639     4367.502     69.19812      1.204     2.00    -10.10027     19.52787     670.5863        28     1.015     0.955 -72.68   0
       132    936.7020    573.1877 300.2943427 +22.8327850     6106.927     69.10989      1.115     1.90    -10.59171     19.52787     1091.215        31     1.010     0.958  74.66   0
       133    852.0572    575.7866 300.2671153 +22.8081666     910.2411     69.18048      1.152     1.77    -10.64832     19.52787     186.8382        11     0.773     0.758  58.42   0
       134    501.0777    571.6162 300.1591808 +22.7017487     5498.375     69.21575      1.220     2.05    -10.00447     19.52787     871.4886        29     1.051     0.963  65.46   0
       135    670.5720    567.2216 300.2133669 +22.7513097     271.0556     69.21575      1.071     3.12    -10.05388     19.52787     41.63888         5     0.723     0.462 -71.53   0
       136    228.4939    566.9768 300.0759258 +22.6186490     595.0302     69.12754      1.089     2.08    -10.52631     19.52787     116.6601         9     0.802     0.646  70.08   0
       137    775.3546    559.9515 300.2483651 +22.7806325     344.5347       69.251      1.174     3.88    -10.45591     19.52787     46.10278         6     1.004     0.429 -76.57   0
       138    432.6835    559.7332 300.1417664 +22.6778274     2075.002     69.32145      1.233     2.24    -9.916088     19.52787     340.7435        20     1.018     0.881  56.80   0
       139    410.9682    557.9879 300.1355794 +22.6708136     640.3554     69.19812      1.209     2.22     -9.93234     19.52787     99.80524        11     0.858     0.775 -37.13   0
       140    165.5500    557.5762 300.0594229 +22.5970662     408.3848     69.21575      1.227     2.74    -10.56762     19.52787     53.98813         7     0.801     0.634  75.95   0
       141    852.2833    554.8915 300.2739792 +22.8022353     796.3877     69.35665      1.429     3.10    -10.60247     19.52787     97.14157        12     1.037     0.794 -89.05   0
       142    733.0730    552.1309 300.2377371 +22.7657143     411.0556     69.28623      1.167     2.12    -10.25343     19.52787     75.92846         8     0.758     0.628 -27.20   0
       143    549.3360    547.3490 300.1820870 +22.7092578     100361.1     69.26862      1.199     2.10    -9.763543     19.52787     13923.55       124     1.274     1.232 -48.20   0
       144    235.4583    547.3447 300.0844720 +22.6151097     1734.462     69.26862      1.160     2.14    -10.48433     19.52787     241.1528        17     0.967     0.820  88.66   0
       145    439.9541    527.9210 300.1543691 +22.6708824     1404.078     69.21575      1.340     2.41    -9.782886     19.52787      199.711        19     1.331     0.850 -83.11   0
       146    851.6854    523.9446 300.2838532 +22.7931705     149.7246     69.28623      1.310     3.69    -10.50603     19.52787     40.83966         5     0.953     0.582  15.40   0
       147    836.8197    513.7283 300.2825416 +22.7857825     840.0687       69.251      1.118     2.15    -10.39153     19.52787     140.4162        10     0.824     0.681  85.85   0
       148    708.0827    511.5104 300.2431583 +22.7465637     1190.108     69.32145      1.179     2.09    -9.909216     19.52787     191.4485        15     0.939     0.882 -40.98   0
       149    950.9315    504.1849 300.3212107 +22.8172319     487.3779     69.23338      1.670     2.42    -10.52861     19.52787     66.22217         9     0.867     0.657  67.79   2
       150    495.2316    507.5465 300.1781885 +22.6816138     354.5594     69.23338      1.222     1.95    -9.735178     19.52787      52.4013         5     0.660     0.471 -20.30   0
       151    965.3638    505.2355 300.3253688 +22.8218573     604.5696     69.28623      1.028     1.87    -10.48927     19.52787     114.0792         7     0.650     0.602  69.08   0
       152    837.1198    504.1208 300.2857580 +22.7831137     1081.625     69.33905      1.362     2.06    -10.34173     19.52787     165.6476        11     0.867     0.691  82.42   2
       153    875.2050    498.7545 300.2993708 +22.7929845     2199.038     69.21575      1.216     1.79    -10.51832     19.52787     394.4131        22     1.070     0.824  87.08   0
       154    107.2542    489.5829 300.0634122 +22.5600799      562.569     69.19812      1.350     2.73    -10.60574     19.52787     75.47087        10     0.892     0.727  38.31   0
       155    967.1302    489.2292 300.3311221 +22.8177890     402.9753     69.21575      1.073     2.03    -10.48965     19.52787     78.60779         6     0.722     0.516  55.47   0
       156     99.8987    479.2025 300.0645007 +22.5548967     269.9059     69.10989      1.230     3.60    -10.58985     19.52787     49.63014         7     0.817     0.774 -81.95   0
       157    648.7284    469.3863 300.2383664 +22.7166813     382.9411     69.21575      1.195     3.76    -9.720667     19.52787     60.95005         6     0.912     0.444 -88.76   0
       158    963.3068    461.8558 300.3388264 +22.8087811     322.3569     69.26862      1.139     2.49    -10.38698     19.52787     53.85018         5     0.767     0.398 -69.23   0
       159    709.5855    461.5501 300.2598636 +22.7326721     335.4062     69.23338      1.090     2.35    -9.810725     19.52787     65.55054         9     0.883     0.618  82.30   0
       160    866.5652    457.3709 300.3101279 +22.7785115     574.9958     69.23338      1.204     3.71    -10.26726     19.52787     85.78202        10     1.110     0.621  69.66   0
       161    850.8722    453.8744 300.3063736 +22.7728057     305.4329     69.26862      1.083     2.14    -10.16687     19.52787     55.78322         6     0.706     0.552  53.58   0
       162    595.3666    452.1708 300.2273482 +22.6957444      1540.16     69.23338      1.276     2.36    -9.552929     19.52787     208.9813        17     0.986     0.867 -84.53   0
       163    955.7191    450.7794 300.3400603 +22.8033266     241.4271     69.18048      0.971     2.70    -10.34181     19.52787     52.76495         5     0.797     0.457  42.98   0
       164   1006.6118    431.0609 300.3623367 +22.8129055     585.3115     69.18048      1.065     1.93    -10.04266     19.52787     107.4422         9     0.742     0.655  40.79   0
       165    964.9481    429.6555 300.3498020 +22.8000229      484.642       69.251      1.140     2.25    -10.18123     19.52787     90.34528         8     0.759     0.667 -77.16   0
       166    705.9001    426.0364 300.2702558 +22.7213718     595.4467     69.19812      1.143     2.14    -9.808937     19.52787     98.71326         9     0.743     0.722 -67.09   0
       167    209.6964    424.5425 300.1163734 +22.5721657     319.8421     69.28623      1.412     2.91    -10.20524     19.52787     45.26633         7     0.832     0.653  65.27   0
       168    272.2593    420.3199 300.1371900 +22.5897208     1714.296     69.26862      1.178     2.25    -9.937872     19.52787      258.949        19     1.065     0.838  85.08   0
       169   1005.1823    418.4674 300.3659829 +22.8088593     2051.302     69.21575      1.113     2.01    -9.965071     19.52787     333.1271        17     0.927     0.808  79.77   0
       170    219.4319    414.9596 300.1225121 +22.5723377     3676.858     69.26862      1.287     2.32    -10.08706     19.52787     487.0535        26     1.083     0.957  86.97   0
       171    985.2083    409.4310 300.3626906 +22.8002811     815.0598     69.21575      1.130     1.89    -9.993673     19.52787     140.0249        10     0.756     0.703 -31.44   0
       172    360.2163    409.1707 300.1681585 +22.6129016     2137.258     69.21575      1.233     2.23    -9.700681     19.52787     321.1516        20     0.949     0.927  82.00   0
       173    604.3820    405.7725 300.2452303 +22.6851287     9050.531     69.21575      1.244     2.27    -9.528719     19.52787     1196.021        39     1.114     1.042 -75.18   0
       174    621.7948    406.1655 300.2505234 +22.6904606     470.7629     69.19812      1.927     5.58    -9.604937     19.52787     30.37282         9     1.375     0.639 -67.14   0
       175    937.6951    388.2889 300.3547457 +22.7799767     368.7472     69.39183      1.278     1.67    -10.05977     19.52787     68.39876         5     0.648     0.450 -78.04   0
       176    159.0813    386.0995 300.1131345 +22.5459570     1050.426     69.33905      1.361     2.73    -10.27656     19.52787     127.7122        14     1.064     0.791 -38.94   0
       177    545.0126    375.2041 300.2366817 +22.6585587     3267.833     69.07456      1.272     2.27    -9.149997     19.52787     461.5905        24     1.063     0.929  82.77   0
       178    958.7887    375.2784 300.3655488 +22.7825565     456.2469     69.19812      1.058     2.15    -9.928589     19.52787     94.42016         8     0.737     0.655  50.75   0
       179    658.4977    365.6275 300.2751200 +22.6898222     328.1355     69.16284      1.787     4.09    -9.650349     19.52787     39.22044         5     1.099     0.435 -53.49   0
       180    749.1685    363.9218 300.3039122 +22.7165015     652.0738     69.19812      1.351     3.39    -9.725757     19.52787     84.62557        13     1.101     0.781 -88.75   0
       181    451.7101    361.5771 300.2120765 +22.6266782     3036.226      69.1452      1.304     2.36    -9.283748     19.52787      406.195        25     1.118     0.965  70.05   0
       182    843.7188    355.5900 300.3360769 +22.7424344     693.8242     69.16284      1.123     2.12    -9.712267     19.52787     115.9464        10     0.830     0.680 -82.14   0
       183    339.1531    340.7014 300.1838498 +22.5869406     1186.723       69.251      1.261     2.53    -9.255593     19.52787     160.4257        17     1.000     0.939  47.54   0
       184     57.8452    338.2766 300.0972207 +22.5018720     464.6965     69.19812      1.283     2.92    -9.713556     19.52787     60.62059         9     0.859     0.685  76.05   0
       185    308.6399    330.3105 300.1777373 +22.5748096     14670.42     69.21575      1.295     2.28    -9.317387     19.52787     1879.035        52     1.201     1.116 -87.88   0
       186    843.0980    327.5646 300.3449864 +22.7341983     627.3395     69.21575      1.086     2.09     -9.63075     19.52787     113.6599        11     0.852     0.698  72.94   0
       187      4.9544    318.1980 300.0873174 +22.4802462     2472.774     68.45346      1.346     2.33    -9.563395     19.52787     327.7013        26     1.114     0.968  76.49  16
       188    759.1974    316.3835 300.3224770 +22.7058535     231.7085     69.12754      1.209     3.12    -9.588775     19.52787     42.43626         5     0.845     0.554 -51.57   0
       189    719.0114    309.9013 300.3120648 +22.6919524     975.1408     69.12754      1.226     2.38      -9.5466     19.52787     147.2276        10     0.820     0.719  76.71   0
       190    934.1741    302.5552 300.3814963 +22.7542906     426.3326     69.23338      1.052     1.52    -9.625465     19.52787     64.30153         5     0.598     0.486 -17.16   0
       191    380.8904    294.7533 300.2117507 +22.5862691     902.6741     69.19812      1.357     3.16    -9.042809     19.52787     134.1901        13     1.098     0.734  82.44   0
       192    819.9829    287.1459 300.3509101 +22.7156637     304.5015     69.19812      1.097     2.14    -9.509708     19.52787     66.08116         6     0.854     0.414  34.01   0
       193    702.0776    284.9820 300.3148833 +22.6797224     158.8347     69.21575      1.115     3.65    -9.412458     19.52787     36.34637         5     0.683     0.562   0.54   0
       194    456.6812    273.9106 300.2420935 +22.6030064     623.5679     69.32145      1.434     2.87    -8.971136     19.52787     83.95409        12     0.935     0.835  80.62   0
       195    701.5087    265.6778 300.3209744 +22.6740077     1008.455     69.35665      1.192     2.39    -9.292516     19.52787     145.0553        14     0.913     0.828 -46.03   0
       196    962.6805    260.0293 300.4041933 +22.7506066     1576.694     69.23338      1.192     2.06    -9.528062     19.52787      244.229        20     0.997     0.911 -60.28   0
       197    409.6985    249.2069 300.2354992 +22.5818326     374.0842     69.10989      1.619     4.22    -8.983362     19.52787     51.81975         6     1.217     0.425  81.21   0
       198     84.7830    243.7980 300.1362643 +22.4828567     668.6055     69.12754      1.431     3.90    -9.374112     19.52787     78.58322        13     1.258     0.721 -22.25   0
       199    115.1945    243.7017 300.1457421 +22.4919504     274.1875     69.10989      1.269     3.00    -9.377893     19.52787      43.7075         5     0.764     0.419 -16.73   0
       200    978.0383    240.1135 300.4154485 +22.7494813     285.2891     69.19812      1.446     3.68    -9.477942     19.52787     39.54599         7     0.892     0.727  12.05   0
       201    168.5313    236.0668 300.1647913 +22.5057559      169.618     69.26862      1.316     3.47    -9.333119     19.52787     37.41761         6     0.798     0.497 -85.65   0
       202    363.4849    227.6143 300.2281362 +22.5617821       239.06     69.16284      1.149     4.17    -8.919012     19.52787     38.01678         5     0.999     0.498 -87.19   0
       203    773.0342    227.1615 300.3557590 +22.6843697     303.7122       69.251      1.163     2.08    -9.400612     19.52787     63.02808         6     0.827     0.435  38.28   0
       204    871.0569    216.2390 300.3898491 +22.7105877     1024.342     69.21575      1.292     2.00    -9.439523     19.52787     168.0584        12     0.862     0.841 -37.76   0
       205    289.7935    213.5377 300.2097928 +22.5356508     1075.599     69.18048      1.359     2.53    -9.046307     19.52787     151.0402        16     1.019     0.936 -68.73   0
       206    367.8272    208.5486 300.2356757 +22.5576114      490.131     69.23338      1.325     3.28    -8.948002     19.52787     70.76228         9     0.827     0.768  17.14   0
       207    769.3103    207.3469 300.3610315 +22.6775619     295.0044       69.251      1.267     4.64    -9.182726     19.52787       36.889         7     0.904     0.675 -19.66   0
       208    184.5499    200.9910 300.1811546 +22.5004958     392.7715     69.21575      1.278     2.98      -9.2602     19.52787     50.69521         6     0.780     0.489  81.43   0
       209    722.3557    197.5357 300.3495900 +22.6606796     844.6954     69.21575      1.278     2.43    -8.993836     19.52787     110.3812        13     0.897     0.810 -31.84   0
       210    787.3749    197.1126 300.3699816 +22.6800319     280.4221     69.16284      0.964     2.08    -9.058661     19.52787     59.74812         5     0.704     0.434  67.31   0
       211    993.7632    189.9607 300.4366337 +22.7397741     533.7016     69.28623      1.262     2.39    -9.247102     19.52787     90.56835         9     0.941     0.569 -89.79   0
       212    726.2892    189.1810 300.3535271 +22.6594578     346.0591     69.16284      1.075     2.67    -8.929486     19.52787     57.77333         6     0.749     0.538  32.04   0
       213    646.8715    188.1385 300.3291332 +22.6353691      590.678       69.251      1.323     2.40    -8.726807     19.52787     85.99529         9     0.762     0.727 -71.21   0
       214    842.3354    179.9353 300.3926828 +22.6915552     779.9106     69.26862      1.340     2.33    -9.076352     19.52787     106.0352        10     0.918     0.684  43.96   0
       215    572.9554    180.2361 300.3086868 +22.6109551     451.6055     69.26862      1.203     3.01     -8.76898     19.52787     64.09704         8     0.948     0.564  69.13   0
       216    854.3220    178.9158 300.3967492 +22.6948515      405.575     69.32145      1.134     2.05    -9.135843     19.52787     81.02222         7     0.766     0.554 -64.09   0
       217   1015.2043    169.6954 300.4498982 +22.7403670     763.1014     69.12754      1.188     2.20    -9.150443     19.52787     146.0853        12     0.901     0.753 -81.35   0
       218    970.9980    168.8985 300.4363718 +22.7269050     378.8106     69.12754      1.296     2.80    -9.133148     19.52787     70.38297        11     0.914     0.771  40.97   0
       219    205.0775    162.1670 300.2001343 +22.4955104     389.5355     69.19812      1.281     3.57     -9.20522     19.52787     54.49771         8     0.950     0.640 -66.93   0
       220     66.9772    157.3381 300.1587969 +22.4527150     1094.492     69.19812      1.295     2.54     -9.16012     19.52787     146.8425        15     0.956     0.888 -12.55   0
       221    889.9375    153.9936 300.4159387 +22.6983533     501.2727     69.18048      1.760     4.56    -9.033853     19.52787     56.13082         9     1.238     0.667 -48.60   0
       222     16.6166    153.7076 300.1443357 +22.4365701     220.3177      69.1452      1.180     4.00    -9.012017     19.52787     39.04086         7     0.993     0.460 -79.63   0
       223    224.3791    150.5697 300.2098965 +22.4979691     2700.919     69.21575      1.242     2.36    -9.136724     19.52787      348.821        23     1.003     0.967  75.19   0
       224      8.6298    145.1374 300.1446367 +22.4317163     664.2374     69.23338      1.437     2.93    -8.954073     19.52787     83.24574        12     1.025     0.754  72.37   0
       225    207.8273    141.0393 300.2078452 +22.4902719        339.6       69.251      1.228     2.11    -9.090506     19.52787     57.21402         5     0.613     0.548   5.12   0
       226   1022.9927    137.7212 300.4627048 +22.7335063     8341.171     57.42123      1.159     2.09    -9.115202     19.52787     1581.407        27     1.079     0.834  88.31  24
       227    868.3652    131.8310 300.4164076 +22.6855251     1735.145     69.23338      1.190     2.10     -8.83507     19.52787     265.4785        17     0.901     0.875  52.21   0
       228    972.0629    130.5403 300.4491531 +22.7161976     1398.609       69.251      1.220     2.26     -9.05376     19.52787     209.7144        14     0.929     0.832 -87.77   0
       229    417.9852    127.0418 300.2777292 +22.5492454     311.7326     69.23338      1.196     3.26    -8.671799     19.52787     49.22353         5     0.630     0.599  89.09   0
       230    108.0838    116.1292 300.1849371 +22.4532185     289.8953     69.33905      1.336     3.03    -8.901496     19.52787     51.13099         5     0.771     0.633 -47.65   0
       231    469.2812    114.3868 300.2977936 +22.5609824     937.4705     69.19812      1.390     2.28    -8.526129     19.52787     114.8159        12     0.854     0.792  19.52   0
       232    397.8256    114.8910 300.2754014 +22.5397155     295.0839     69.16284      1.312     4.53    -8.675406     19.52787     30.13647         8     0.861     0.677 -46.37   0
       233    738.9922    111.2315 300.3827820 +22.6408671     873.6833     69.21575      0.480     0.82    -8.369379     19.52787     654.4838         6     0.422     0.353  87.97   0
       234    243.3664     94.5040 300.2339903 +22.4875698     2858.548     69.21575      1.281     2.44    -8.795149     19.52787     341.2144        23     1.091     0.919  76.91   0
       235     94.5233     94.0391 300.1878919 +22.4428142     401.0458     69.19812      1.377     3.71    -8.747478     19.52787     49.68056         6     0.804     0.492  82.05   0
       236    489.3238     79.6613 300.3152968 +22.5570150      3016.03     69.26862      1.319     2.40      -8.3825     19.52787     367.3674        24     1.078     0.988  74.90   0
       237    374.9636     79.5144 300.2797690 +22.5227072     332.4619     69.19812      1.314     2.80    -8.640104     19.52787     54.87509         8     0.832     0.639  85.80   0
       238    741.9996     68.9996 300.3974215 +22.6296326     428.7561     69.00386      1.269     1.98    -8.081431     19.52787      69.4438         7     0.810     0.499  41.73   0
       239    541.1568     61.8830 300.3371947 +22.5674367       166.94     69.18048      1.265     3.29    -8.280821     19.52787     35.38039         5     0.781     0.512  40.66   0
       240    617.6883     59.7162 300.3617205 +22.5897376     3026.337     69.32145      1.276     2.17    -8.211332     19.52787     472.5124        24     1.077     0.967  77.66   0
       241    392.6113     58.7099 300.2920071 +22.5220217      602.709     69.16284      1.199     2.39    -8.474755     19.52787     120.8738        14     1.006     0.845  84.23   0
       242    659.0020     56.7236 300.3755548 +22.6012509     481.0415     69.12754      1.286     3.21     -8.15155     19.52787     88.47319        11     1.107     0.662 -77.10   0
       243    141.3443     51.8372 300.2161277 +22.4447411     442.3661     69.21575      1.525     3.47    -8.616897     19.52787     36.01456         5     0.770     0.451 -76.01   0
       244    944.5984     50.4558 300.4665751 +22.6849541     204.4844      69.1452      0.951     3.28    -8.538521     19.52787     48.39584         6     0.943     0.390 -69.74   0
       245    661.8361     44.5463 300.3803877 +22.5986009     1372.813     69.23338      1.297     2.31    -8.106586     19.52787     196.0546        16     0.956     0.883  89.63   0
       246    676.6621     42.9316 300.3855284 +22.6025768     360.9982     69.26862      1.428     2.87    -8.066964     19.52787     47.85538         8     0.910     0.601  23.56   0
       247    748.3571     36.1463 300.4100598 +22.6220950     644.3007     69.23338      1.200     2.63    -7.829529     19.52787     97.23394        12     0.879     0.828  87.80   0
       248    686.6434     29.5019 300.3929932 +22.6017068     275.0746     69.21575      1.296     4.34    -7.975775     19.52787     52.59872         8     1.151     0.644  86.04   0
       249     64.5576     29.0475 300.1996669 +22.4151806     331.9598       69.251      1.782     4.87      -8.6767     19.52787      36.7639         6     1.086     0.620  63.19   0
       250    492.0061     28.6372 300.3326837 +22.5431639     607.7203       69.251      1.376     2.66    -8.377191     19.52787     85.12758        11     0.902     0.806 -70.12   0
       251    395.8250     26.7070 300.3033878 +22.5137947     412.3986     69.16284      1.293     3.31    -8.382895     19.52787     63.48404         8     0.953     0.570 -85.14   0
       252    173.2944   1019.1953 299.9116279 +22.7316593     888.1841     69.12754      5.007    11.73      24.9226     19.52787     33.88921        18     2.358     1.626  78.22  19
       253    735.4115     17.3553 300.4121226 +22.6128187     196.8122     69.21575      1.054     3.58    -7.695221     19.52787     43.28934         7     0.968     0.460  -8.99   0
       254    169.7303   1004.4758 299.9153145 +22.7263733     1073.555     69.28623      6.332     9.46     19.73421     19.52787      36.7705        17     2.317     1.079 -85.18   3
       255    169.0070   1012.8196 299.9123724 +22.7285456     1228.634     69.18048      5.888     8.64     22.92357     19.52787     49.27361        21     1.801     1.342  -7.69  19
       256    165.9907   1009.7994 299.9124190 +22.7267747     1265.171     69.03922      6.241    11.28     21.96291     19.52787     49.55901        25     2.144     1.652 -64.34  19
