#   1 NUMBER                 Running object number                                     
#   2 X_IMAGE                Object position along x                                    [pixel]
#   3 Y_IMAGE                Object position along y                                    [pixel]
#   4 ALPHA_J2000            Right ascension of barycenter (J2000)                      [deg]
#   5 DELTA_J2000            Declination of barycenter (J2000)                          [deg]
#   6 FLUX_APER              Flux vector within fixed circular aperture(s)              [count]
#   7 FLUXERR_APER           RMS error vector for aperture flux(es)                     [count]
#   8 FLUX_RADIUS            Fraction-of-light radii                                    [pixel]
#   9 FWHM_IMAGE             FWHM assuming a gaussian core                              [pixel]
#  10 BACKGROUND             Background at centroid position                            [count]
#  11 THRESHOLD              Detection threshold above background                       [count]
#  12 FLUX_MAX               Peak flux above background                                 [count]
#  13 ISOAREA_IMAGE          Isophotal area above Analysis threshold                    [pixel**2]
#  14 A_IMAGE                Profile RMS along major axis                               [pixel]
#  15 B_IMAGE                Profile RMS along minor axis                               [pixel]
#  16 THETA_IMAGE            Position angle (CCW/x)                                     [deg]
#  17 FLAGS                  Extraction flags                                          
         1    789.2439     14.0556 300.4334300 +22.6231581     971.6376     69.15455      1.181     2.02    -8.258583      19.5106     176.6237        12     0.926     0.700 -72.29   0
         2    172.7110      9.7047 300.2429933 +22.4372124     492.9034     69.33047      1.178     3.13    -8.554268      19.5106     75.92824        10     0.971     0.754  83.63   0
         3    964.1145      7.1322 300.4901830 +22.6735109     301.3671     69.24257      1.153     2.02    -8.294188      19.5106     69.62342         6     0.725     0.524  39.89   0
         4    737.6015      6.5669 300.4197689 +22.6055428     333.1975     69.11931      1.045     2.89    -7.667947      19.5106     73.19225         7     0.853     0.612 -48.28   0
         5    444.6992      4.2108 300.3293463 +22.5171409      76.7975     66.44154      1.087     5.80    -8.238205      19.5106     24.03905         6     1.204     0.787  56.90  16
         6     81.6333    984.4722 299.8980224 +22.6894922     2695.124     69.15455     21.554    38.29     2.772174      19.5106     67.31712       329    10.500     3.874  35.98  19
         7    199.7319   1012.7047 299.9255180 +22.7330577     2370.409     69.29533     11.542    23.93      11.1261      19.5106      84.8653       138     5.082     3.130 -33.03  19
         8    209.4275   1018.8165 299.9265409 +22.7377213     1740.451     69.17216      6.951    13.68      11.8164      19.5106     57.53333        48     2.742     1.897  58.27  19
         9    219.2890   1012.2281 299.9317504 +22.7387953     2797.079     69.13693     13.047    28.73     9.220454      19.5106      72.1097       227     4.984     4.737  20.46  19
        10    237.8293   1001.3228 299.9410625 +22.7412386     4147.869     69.13693      9.711    30.92     2.417581      19.5106     103.6332       459     8.316     5.082  62.39  18
        11    172.4040   1019.0029 299.9149765 +22.7266537     1303.134     68.96052      5.736     9.30     15.10575      19.5106     42.10008        23     2.169     1.113  -4.97  19
        12     76.5065    936.4376 299.9120653 +22.6741895     1956.974     69.13693     17.761    28.74    -8.994383      19.5106     49.04401       156     7.012     3.271 -28.48   3
        13    175.2093   1011.9161 299.9181554 +22.7254657     867.3334     69.10168      9.276    11.14     13.05829      19.5106     27.94934        16     2.888     1.197 -44.85  19
        14    651.2167    980.3851 300.0764687 +22.8593376     3364.158     69.11931      1.062     1.90    -12.81557      19.5106     607.3915        20     0.941     0.830  47.94   0
        15    142.0018    981.4318 299.9177630 +22.7067558     582.8058     69.11931      3.933     5.68     6.146007      19.5106     32.00947         8     1.289     0.705 -87.51   0
        16    112.8016    981.9617 299.9085201 +22.6981362     496.1104     69.17216      5.886     5.54     6.215356      19.5106     33.07049         5     1.215     0.712  69.83   0
        17    126.1166    979.1100 299.9135843 +22.7013189     770.9454     69.26015      5.887     7.02     5.465973      19.5106     37.77747        10     1.318     1.048   3.70   0
        18     78.8011    973.2092 299.9008092 +22.6854145     2449.189     68.97818     23.737    44.20   -0.4980339      19.5106     57.76174       367    10.996     4.931  36.21  19
        19    559.8315    971.1564 300.0510262 +22.8292657     804.9092     69.20737      1.044     1.67    -13.01091      19.5106     195.6081        10     0.752     0.640 -70.90   0
        20    733.3062   1013.9682 300.0910972 +22.8936036     295.6855     69.08405      0.957     1.67    -13.57288      19.5106     85.82541         6     0.722     0.461  88.21   0
        21    638.5486   1010.9255 300.0625811 +22.8642964     4316.826     69.17216      1.005     1.65    -12.61958      19.5106       882.47        21     0.874     0.795  89.00   0
        22    453.7316    967.4623 300.0192158 +22.7963596     546.3731     69.20737      1.064     2.33    -13.41901      19.5106     97.88467         8     0.867     0.563  67.84   0
        23    384.2513    965.6433 299.9981975 +22.7749795      3255.78     69.18977      1.058     1.82    -13.32602      19.5106     609.2753        21     0.934     0.803 -70.78   0
        24    109.4719    966.0139 299.9126772 +22.6925665     1053.297     69.15455     10.570    10.92     1.541242      19.5106     45.28224        21     2.583     1.287 -69.08   3
        25     65.9417    989.4645 299.8915242 +22.6862083      2031.41     69.18977     26.754    44.13   -0.5492259      19.5106     55.54745       375     8.848     6.107  17.96  27
        26    166.9427   1004.2614 299.9180792 +22.7207892     1332.387     69.22498      7.432    11.67     11.70559      19.5106     42.82128        31     2.410     1.574  58.01   0
        27    930.3359    944.0950 300.1752396 +22.9326541     1160.475     69.24257      1.034     1.76    -13.55824      19.5106     238.6176        15     0.848     0.757  36.32   0
        28     73.0415    947.8912 299.9072614 +22.6764303     2005.555     69.15455     25.804    35.28    -6.851112      19.5106     51.67192       161     7.987     4.325  56.08   3
        29     82.7642    947.1495 299.9105223 +22.6791385     1895.935     69.17216     24.511    34.52    -5.915517      19.5106     55.31287       139     6.317     5.237  -8.96   3
        30    719.3999    933.2502 300.1130446 +22.8662726     276.9892     69.10168      1.450     4.46    -12.89133      19.5106       57.603         8     1.366     0.616  65.69   0
        31    202.1704   1000.5406 299.9302360 +22.7303044     647.2524     69.17216      3.626     4.40     7.976114      19.5106     30.37086         5     1.275     0.432 -30.81   0
        32    754.0513    927.5568 300.1256907 +22.8750341     475.2894     69.18977      1.098     2.91    -12.86943      19.5106     105.1162         8     0.894     0.614 -78.94   0
        33    531.4823    927.8445 300.0563026 +22.8083351     382.6386     69.11931      1.332     1.89    -13.43648      19.5106       56.279         5     0.667     0.484 -74.34   0
        34    776.2969    921.0192 300.1347483 +22.8798311     5363.357     69.06642      0.985     1.56    -12.86218      19.5106     1334.343        22     0.839     0.783  73.95   0
        35    925.9081    996.7654 300.1567115 +22.9464446       545.47     69.10168      1.125     1.83    -13.74005      19.5106     101.8621         7     0.679     0.621  40.20   0
        36    481.3087    909.1680 300.0467695 +22.7879201     278.8672     69.10168      1.061     2.22    -13.17393      19.5106     53.84621         5     0.721     0.431  73.36   0
        37    784.8262    903.0903 300.1432409 +22.8772442     663.8104     69.10168      1.055     1.51    -12.83974      19.5106     184.2264         8     0.684     0.601  29.91   0
        38    823.0256    896.4396 300.1573070 +22.8867927     321.0087     69.18977      0.932     1.77    -12.93267      19.5106     88.97603         7     0.667     0.599   5.85   0
        39    722.7760    886.6603 300.1292599 +22.8539165     324.4904     69.13693      0.877     1.52    -12.84565      19.5106      86.9652         5     0.641     0.448  19.77   0
        40    435.4286    883.2991 300.0409154 +22.7667305     2023.946     69.08405      0.992     1.81    -12.91771      19.5106     368.8579        15     0.796     0.753 -62.74   0
        41    734.1146    883.5901 300.1337906 +22.8564367     320.1134     69.10168      0.906     1.38    -12.85984      19.5106     88.73456         5     0.616     0.462  24.40   0
        42    213.1167    872.0044 299.9754726 +22.6967519     159.3176     69.08405      1.100     3.67    -12.09779      19.5106     36.31231         5     0.807     0.481  22.36   0
        43     96.6186    871.9500 299.9392973 +22.6617512     187.5418     69.15455      1.056     3.84    -12.03811      19.5106     32.28589         5     0.879     0.481  84.64   0
        44    478.6719    871.1261 300.0583292 +22.7762178     155.9543     69.20737      1.055     2.14    -12.90302      19.5106     41.67779         5     0.724     0.423 -69.67   0
        45    160.7330    868.9668 299.9601844 +22.6801511     321.7369     69.15455      1.106     2.03    -12.00113      19.5106     70.95591         8     0.759     0.618 -49.38   0
        46     68.7464    867.5843 299.9320614 +22.6521288     235.4302     69.11931      1.183     4.73    -12.26857      19.5106     35.22269         8     0.999     0.636  14.14   0
        47    137.6278    866.2228 299.9538992 +22.6724259     948.1399     69.15455      1.240     2.07    -12.25994      19.5106     157.8476        11     0.867     0.747 -57.87   0
        48   1009.3918    854.6860 300.2289886 +22.9306870     1117.865     69.08405      1.065     1.89    -12.98936      19.5106     229.7078        13     0.870     0.803  64.96   0
        49    963.6345    853.3408 300.2151586 +22.9165831     1030.039     69.17216      0.977     1.81    -12.94105      19.5106     193.9571        12     0.753     0.707  88.58   0
        50    169.6930    847.7916 299.9698578 +22.6767721     199.4343     69.06642      1.232     3.71    -12.31648      19.5106     43.07437         5     0.956     0.414  76.29   0
        51    615.4267    841.3712 300.1105710 +22.8087168     2280.368     69.13693      0.994     1.67    -12.96093      19.5106     459.4125        17     0.881     0.775  40.57   0
        52    738.1992    841.8142 300.1486571 +22.8456726     118.6249     69.01349      1.643     3.67    -12.65909      19.5106     23.80833         5     1.168     0.332  10.41   0
        53    417.7262    838.7969 300.0498896 +22.7486542     296.1579     69.06642      1.135     3.24    -12.58782      19.5106     47.11819         6     0.856     0.488  53.53   0
        54    165.5631    835.4542 299.9725886 +22.6719955     660.0402     69.17216      1.019     2.12    -12.33045      19.5106     106.5123        10     0.921     0.645 -80.98   0
        55    635.9202    833.7836 300.1194198 +22.8126878     310.2556     69.17216      1.076     1.82    -12.71055      19.5106     85.32246         8     0.748     0.604 -48.44   0
        56    551.7779    824.6462 300.0962010 +22.7848219     235.3696     69.18977      0.911     3.47    -12.63507      19.5106     45.05771         5     1.164     0.299 -35.74   0
        57    791.2919    821.0888 300.1719396 +22.8556471     2040.594      69.3129      0.924     1.55    -12.45255      19.5106     494.1875        13     0.757     0.663 -23.01   0
        58   1008.2903    821.0603 300.2395867 +22.9207003     626.3948     69.24257      0.914     1.54    -12.97779      19.5106     149.1455         7     0.621     0.592 -72.80   0
        59    522.4041    818.0570 300.0892035 +22.7741180     213.0392     69.11931      1.271     4.49    -12.46473      19.5106     31.77721         6     1.139     0.503  37.97   0
        60    199.2996    815.6981 299.9894981 +22.6764618     359.6241     69.38316      0.886     1.25     -12.1423      19.5106     108.1556         5     0.634     0.416 -66.34   0
        61    154.6741    811.7257 299.9769248 +22.6619239     539.9348     69.20737      1.094     2.33    -12.36405      19.5106     88.83217         8     0.822     0.609  73.12   0
        62    569.6967    806.9085 300.1075486 +22.7851089     315.8719     69.33047      1.047     1.56    -12.32548      19.5106     70.44081         5     0.663     0.422  69.04   0
        63    304.4229    803.8160 300.0260370 +22.7046140      26343.2     69.15455      1.046     1.81    -11.93192      19.5106     4859.861        52     1.017     0.958  81.60   0
        64    562.1771    802.8333 300.1065340 +22.7816836     821.9122     69.15455      1.048     1.74    -12.25207      19.5106      174.106         9     0.703     0.643 -43.25   0
        65    974.8983    801.4438 300.2355566 +22.9050571     438.4603     69.15455      1.174     3.14    -12.88888      19.5106     109.8971        11     1.055     0.784 -78.11   0
        66    591.2178    798.6104 300.1169469 +22.7891844     467.8861     69.11931      1.043     1.62    -12.19905      19.5106     108.4315         8     0.873     0.570 -37.30   0
        67    602.0962    796.9821 300.1208629 +22.7919806     313.8001     69.06642      1.129     1.83    -12.18272      19.5106     82.60839         6     0.674     0.544 -41.60   0
        68    707.7411    793.3536 300.1549373 +22.8226285     178.2806     69.18977      1.066     3.43    -12.25092      19.5106      35.9968         5     0.773     0.440 -17.14   0
        69    745.1025    783.7664 300.1696928 +22.8310817     574.5397     69.13693      1.476     2.30    -12.25612      19.5106     81.07118         9     0.830     0.675 -16.02   0
        70    354.1263    781.0668 300.0488908 +22.7130085     15265.54     69.20737      1.117     1.75    -11.83263      19.5106     3348.178        37     0.974     0.907  83.24   0
        71    368.3661    781.4520 300.0531936 +22.7173928     886.4031     69.17216      1.034     1.96    -11.87206      19.5106     148.6002        12     0.821     0.710  76.26   0
        72    877.1847    776.8147 300.2131082 +22.8686913     1280.028     69.10168      0.980     1.53    -12.54762      19.5106      349.795        11     0.743     0.630  24.03   0
        73    634.8756    772.6630 300.1389785 +22.7948348     482.8598     69.20737      1.101     2.59     -12.0422      19.5106     112.9342         8     0.907     0.676  48.84   0
        74    236.6031    772.7805 300.0150512 +22.6753561     373.2152     69.10168      1.150     2.95    -11.87078      19.5106     82.97766        10     0.947     0.786 -79.66   0
        75    482.1377    767.6120 300.0930842 +22.7475638     435.5443     69.11931      1.063     2.29    -11.86491      19.5106     83.24989         8     0.740     0.670  88.16   0
        76     40.8521    768.3853 299.9556687 +22.6153214     46.85517     69.17216      1.011     3.45    -11.92053      19.5106     29.37738         5     0.784     0.438 -18.97   0
        77    883.3716    764.2410 300.2191267 +22.8669357     -190.331     69.17216     -3.499     2.25     -12.4298      19.5106     55.47356         5     0.701     0.450  70.83   0
        78    340.4093    763.5977 300.0503076 +22.7038814     170.7788     68.97818      0.891     2.92    -11.76908      19.5106     42.39165         5     0.882     0.537 -46.92   0
        79    557.3819    747.2306 300.1231280 +22.7642904     212.0422     69.13693      1.058     3.36    -11.66399      19.5106     40.69872         5     0.775     0.422  68.25   0
        80    527.3678    745.7365 300.1142731 +22.7548576     293.8506     69.15455      1.065     2.72     -11.6309      19.5106      48.5593         5     0.712     0.459 -74.36   0
        81    549.1324    743.1255 300.1218956 +22.7606377     646.3934     69.22498      1.077     1.88    -11.60702      19.5106     137.7652        10     0.894     0.628 -68.26   0
        82    943.5275    742.0558 300.2450946 +22.8785978     2253.999     69.17216      0.942     1.54    -12.30257      19.5106     495.3589        13     0.734     0.683   6.92   0
        83    931.9023    733.3896 300.2442891 +22.8726243     728.0437     69.04878      0.917     1.59    -12.20654      19.5106     176.4689         9     0.715     0.646 -65.94   0
        84    294.9803    727.4949 300.0479249 +22.6798922     372.5383     69.06642      1.146     1.76    -11.67879      19.5106     70.03087         6     0.692     0.499  -3.43   0
        85    758.1917    724.7365 300.1929703 +22.8180609      1112.69     69.13693      1.010     1.75    -11.99246      19.5106     241.8951         9     0.752     0.608  60.01   0
        86    963.0342    723.4373 300.2572319 +22.8790972     793.4905     69.20737      0.954     1.55    -12.14517      19.5106     179.5836         9     0.781     0.614 -69.58   0
        87    143.6981    711.4584 300.0061251 +22.6298828     286.8337     69.24257      1.016     2.72    -11.90888      19.5106     56.56687         6     0.848     0.459  88.78   0
        88    840.8081    710.5541 300.2233232 +22.8387590     230.5542     69.17216      1.016     2.93     -11.9028      19.5106     40.26116         5     0.728     0.447  22.18   0
        89    876.7342    701.6418 300.2374178 +22.8469695     72185.62     69.13693      1.016     1.62    -11.90183      19.5106      15564.1        89     1.065     0.995  89.04   0
        90   1023.5665    703.4877 300.2825958 +22.8915082     587.7794     54.40625      0.916     0.65     -11.9838      19.5106     137.1876         6     0.674     0.509  49.17  24
        91    729.1850    702.1257 300.1912882 +22.8028717     353.2847     69.15455      1.044     1.74    -11.79196      19.5106     77.43933         6     0.661     0.532  59.58   0
        92    909.6202    694.2299 300.2500785 +22.8546984     209.7296     69.15455      1.134     3.42    -11.84159      19.5106     35.56994         5     0.728     0.465 -75.46   0
        93    563.0306    690.6171 300.1432970 +22.7497381     752.4775     69.13693      1.071     1.77    -11.37117      19.5106     147.3218         9     0.775     0.618  48.88   0
        94    744.2128    687.8582 300.2006086 +22.8032815     4690.649     69.11931      1.049     1.69    -11.67202      19.5106     1025.646        22     0.849     0.837 -89.74   0
        95    245.8063    683.2653 300.0470214 +22.6524482      2455.48     69.13693      1.130     1.82    -11.67047      19.5106     497.6386        19     0.949     0.803 -88.80   0
        96    327.8710    681.2908 300.0731747 +22.6765103     527.6451      69.3129      1.126     2.60    -11.57213      19.5106     113.0354        11     0.905     0.747 -55.02   0
        97    203.6807    678.7214 300.0354068 +22.6385013     350.6281     69.27774      1.417     3.30    -11.73265      19.5106     42.77821         6     0.821     0.702  12.79   0
        98    536.1199    676.6514 300.1394627 +22.7376581     418.5426     69.15455      1.157     2.26    -11.25336      19.5106     74.31074         9     0.837     0.649  70.83   0
        99    527.7925    668.8494 300.1394078 +22.7329212       1559.2     69.15455      1.117     1.94    -11.16042      19.5106     303.2131        14     0.886     0.744  70.53   0
       100    518.0624    662.5551 300.1384264 +22.7281961     712.5585     69.17216      1.094     2.04    -11.07148      19.5106     121.5342         9     0.790     0.648  77.08   0
       101    446.3567    662.3004 300.1161988 +22.7066128     160.9327     69.15455      1.424     3.83    -11.13549      19.5106     26.88326         5     1.046     0.403  74.44   0
       102    911.6110    659.8568 300.2618761 +22.8454223     310.4388     69.11931      1.148     2.78    -11.57871      19.5106     56.42419         6     0.899     0.519 -21.64   0
       103    181.3566    658.8316 300.0349362 +22.6260966     326.8333     69.20737      1.128     2.69    -11.66905      19.5106      52.5601         7     0.782     0.623  55.04   0
       104    195.6334    657.1569 300.0399169 +22.6299015     232.4055     69.20737      0.901     1.63    -11.60354      19.5106      60.4631         5     0.640     0.459 -70.70   0
       105    221.4946    653.7611 300.0490576 +22.6366896      228.327     69.13693      1.160     2.86    -11.49833      19.5106     56.27763         6     0.860     0.494 -48.35   0
       106    442.7894    652.2540 300.1183554 +22.7026598     834.4859     69.15455      1.051     1.75    -11.11382      19.5106     186.9437        10     0.766     0.666  44.46   0
       107     96.7819    647.3744 300.0123861 +22.5974237     9515.134     69.17216      1.119     1.92    -11.57474      19.5106     1657.312        32     0.995     0.930 -69.65   0
       108   1018.2649    649.5380 300.2984853 +22.8744201     435.8375     69.18977      1.057     2.32    -11.50627      19.5106     85.84099         5     0.679     0.480 -16.34   0
       109     17.5140    648.7912 299.9873083 +22.5740319     383.3267     69.08405      1.387     4.79    -11.52048      19.5106     41.94614         8     1.044     0.622  52.29   0
       110    527.6964    647.6094 300.1462835 +22.7267965     461.5231     69.08405      1.060     2.20    -11.03646      19.5106     82.25726         8     0.802     0.606  17.72   0
       111    945.7239    633.5865 300.2810518 +22.8480997     581.8997     69.17216      1.024     1.60    -11.40755      19.5106     115.0157         6     0.606     0.568  80.33   0
       112     42.8469    631.6453 300.0007481 +22.5767220     732.4952     69.18977      1.564     4.90    -11.39284      19.5106     93.87765        16     1.601     0.759 -87.83   0
       113    812.2444    631.5171 300.2401218 +22.8074988      209.351     69.11931      1.127     2.01    -11.41016      19.5106     54.49807         5     0.674     0.461  23.11   0
       114    885.8470    626.1791 300.2647946 +22.8280270     465.2878     69.18977      1.060     1.97     -11.3901      19.5106     78.96133         8     0.761     0.612  50.67   0
       115    447.7182    620.2372 300.1302968 +22.6949509     362.6017     69.11931      1.130     2.19    -10.95142      19.5106     72.11615         5     0.719     0.427 -75.71   0
       116    595.8571    619.0798 300.1767729 +22.7390499     256.2096     69.18977      1.328     3.82    -10.87776      19.5106     37.75958         8     0.842     0.673  48.93   0
       117    492.2164    615.9349 300.1455397 +22.7070638     398.6081     69.13693      1.194     3.25    -10.81789      19.5106     67.91939         8     0.894     0.650 -66.95   0
       118    925.6852    611.7360 300.2819081 +22.8358174     1565.624     69.26015      1.003     1.77    -11.27416      19.5106     324.4654        15     0.828     0.795 -32.84   0
       119    457.4673    611.5530 300.1361526 +22.6953831     720.0449     69.13693      1.060     2.13    -10.88762      19.5106     136.2973        12     0.927     0.719 -89.11   0
       120   1023.6833    609.3868 300.3132286 +22.8645072     373.4753     53.66231      0.946     1.86    -11.25328      19.5106     92.37929         5     0.658     0.460 -81.51  24
       121     19.5529    605.6483 300.0019647 +22.5622751     2335.728     69.18977      1.102     2.04    -11.14652      19.5106     347.7814        18     0.909     0.853  71.37   0
       122    486.2283    601.7485 300.1482878 +22.7011962     171.0675     69.17216      1.152     3.83    -10.72562      19.5106     29.21912         5     0.957     0.440 -45.48   0
       123    320.9867    598.5870 300.0979197 +22.6507184     4500.886     69.08405      1.157     1.97    -11.02286      19.5106     750.8806        26     1.003     0.891 -89.46   0
       124    443.3948    595.5471 300.1369772 +22.6865685     4465.166     69.13693      1.107     2.06    -10.79175      19.5106     624.5729        26     0.986     0.915 -72.97   0
       125    854.8730    589.4542 300.2670791 +22.8081948     846.4913     69.13693      1.026     1.74    -11.18014      19.5106     165.8952        10     0.769     0.657 -84.03   0
       126    939.5867    586.7070 300.2943779 +22.8327926     6153.638     69.08405      1.005     1.72    -11.11118      19.5106     1205.636        26     0.892     0.839  77.02   0
       127    503.9817    585.1846 300.1591957 +22.7017668     5625.261     69.13693      1.178     1.94    -10.54554      19.5106     1043.476        25     0.989     0.891  56.07   0
       128    231.3277    580.4854 300.0759314 +22.6186225     666.7737     69.26015      1.026     1.97    -11.04297      19.5106     125.1696        11     0.888     0.660  62.94   0
       129    435.6461    573.4010 300.1417645 +22.6778885     2155.648     69.15455      1.094     2.06    -10.58458      19.5106     339.4632        17     0.908     0.841  33.79   0
       130    778.5276    573.1828 300.2485788 +22.7806384     382.0008     69.15455      1.114     2.71    -10.90377      19.5106      75.4008         8     0.859     0.621 -35.17   0
       131    413.9248    571.7078 300.1355581 +22.6708871     732.8697      69.3129      1.258     1.87    -10.65337      19.5106     126.2291         9     0.796     0.624 -79.08   0
       132    168.3431    571.2041 300.0593748 +22.5970589     391.0708     69.11931      1.016     2.77    -11.14127      19.5106     73.73356         9     0.834     0.730  22.50   0
       133    855.4404    568.6116 300.2740304 +22.8023777     856.8794     69.15455      1.238     2.49    -11.05149      19.5106     128.1885        14     1.031     0.792 -52.08   0
       134    735.8711    565.6628 300.2377346 +22.7656922     362.8101     69.18977      1.124     2.41     -10.8168      19.5106     74.07716         9     0.892     0.616  50.06   0
       135    552.2318    560.8716 300.1821131 +22.7092577     101215.9     69.15455      1.188     2.02    -10.29794      19.5106     17058.14       122     1.209     1.171 -44.04   0
       136    238.3834    560.9683 300.0844671 +22.6151409     1870.746     69.13693      1.185     2.09    -11.00136      19.5106     281.3596        16     0.950     0.804  39.05   0
       137    287.3683    543.7855 300.1052775 +22.6249086     197.7279     69.15455      0.959     1.91    -10.95604      19.5106     51.69794         5     0.684     0.445 -69.14   0
       138    442.8365    541.1885 300.1544696 +22.6707999     1331.592     69.13693      1.176     1.96    -10.26124      19.5106     229.2422        14     0.881     0.765  55.11   0
       139    839.8326    527.2010 300.2826242 +22.7858042     811.0166     69.11931      1.099     1.98    -10.72783      19.5106      164.563        11     0.866     0.646 -88.12   0
       140    710.9481    524.9640 300.2431979 +22.7465328      1188.89     69.17216      1.196     1.85    -10.40007      19.5106     242.7733        13     0.840     0.801 -25.31   0
       141    498.5426    520.8280 300.1784174 +22.6816621     321.0769     69.15455      1.192     3.95    -10.06634      19.5106     45.07672         7     0.959     0.493 -84.78   0
       142    968.2166    518.7151 300.3254015 +22.8218345     628.6072     69.11931      0.976     1.91    -10.70813      19.5106      155.007         8     0.797     0.559 -68.08   0
       143    840.0338    517.7858 300.2857464 +22.7831597     1107.733     69.13693      1.221     1.99    -10.68899      19.5106     193.7873        13     0.872     0.804 -76.89   0
       144    953.9912    517.9241 300.3212232 +22.8173453     451.0739     69.13693      1.169     1.98    -10.71522      19.5106      80.8448         9     0.724     0.713  60.32   0
       145    593.2922    515.7442 300.2095585 +22.7086134     338.0758     69.20737      1.196     2.60    -10.12003      19.5106     47.84171         7     0.811     0.597  21.63   0
       146    379.4098    515.6779 300.1430301 +22.6444540      159.238     69.11931      1.181     3.39     -10.3589      19.5106     33.73341         5     0.748     0.445 -69.63   0
       147    878.1615    512.3602 300.2993923 +22.7930262     2048.906     69.22498      1.034     1.78    -10.75973      19.5106     407.7555        15     0.884     0.713  59.35   0
       148    969.8751    502.7863 300.3310946 +22.8177539     346.6288     69.17216      0.993     1.53    -10.62434      19.5106      95.5671         6     0.650     0.492  66.60   0
       149    110.3465    502.7637 300.0635949 +22.5600230     426.3321     69.17216      1.184     2.76    -10.90037      19.5106     84.44304        10     1.000     0.628 -47.70   0
       150    966.4205    491.6573 300.3336336 +22.8135208     160.7258     69.15455      0.960     3.38    -10.57472      19.5106     41.59254         5     0.965     0.357  67.64   0
       151    651.7117    482.9881 300.2383894 +22.7167209     349.9506     69.10168      1.044     2.05    -10.12879      19.5106     75.12462         7     0.718     0.583 -86.76   0
       152    712.3985    475.2016 300.2598182 +22.7326750     429.1981     68.94285      1.225     2.33    -10.18553      19.5106      86.2034         7     0.864     0.488 -86.43   0
       153    966.3992    475.1970 300.3389749 +22.8087839     351.5253     68.94285      1.126     1.74    -10.51447      19.5106     68.85103         5     0.683     0.457 -69.63   0
       154    869.5538    471.1640 300.3100945 +22.7786105     500.9443     69.18977      1.041     2.03    -10.51032      19.5106     87.16459         6     0.697     0.494  83.66   0
       155    853.8879    467.4726 300.3064113 +22.7728559     331.2379     69.29533      1.136     2.34    -10.44008      19.5106     65.69014         5     0.726     0.542  76.46   0
       156    834.5961    467.8232 300.3002853 +22.7671760     174.2666     69.11931      0.989     3.42    -10.40011      19.5106     30.46038         5     0.782     0.432  69.12   0
       157    598.1739    465.7670 300.2273155 +22.6957260     1497.246     69.15455      1.179     2.21    -9.934847      19.5106     247.2632        13     0.850     0.809 -80.64   0
       158    958.4379    464.2916 300.3400356 +22.8032649      302.359     69.15455      1.153     3.26    -10.51701      19.5106     43.60799         6     0.824     0.516 -50.02   0
       159    437.8631    452.6486 300.1816885 +22.6438932     216.5493     69.18977      1.303     3.41    -9.970834      19.5106     35.63573         5     0.815     0.412  20.01   0
       160   1009.6114    444.5619 300.3624026 +22.8129229     640.5629     69.15455      1.024     1.91    -10.44875      19.5106      112.361         9     0.781     0.608  33.16   0
       161    881.3441    444.3847 300.3224690 +22.7744481     237.1994     69.13693      1.247     3.39    -10.32409      19.5106     35.19443         5     0.745     0.445  19.13   0
       162    967.8096    443.3630 300.3497566 +22.8000572      346.761     69.15455      1.005     2.34    -10.48499      19.5106     80.89944         8     0.796     0.649 -23.54   0
       163    708.9338    439.8821 300.2702128 +22.7214913      399.508     69.26015      1.048     2.15    -9.945577      19.5106     91.26355         7     0.794     0.532  42.64   0
       164    212.9427    438.1125 300.1164741 +22.5722592     449.0525     69.22497      1.343     3.57    -10.27398      19.5106     52.59723         9     0.952     0.673  15.54   0
       165    275.2033    433.7973 300.1372279 +22.5896978     1820.404     68.94285      1.214     2.17    -10.04491      19.5106     266.8105        16     0.945     0.790  73.18   0
       166   1008.0903    431.8975 300.3660422 +22.8088270     2121.028     69.33047      1.082     1.67    -10.45683      19.5106     521.3837        15     0.821     0.759 -67.73   0
       167    222.3485    428.5621 300.1224992 +22.5723404     3823.183     69.17216      1.185     2.26    -10.14223      19.5106     510.7311        24     1.023     0.908  71.99   0
       168    363.2519    422.7615 300.1681892 +22.6129388     2233.485     69.15455      1.179     2.13    -9.906396      19.5106     367.2654        18     0.918     0.852   7.61   0
       169    988.1247    423.0040 300.3627047 +22.8002906     953.9107     69.06642      1.111     1.71    -10.46503      19.5106     210.8755        10     0.722     0.686  14.69   0
       170    607.3347    419.3232 300.2452537 +22.6851341     8897.442     69.24257      1.190     2.17    -9.794866      19.5106     1145.799        36     1.083     0.969  86.36   0
       171    623.6667    419.6891 300.2502195 +22.6901347     400.9612     69.26015      1.770     3.90    -9.800751      19.5106     38.27584         5     0.914     0.520  31.00   2
       172    940.8484    401.6066 300.3549137 +22.7799796     338.0938     69.15455      1.153     2.51    -10.37769      19.5106      78.9422         8     0.884     0.649  88.70   0
       173    162.0107    399.5941 300.1131567 +22.5459270     1030.393     69.03114      1.192     2.16    -10.36701      19.5106     178.7254        12     0.873     0.783  58.44   0
       174    547.9442    388.8584 300.2366607 +22.6585819     3162.997     69.22498      1.235     2.13    -9.729701      19.5106     544.3477        20     0.971     0.871  82.60   0
       175    961.3882    388.9282 300.3654355 +22.7824877     500.5506     69.17216      1.008     2.13    -10.29902      19.5106     100.6955         7     0.746     0.580  77.19   0
       176    262.8281    388.2532 300.1481722 +22.5729149     254.3235     69.17216      1.089     2.25    -9.823325      19.5106     60.79243         6     0.683     0.579 -50.24   0
       177    120.8654    381.4384 300.1062690 +22.5283736     335.2422     69.13693      1.219     4.60    -10.33374      19.5106     50.72879         8     0.820     0.732 -80.58   0
       178    661.8429    379.1430 300.2752748 +22.6899304     194.9676     69.11931      1.020     2.18    -9.722291      19.5106     54.79818         5     0.723     0.477  43.51   0
       179    751.9976    377.7064 300.3038208 +22.7165340     630.6118     69.06642      1.411     2.80     -9.75487      19.5106     90.27531        10     0.863     0.796  40.17   0
       180    454.6051    375.1344 300.2120722 +22.6266585     2982.716     69.15455      1.228     2.07    -9.721067      19.5106     489.6979        20     0.982     0.893 -69.76   0
       181    943.4794    369.1843 300.3662637 +22.7714484     365.7572     69.17216      1.396     3.54      -10.187      19.5106     54.17655         9     0.960     0.718  32.16   0
       182    846.2806    369.1462 300.3359778 +22.7423220     721.6285     69.18977      1.096     2.67    -9.945305      19.5106     104.6123         9     0.826     0.689  63.16   0
       183    819.3402    356.3602 300.3317344 +22.7305768     254.6679     69.15455      1.546     2.57    -9.832794      19.5106     48.86502         5     0.714     0.467  81.23   0
       184    342.0540    354.3838 300.1838022 +22.5869531     1243.484     69.13693      1.378     2.56    -9.678771      19.5106     157.4195        17     1.128     0.836  30.60   0
       185     60.8692    351.9875 300.0971954 +22.5019234     416.7333     69.17216      1.192     2.20    -10.23596      19.5106       72.945         8     0.775     0.632  60.79   0
       186    311.4984    343.8524 300.1777205 +22.5747669     14389.52     69.24257      1.256     2.15     -9.64223      19.5106      2247.36        40     1.114     1.013  85.44   0
       187    846.0332    340.9640 300.3450521 +22.7341484     664.1968     69.17216      1.224     2.17    -9.916829      19.5106     122.8548        10     0.849     0.691  68.96   0
       188      7.8161    331.8431 300.0872600 +22.4802259     2179.628     69.17216      1.175     2.00    -10.17011      19.5106      414.737        20     0.922     0.901 -18.35   0
       189    409.8024    329.0294 300.2131048 +22.5999875     137.8975     69.10168      1.220     2.88    -9.544163      19.5106     37.68494         5     0.784     0.490  37.75   0
       190    721.7500    323.2870 300.3120692 +22.6918346     902.7536     69.15455      1.207     2.41    -9.574111      19.5106     133.0468        14     0.955     0.770  79.39   0
       191    383.7399    308.1487 300.2117772 +22.5861779     977.6729     69.20737      1.339     2.60    -9.472834      19.5106     149.9218        15     1.179     0.793  67.89   0
       192    822.6396    300.8127 300.3507980 +22.7156010     190.6453     69.15455      1.105     2.52    -9.793474      19.5106      47.4209         5     0.704     0.461  75.29   0
       193    705.1671    298.4879 300.3149553 +22.6797402     271.7212     69.11931      1.283     4.53    -9.452486      19.5106     29.05371         6     0.996     0.586  64.63   0
       194    459.4729    287.4322 300.2420610 +22.6029327      603.059     69.15455      1.218     2.58    -9.265073      19.5106     79.46611        10     0.825     0.771 -57.77   0
       195    704.1986    279.2958 300.3208839 +22.6739352     1136.019     69.06642      1.218     2.27    -9.396571      19.5106     142.5491        13     0.868     0.770  35.41   0
       196    965.5352    273.5336 300.4041966 +22.7505555     1581.681     69.20737      1.060     1.96    -9.875393      19.5106     231.5236        16     0.854     0.815  47.58   0
       197    412.7083    263.3142 300.2353412 +22.5819879     273.9657      69.3129      1.169     2.82    -9.177414      19.5106     55.55223         7     0.821     0.657  20.84   0
       198     87.6049    257.3150 300.1362313 +22.4827785     827.1388     69.08405      1.575     3.19    -9.710268      19.5106     82.79637        15     1.127     0.828 -66.60   0
       199    171.9359    249.2764 300.1650404 +22.5057648     260.3986     69.22498      1.373     3.88    -9.466248      19.5106     39.37448         6     0.926     0.467 -40.11   0
       200    775.8076    240.6820 300.3557243 +22.6842900     319.7905     69.08405      1.206     1.87    -9.440988      19.5106     58.03819         5     0.711     0.415  21.44   0
       201    873.9586    229.6305 300.3898976 +22.7105098     884.3915     69.18977      1.148     2.16    -9.547953      19.5106      170.511        13     0.882     0.759  63.04   0
       202    292.7653    227.2162 300.2097561 +22.5356638     995.6136     69.15455      1.258     2.48    -9.100252      19.5106     137.8418        15     0.991     0.824  72.99   0
       203    370.4878    222.3631 300.2354995 +22.5575710     464.5471     69.13693      1.373     3.00    -9.049841      19.5106     61.05454        11     0.931     0.790 -12.12   0
       204    772.4087    221.1752 300.3609963 +22.6776651     263.9031     69.15455      1.302     3.61     -9.35482      19.5106     40.30104         6     0.749     0.640 -32.48   0
       205    187.7358    214.4868 300.1812401 +22.5005165     262.8291     69.24257      1.305     3.46    -9.368478      19.5106      42.6186         7     0.952     0.674  50.66   0
       206    725.2004    211.0391 300.3495792 +22.6606110     782.1234     69.15455      1.216     2.09    -9.289831      19.5106     140.3835        13     0.915     0.760 -86.70   0
       207    789.9037    210.6769 300.3698542 +22.6798875     278.8731     69.27774      1.176     2.19    -9.310736      19.5106     54.88326         7     0.689     0.644  41.93   0
       208    996.8045    203.3020 300.4367426 +22.7397223     424.0107     69.06642      1.100     2.03    -9.341809      19.5106      75.6207         7     0.686     0.618  -8.02   0
       209    729.3032    202.5855 300.3536005 +22.6594103     367.1305     69.06642      1.092     3.39    -9.273022      19.5106     48.84988         8     0.925     0.590 -18.26   0
       210    649.8763    201.8726 300.3290948 +22.6354118     720.9097     69.22498      1.321     3.21     -9.16149      19.5106     77.78932        10     0.885     0.730 -84.74   0
       211    845.1658    193.3173 300.3927082 +22.6914473     728.3221     69.11931      1.215     2.30    -9.323884      19.5106     99.60544        11     0.799     0.784 -51.54   0
       212    575.9875    193.6745 300.3087505 +22.6109183     466.7532     69.17216      1.216     2.50    -8.859408      19.5106     73.72957         9     0.840     0.683 -72.65   0
       213    857.0686    192.5013 300.3966827 +22.6947772     454.9056     69.24257      1.558     2.18    -9.362297      19.5106     62.00219         8     0.741     0.670 -88.43   0
       214   1018.0021    183.2391 300.4498641 +22.7402980     829.5417     69.17216      1.197     2.16    -9.149333      19.5106     152.2647        12     0.942     0.779 -87.96  16
       215    973.9498    182.3608 300.4364110 +22.7268577     466.0864     69.17216      1.093     2.13    -9.240522      19.5106     101.2324        10     0.829     0.696  80.19   0
       216    208.0536    175.8060 300.2001052 +22.4955040     415.8095     69.13693      1.429     2.74    -9.219907      19.5106     60.95427         8     0.899     0.599  65.04   0
       217     69.8918    170.8770 300.1587775 +22.4526577     1039.455     69.29533      1.237     2.51    -9.156297      19.5106     174.8754        15     1.019     0.837 -70.76   0
       218    893.1525    167.6546 300.4159922 +22.6984380      317.566     69.18977      1.095     2.50    -9.284126      19.5106     61.27438         8     0.836     0.619 -11.41   0
       219     19.6040    167.7037 300.1441890 +22.4366642     239.8097     69.06642      0.936     2.88     -8.77264      19.5106     43.64843         5     0.723     0.447  69.57   0
       220    227.2738    164.1919 300.2098470 +22.4979321      2783.29     69.11931      1.220     2.31    -9.123841      19.5106     362.9677        19     0.954     0.917 -64.18   0
       221     11.6529    158.6831 300.1446464 +22.4316905     622.5436     69.18977      1.323     3.58    -8.708753      19.5106     90.44237        10     1.000     0.760  44.69   0
       222   1023.7385    150.7891 300.4621823 +22.7326817     432.7802     53.36639      1.071     3.19    -8.951277      19.5106     108.7337         5     1.030     0.394  60.52  24
       223    871.2982    145.3767 300.4164082 +22.6854885     1749.435     69.08405      1.159     2.09    -9.169193      19.5106     270.7022        18     0.978     0.855  81.76   0
       224    975.0128    144.0068 300.4491870 +22.7161453     1329.852     69.04878      1.162     1.94    -9.069911      19.5106     253.9677        14     0.873     0.786 -53.42   0
       225    457.6880    143.1235 300.2883355 +22.5609463     1890.341     69.27774      0.605     0.93    -8.819561      19.5106      1046.86         6     0.492     0.368 -13.93   0
       226    420.8083    140.8041 300.2776144 +22.5492278     260.4919     68.99583      1.283     3.58    -8.939248      19.5106      34.8923         6     0.750     0.572  50.74   0
       227    344.8088    132.8702 300.2565498 +22.5241712     319.3244     69.13693      1.374     2.08    -9.005896      19.5106     52.32528         6     0.728     0.523  48.40   0
       228    472.4508    128.1165 300.2977972 +22.5610586     780.0396     69.17216      1.229     2.46    -8.748755      19.5106     114.0286        12     0.894     0.766  59.09   0
       229    110.9473    129.3627 300.1849981 +22.4530531     291.4149     69.17216      1.071     2.68    -9.302715      19.5106     51.58302         6     0.787     0.597 -39.81   0
       230    533.0706    127.1451 300.3169769 +22.5789431     180.5472     69.17216      1.305     5.24    -8.677985      19.5106     32.29469         5     1.224     0.633  27.22   0
       231    246.2660    108.0355 300.2339671 +22.4875004     2997.607     69.15455      1.269     2.26    -9.096746      19.5106      431.625        25     1.046     0.960  77.83   0
       232    753.0367    108.5115 300.3915157 +22.6394763     139.2144     69.13693      1.373     4.35    -8.696157      19.5106     35.44619         6     1.084     0.498   2.69   0
       233     97.5741    107.4195 300.1879612 +22.4427435     372.2393     69.13693      1.044     2.97    -9.311019      19.5106     56.20671         6     0.874     0.436 -72.11   0
       234    492.2944     93.2888 300.3152690 +22.5569975     3071.592     69.33047      1.260     2.33    -8.641516      19.5106     369.1921        24     1.029     0.957  64.93   0
       235    377.6846     93.0686 300.2796847 +22.5225914     345.7288     69.24257      1.102     2.34    -8.942081      19.5106      52.0224         7     0.720     0.629  82.91   0
       236    744.7548     82.7615 300.3972880 +22.6295930     399.4045     69.20737      1.203     2.87    -8.458125      19.5106     49.73961         6     0.740     0.552  43.59   0
       237    837.2413     81.4726 300.4265236 +22.6569155     258.8745     69.13693      1.082     3.34    -8.720569      19.5106     40.06956         5     0.772     0.418  24.93   0
       238    185.2983     76.9415 300.2251026 +22.4602944     244.1084     69.24257      1.095     3.29    -8.972518      19.5106     39.93621         7     0.854     0.580  61.74   0
       239    543.9878     75.3963 300.3371601 +22.5673430     157.4237     69.01349      1.222     4.02    -8.605354      19.5106     28.40364         5     1.052     0.439  64.56   0
       240    620.6240     73.3616 300.3616773 +22.5897146     3110.358     69.17216      1.231     2.20    -8.490844      19.5106      407.488        26     1.060     0.957 -87.15   0
       241    395.5943     72.2260 300.2920152 +22.5219708     676.9776     69.13693      1.365     3.14     -8.74776      19.5106     83.39594        14     1.054     0.825 -69.93   0
       242    662.0253     70.4087 300.3755267 +22.6012660     305.0645     69.15455      1.159     3.37    -8.340906      19.5106     59.53371         6     0.948     0.440 -15.17   0
       243    144.5491     64.6957 300.2164115 +22.4445616     294.0143     69.22498      1.202     2.82     -8.92398      19.5106     59.81892         7     0.938     0.476  79.67   0
       244    947.5668     63.9785 300.4665887 +22.6849112     184.4459     69.15455      1.083     2.75    -8.721642      19.5106     48.89317         8     0.813     0.651   1.57   0
       245    716.1511     62.0673 300.3950895 +22.6150777     285.6282     69.15455      1.022     3.72    -8.221577      19.5106     49.01099         5     0.657     0.607  -9.40   0
       246    664.7243     58.0716 300.3803684 +22.5985278     1247.901     69.24257      1.246     2.39    -8.219604      19.5106     200.6254        15     0.905     0.879 -47.67   0
       247    679.3755     56.4087 300.3854704 +22.6024376     292.3225     69.15455      1.224     3.22    -8.159986      19.5106     44.12384         5     0.727     0.459  18.26   0
       248    751.2522     49.7173 300.4100291 +22.6220377     701.9319     69.18977      1.245     2.55     -8.18576      19.5106     92.43183        13     0.944     0.789 -78.93   0
       249    688.9294     42.8134 300.3928549 +22.6013902     271.8654     69.15455      1.091     1.72    -8.026539      19.5106      71.6198         6     0.680     0.522  43.81   0
       250    495.1052     42.1666 300.3327232 +22.5431493     520.2748     69.13693      1.155     2.50    -8.481895      19.5106     78.40395         8     0.761     0.680 -49.67   0
       251     67.6599     42.1993 300.1998198 +22.4150495     249.5318     69.11931      1.159     3.57    -8.732689      19.5106     40.17309         6     0.748     0.627  22.52   0
       252    398.9996     40.3403 300.3034146 +22.5138303     411.7625     69.11931      1.374     2.56    -8.468107      19.5106     46.52922         7     0.731     0.622  25.36   0
       253    738.1093     30.9244 300.4120290 +22.6126987      250.623     69.29532      1.194     3.13     -7.91168      19.5106     43.39924         6     0.742     0.573 -46.86   0
       254    170.0436     30.5251 300.2354138 +22.4423921     1966.477     69.13693      1.299     2.52    -8.685361      19.5106     270.4169        23     1.048     0.995 -34.47   0
       255    731.1076     22.4345 300.4126008 +22.6081611     442.1208     69.10168      1.172     4.01     -7.81097      19.5106      63.8181         9     1.049     0.646  40.43   0
       256    286.0706     22.5865 300.2740524 +22.4748888     602.8062     69.15455      1.139     2.70    -8.462054      19.5106     85.08417         9     0.883     0.646  48.72   0
       257    769.1220     18.1640 300.4258284 +22.6183152     326.8908     69.11931      1.356     4.17    -8.081866      19.5106     39.38793         8     1.004     0.696 -79.94   0
       258    170.4817   1023.1729 299.9130216 +22.7272710     860.8735     56.51477      5.820     8.49     16.30592      19.5106     47.86012        19     2.021     0.996  -9.35  27
       259    494.8096     12.5048 300.3422493 +22.5345364     241.9917     69.08405      1.069     2.15    -8.391005      19.5106     46.92918         5     0.696     0.463 -21.32   0
       260    546.5613   1018.0383 300.0316327 +22.8387279     938.7764     69.22498      0.987     1.68    -12.49286      19.5106     205.0853        13     0.806     0.744  45.16   0
       261    632.9284   1013.2824 300.0600640 +22.8632858     3929.028     69.27774      1.028     1.56    -12.58656      19.5106     967.4783        21     0.898     0.787 -82.72   0
       262     76.3850   1017.4979 299.8856410 +22.6973769      2391.04     69.04878     23.824    56.33     8.257836      19.5106     57.50666       416    11.974     7.354  29.29  27
