#   1 NUMBER                 Running object number                                     
#   2 X_IMAGE                Object position along x                                    [pixel]
#   3 Y_IMAGE                Object position along y                                    [pixel]
#   4 ALPHA_J2000            Right ascension of barycenter (J2000)                      [deg]
#   5 DELTA_J2000            Declination of barycenter (J2000)                          [deg]
#   6 FLUX_APER              Flux vector within fixed circular aperture(s)              [count]
#   7 FLUXERR_APER           RMS error vector for aperture flux(es)                     [count]
#   8 FLUX_RADIUS            Fraction-of-light radii                                    [pixel]
#   9 FWHM_IMAGE             FWHM assuming a gaussian core                              [pixel]
#  10 BACKGROUND             Background at centroid position                            [count]
#  11 THRESHOLD              Detection threshold above background                       [count]
#  12 FLUX_MAX               Peak flux above background                                 [count]
#  13 ISOAREA_IMAGE          Isophotal area above Analysis threshold                    [pixel**2]
#  14 A_IMAGE                Profile RMS along major axis                               [pixel]
#  15 B_IMAGE                Profile RMS along minor axis                               [pixel]
#  16 THETA_IMAGE            Position angle (CCW/x)                                     [deg]
#  17 FLAGS                  Extraction flags                                          
         1    729.6715     14.2842 300.4126589 +22.6083108     465.8783     69.39702      1.175     3.66    -7.740604     19.54915      57.3045         9     1.074     0.581  72.21   0
         2    284.0775     14.1400 300.2740018 +22.4747879     651.9924     69.34412      1.318     3.15    -9.093405     19.54915     79.70543        13     1.060     0.764  84.20   0
         3    767.5502      9.4528 300.4260289 +22.6182627     325.7179     69.32649      1.497     4.65    -7.862344     19.54915      36.9639         7     0.939     0.654  78.34   0
         4    787.4521      5.6105 300.4334773 +22.6231162     1017.605      69.2912      1.126     2.31    -7.948651     19.54915     172.9982        12     0.868     0.748  75.79  16
         5    493.1605      3.4784 300.3425089 +22.5343710     282.7625     64.06398      1.543     4.11    -8.992935     19.54915     29.08768         6     1.064     0.453  61.65  16
         6    170.9845      1.3661 300.2429833 +22.4372224     404.7821     54.04059      1.166     3.19    -8.382605     19.54915     70.42849         8     1.041     0.482  -0.02  24
         7    209.2375   1011.7450 299.9265477 +22.7385799     1216.705      69.2912      9.587    11.08     19.33961     19.54915     55.03072        26     2.137     1.821  44.59  27
         8    175.5000   1022.2131 299.9126536 +22.7314458     822.8543     61.17355      6.138    10.76     22.15975     19.54915     32.52476        18     2.818     1.146 -72.66  27
         9    161.8481   1018.3724 299.9096619 +22.7262443      865.686     69.30885      5.997    11.55     20.68764     19.54915     38.91151        23     2.934     1.266  18.34  19
        10    170.5448   1007.4613 299.9159175 +22.7257301     1109.446     69.36176      5.028     6.59      17.4331     19.54915     47.87461         8     1.537     0.821 -45.13   3
        11    172.8305   1018.4558 299.9130476 +22.7295672      1231.51     69.30885      5.206     9.75     20.85875     19.54915     43.44397        23     2.934     0.903 -66.74  19
        12    168.5211   1016.6457 299.9122978 +22.7277540     1249.782      69.2912      6.064     5.54     20.48993     19.54915     69.66619        15     1.675     0.963  25.19  19
        13    166.6848   1013.8770 299.9126288 +22.7264090     1204.977     69.39702      6.517    10.04     19.54701     19.54915     46.09226        17     2.477     1.135 -22.36  19
        14    130.7484   1022.1339 299.8987736 +22.7179795     377.1374     61.59193      1.197     3.79     21.78975     19.54915     35.11629         5     1.183     0.348  76.75  24
        15     76.6600   1013.3321 299.8848364 +22.6992080     2509.967     69.32649     19.194    54.85     11.02232     19.54915      61.7021       644    10.917     7.646  41.86  27
        16    187.7391    999.1593 299.9239643 +22.7285157     391.0743      69.2912      2.114     4.29     14.90641     19.54915      31.0922         5     0.745     0.705  39.27   0
        17    166.4141    998.1141 299.9176775 +22.7218108     876.7263     69.23823      3.370     6.49     14.67778     19.54915     41.05288        10     1.972     0.599 -33.27   2
        18    631.1747   1004.7810 300.0600804 +22.8632637     4012.992      69.2912      1.082     1.70    -12.24401     19.54915     857.8901        25     0.985     0.842  20.85   2
        19    214.8171   1006.2597 299.9300681 +22.7386838     1674.883     69.23824     10.077    11.82     17.28196     19.54915     51.66395        37     2.569     1.515  12.61   3
        20    544.6744   1009.5858 300.0315854 +22.8386801     1076.385     69.30885      1.049     1.79    -13.20787     19.54915     211.6369        11     0.764     0.692 -54.66   0
        21     77.9270    967.8945 299.9000244 +22.6865702     2656.381     69.41463     26.909    64.43    0.6824244     19.54915      71.6987       929    13.227     8.708  71.95  19
        22    495.5433    993.2388 300.0216173 +22.8192444     311.8658      69.2912      1.360     3.48    -13.00344     19.54915     33.29168         5     0.784     0.447 -70.05   0
        23    165.9962    992.1916 299.9194761 +22.7199880     766.4154     69.13217      4.052     4.81     12.85616     19.54915     26.07023         5     0.961     0.683 -27.55   0
        24    196.6980   1005.2711 299.9247584 +22.7329582     1847.978     69.43225     10.489    17.29     16.88301     19.54915     52.84653        47     3.826     2.172 -22.40  19
        25    226.9058   1008.2324 299.9331832 +22.7428801     612.5823     69.23823      4.276     4.71     17.13449     19.54915     35.71046         5     0.979     0.643 -30.98   1
        26    924.0342    988.4193 300.1566614 +22.9464298     286.9796     69.30885      0.895     1.65    -12.94423     19.54915     97.75185         6     0.685     0.479 -13.83   0
        27    230.9922    992.3575 299.9396226 +22.7395576      1835.72     69.30885     10.198    14.83      10.0515     19.54915     62.75093        56     3.637     1.683 -86.42   3
        28    142.8708    975.8837 299.9175999 +22.7083684     637.3212     69.41463      2.885     3.89     7.889049     19.54915     33.63435         5     1.011     0.428  44.67   1
        29     46.0419    976.1750 299.8874246 +22.6793636     835.0045     69.34412      5.165     5.60    -5.295001     19.54915     28.51668         5     1.164     0.759  11.68   1
        30    238.7073    993.5355 299.9416373 +22.7422124     3825.631     69.39702      6.835    28.19     7.699055     19.54915     92.48228       251     8.110     3.227  58.55  18
        31    216.1902   1011.3076 299.9288511 +22.7405429     742.6912     69.23823      7.953     8.37     19.05307     19.54915     40.91296        14     1.823     1.074 -37.30   3
        32    649.4550    971.8884 300.0764840 +22.8593137     3356.086     69.32649      1.066     1.81    -12.21598     19.54915     645.0935        18     0.876     0.800  29.11   0
        33    636.7346   1002.4540 300.0625695 +22.8642647     4429.607     69.32649      1.027     1.70    -12.24146     19.54915      823.163        26     0.933     0.867 -76.62   3
        34    240.6808    966.1348 299.9511723 +22.7349515    -150.0087     69.39702      0.860     1.82   -0.7145622     19.54915      67.2738         5     0.673     0.445 -73.99   0
        35    216.6046   1000.2649 299.9325757 +22.7375026     1913.343      69.2912     12.093    19.90     15.16209     19.54915     59.72772        75     4.779     2.302  24.89  19
        36    731.5337   1005.4949 300.0911057 +22.8935837     358.8823     69.41463      1.088     3.21    -13.07102     19.54915     59.96332         6     0.903     0.484  35.52   0
        37    557.8934    962.6349 300.0509888 +22.8291817      645.837     69.25589      1.048     1.95    -12.55445     19.54915     154.5051         9     0.769     0.658 -10.56   0
        38    108.5656    956.8436 299.9131402 +22.6926076     1211.338     69.34412      8.465     9.17     1.526739     19.54915      41.9333        18     2.023     1.160 -53.95   3
        39    451.9091    959.0954 300.0191568 +22.7963548     494.8899     69.46747      0.961     1.57    -12.63581     19.54915     134.6508         8     0.792     0.623  31.35   0
        40    382.4527    957.2565 299.9981476 +22.7749763     3109.388     69.34413      1.006     1.74    -12.28538     19.54915     580.7157        20     0.890     0.793 -57.73   0
        41    928.6769    935.7155 300.1752703 +22.9326928     1143.741     69.39702      1.045     1.79    -12.80228     19.54915     225.5927        14     0.889     0.783  48.06   0
        42    426.7136    932.1991 300.0200742 +22.7810785     156.0805      69.2029      1.055     3.80    -12.28829     19.54915     36.62083         6     1.042     0.399  77.20   0
        43    717.6993    925.5384 300.1128307 +22.8664909     330.4461     69.36176      1.730     5.35     -12.1599     19.54915     64.21936         9     1.525     0.529  59.89   0
        44     57.8830    989.4783 299.8867711 +22.6867325     1991.862     69.39702     18.321    27.59   -0.2663718     19.54915     56.78693       142     5.472     3.861  10.09   3
        45     97.6957    921.9346 299.9211272 +22.6793388      943.155     69.39702      5.145     5.06    -7.903884     19.54915     33.91377         5     1.202     0.603  -4.54   0
        46    752.2455    918.9212 300.1257475 +22.8749555     391.8127      69.2912      0.949     1.69    -12.15989     19.54915     114.3687         7     0.652     0.609  85.12   0
        47    530.3354    919.6422 300.0564077 +22.8085791     252.7062     69.27355      1.302     4.07    -12.16925     19.54915     36.28606         5     0.992     0.477  -3.17   0
        48    774.5245    912.6020 300.1347463 +22.8798249     5581.758      69.2029      0.986     1.67     -12.1816     19.54915     1087.326        25     0.880     0.831 -82.71   0
        49     85.8066    904.4144 299.9231366 +22.6707469     387.8771     69.18523      1.249     2.17    -9.511988     19.54915      57.7176         5     0.697     0.447 -22.80   0
        50    783.0544    894.6828 300.1432374 +22.8772405     720.6305     69.32649      0.988     1.58    -12.06233     19.54915     176.5917         9     0.779     0.588  57.39   0
        51    633.6941    891.8353 300.0976380 +22.8316169     505.3044      69.2912      1.001    -0.75    -11.92268     19.54915     282.4522         7     1.204     0.359  -4.71   0
        52    821.4518    888.1205 300.1573394 +22.8868735     450.2059      69.2912      1.136     2.08    -12.06024     19.54915      94.0523         6     0.701     0.592  47.93   0
        53    869.6163    879.0743 300.1752965 +22.8987211     310.2999      69.2912      1.022     3.08    -12.02422     19.54915     60.61512         6     0.887     0.485  87.30   0
        54    720.8901    878.5089 300.1291340 +22.8539518     318.9477     69.44986      0.977     1.54     -11.8551     19.54915     80.96749         5     0.627     0.458  27.96   0
        55    433.6528    874.9537 300.0408668 +22.7667439      2073.61     69.32649      1.031     1.69    -11.81995     19.54915     434.9258        19     0.886     0.816  67.29   0
        56    732.5651    875.5912 300.1337208 +22.8566167     268.9603     69.27355      1.068     2.91    -11.84163     19.54915     54.24997         6     0.817     0.518 -44.71   0
        57    158.9363    860.6558 299.9600995 +22.6801684     343.9238     69.34412      1.177     2.73    -10.99725     19.54915     64.15831        10     0.856     0.778 -34.31   0
        58    136.0109    857.6588 299.9539511 +22.6724248     788.1137     69.23823      1.178     1.75    -11.25192     19.54915     155.9493        14     0.948     0.799  14.35   0
        59   1007.5921    846.5173 300.2289170 +22.9307418     1096.872     69.22057      1.026     1.99    -12.13409     19.54915     182.8812        12     0.818     0.720  82.24   0
        60     10.7538    847.4626 299.9183596 +22.6318824     152.9069     69.32649      1.077     3.11    -11.81862     19.54915     32.69507         5     0.729     0.444 -23.16   0
        61    961.9102    844.8677 300.2152064 +22.9165732     1105.324     69.43225      1.058     1.63    -12.02741     19.54915     265.8991        10     0.756     0.653  85.15   0
        62    667.4837    844.9068 300.1234350 +22.8282879     276.6505     69.46747      1.138     3.68    -11.70994     19.54915     38.59348         6     0.791     0.492  81.84   0
        63    745.5291    839.2562 300.1495854 +22.8500765     342.4437     69.30885      1.067     2.65    -11.74395     19.54915     59.53721         6     0.814     0.499  48.21   0
        64    613.5399    832.9614 300.1105236 +22.8086770     2358.308     69.30885      0.987     1.70    -11.69472     19.54915     501.2834        16     0.819     0.732  84.15   0
        65     62.5621    978.1531 299.8919118 +22.6848936     2068.616     69.32649     20.168    29.76   -0.7475639     19.54915     53.73833       190     7.036     3.495  50.30   3
        66    163.7921    826.8832 299.9725983 +22.6719453     672.2577     69.22057      1.058     1.80    -11.30731     19.54915     136.4015         8     0.693     0.628 -57.67   0
        67    634.4113    825.6700 300.1193955 +22.8128461      238.907     69.30885      0.968     2.38    -11.68584     19.54915     74.65533         5     0.714     0.437  66.34   0
        68    183.1992    823.9594 299.9795810 +22.6769343     165.8344     69.30885      1.140     2.34    -11.29382     19.54915     52.51907         5     0.640     0.542   4.03   0
        69   1006.5026    812.8110 300.2395466 +22.9207347     510.5385     69.18523      0.961     1.69    -12.09928     19.54915     120.2003         8     0.661     0.626  19.99   0
        70    789.5524    812.6396 300.1719643 +22.8556391     1982.298     69.32649      0.941     1.71    -11.69571     19.54915     393.6392        12     0.732     0.680  57.86   0
        71    198.1898    806.8462 299.9898082 +22.6765289      138.543     69.30885      0.859     3.00     -11.3547     19.54915      45.3074         5     0.926     0.336  45.18   0
        72    506.6952    804.8556 300.0864079 +22.7685557     301.8304     69.34412      1.179     2.15    -11.69474     19.54915     58.22371         5     0.671     0.613  -7.73   0
        73    152.8850    803.2433 299.9769006 +22.6618931     422.8385     69.25589      1.091     1.93    -11.56083     19.54915     100.9519         8     0.721     0.639  33.45   0
        74    302.6824    795.3795 300.0260239 +22.7046103     26236.62     69.25589      1.052     1.77    -11.07437     19.54915     4683.786        53     1.041     0.954  84.30   0
        75    567.8508    798.4604 300.1075250 +22.7850696      242.737     69.34412      1.060     2.40    -11.62364     19.54915     47.29085         5     0.715     0.436 -25.18   0
        76    560.6191    794.1381 300.1066800 +22.7816597     858.0251     69.27355      1.067     2.08    -11.58297     19.54915     137.1618         9     0.825     0.660 -23.94   0
        77    973.2737    793.2606 300.2355445 +22.9051590     494.0219     69.32649      1.096     2.06    -11.75642     19.54915     86.75326         8     0.727     0.642 -43.62   0
        78    230.5872    793.2482 300.0043025 +22.6823567      323.586     69.30885      1.181     2.58    -11.23941     19.54915     52.75915         5     0.741     0.425  65.78   0
        79    589.5021    790.1953 300.1169549 +22.7891934     431.9782      69.2029      0.951     2.21    -11.54231     19.54915     96.06339         7     0.803     0.576  39.91   0
        80    600.3387    788.3839 300.1209183 +22.7919245     245.7444     69.23824      0.941     2.25    -11.52198     19.54915     58.22551         5     0.693     0.459  76.96   0
        81    743.4548    775.2902 300.1697535 +22.8310928     422.5653     69.34413      1.008     2.01     -11.4812     19.54915     89.81416         6     0.699     0.542  42.89   0
        82    352.3821    772.6423 300.0488773 +22.7130065      15200.3     69.30885      1.061     1.83    -10.99924     19.54915     2681.305        41     1.008     0.916  78.61   0
        83    366.5680    773.1793 300.0531148 +22.7174181     1014.275      69.2912      1.058     1.90     -11.0109     19.54915      189.844        13     0.896     0.734  42.72   0
        84    875.3648    768.2011 300.2131696 +22.8686107     1288.485     69.25589      0.988     1.73    -11.40193     19.54915     289.1257        13     0.809     0.684  76.77   0
        85    633.1877    764.4341 300.1389390 +22.7949048     513.7324     69.27355      1.020     1.92    -11.30493     19.54915     86.57333         7     0.671     0.604  25.90   0
        86    234.6613    764.2829 300.0149921 +22.6752739     423.7194     69.37939      1.332     2.42    -11.22011     19.54915     70.55258         7     0.831     0.548 -34.17   0
        87    480.4733    759.3391 300.0930558 +22.7476285     351.1483     69.32649      0.949     2.49    -11.24976     19.54915     87.01999         6     0.854     0.408  67.43   0
        88     39.8385    760.4089 299.9557149 +22.6156678      338.315     69.30885      1.015     2.11    -11.62079     19.54915     57.02693         6     0.734     0.489   5.26   0
        89    469.5746    764.7382 300.0879078 +22.7459075     270.8442      69.2912      1.142     2.86    -11.27085     19.54915     53.98769         8     0.902     0.640 -42.13   0
        90     67.9170    753.6093 299.9666483 +22.6221505     306.5203     69.23823      1.003     3.21    -11.57553     19.54915     44.44489         8     0.846     0.677  56.60   0
        91    859.0238    750.8171 300.2137314 +22.8587195     206.6178      69.2912      0.934     3.45    -11.34495     19.54915     40.10919         6     0.869     0.489  30.06   0
        92    232.4863    748.9429 300.0193060 +22.6702220     368.0038     69.39702      1.182     2.77    -11.22738     19.54915     41.14249         6     0.766     0.500 -89.41   0
        93    547.2653    734.9446 300.1217802 +22.7606673     727.7489     69.34412      1.092     1.96    -10.99506     19.54915     149.3659        10     0.960     0.631  76.72   0
        94    525.4301    737.1964 300.1142509 +22.7547630     282.6622     69.25589      0.942     2.39    -11.00675     19.54915     68.68634         5     0.716     0.433  65.10   0
        95    941.7044    733.5758 300.2451180 +22.8785536     2212.275     69.18523      0.971     1.57    -11.25015     19.54915     474.3029        15     0.778     0.756   0.16   0
        96    930.2449    724.9077 300.2443644 +22.8726290     753.8428      69.2912      1.022     1.62    -11.25811     19.54915     193.0761        11     0.833     0.672  79.13   0
        97    293.3770    719.0070 300.0479743 +22.6799132     295.2675     69.27355      1.042     2.42    -10.85232     19.54915      65.5219         6     0.750     0.482  85.19   0
        98    756.5775    716.4352 300.1929885 +22.8181308     1353.327     69.30885      1.094     2.05    -11.16392     19.54915     203.1909        16     1.099     0.781  13.51   0
        99    961.2837    715.1293 300.2572243 +22.8791237      806.446     69.41463      0.992     1.53     -11.1498     19.54915     205.4102         8     0.720     0.571 -80.52   0
       100    838.8413    701.9998 300.2233203 +22.8386499     292.4208     69.32649      1.150     2.73    -11.14525     19.54915     46.00358         6     0.867     0.464  52.11   0
       101    874.9877    693.2408 300.2374367 +22.8469702     72264.47      69.2912      1.059     1.62    -11.09806     19.54915     16921.22        93     1.089     0.991 -89.93   0
       102   1021.9681    694.9078 300.2827293 +22.8915015     473.7668       62.283      1.030     1.83    -10.93879     19.54915     137.5071         8     0.761     0.646 -40.52  24
       103    561.2350    682.2256 300.1432759 +22.7497274     725.4205     69.30885      1.060     1.93    -10.78885     19.54915     145.2834        10     0.806     0.661  60.58   0
       104    742.4471    679.4496 300.2006153 +22.8032743     4537.826     69.32649      1.006     1.84    -11.08306     19.54915     720.1136        21     0.877     0.814  89.50   0
       105    244.0772    674.8766 300.0469982 +22.6524590     2506.478     69.37939      1.158     1.94    -11.04551     19.54915     487.6359        18     0.924     0.804  74.97   0
       106    326.1006    672.8923 300.0731477 +22.6765055     488.0775     69.44986      1.093     1.75    -10.48184     19.54915     117.3865         8     0.704     0.598  53.02   0
       107    201.8594    670.3693 300.0353403 +22.6384949     249.7118     69.30885      1.012     3.41    -11.22743     19.54915     39.18556         5     0.737     0.455 -16.04   0
       108    534.3446    668.0974 300.1394996 +22.7376066     374.4002     69.37939      1.004     1.79    -10.65515     19.54915     81.76361         7     0.681     0.599  71.35   0
       109    525.9477    660.3688 300.1393991 +22.7328697     1530.862     69.30885      1.065     1.80    -10.57633     19.54915      303.543        14     0.885     0.728  82.09   0
       110    516.2518    654.0359 300.1384404 +22.7281437     683.4929     69.30885      1.169     2.20    -10.51172     19.54915     113.7737         8     0.738     0.647  44.60   0
       111    179.6837    650.3162 300.0349683 +22.6260874     371.2789     69.41463      1.511     3.09    -11.06935     19.54915     49.70571         7     0.902     0.630 -86.93   0
       112    193.9593    648.5834 300.0399687 +22.6298753     221.1359     69.30885      1.054     1.81    -11.04403     19.54915     57.94484         6     0.720     0.491  -5.27   0
       113    440.9404    644.0654 300.1182452 +22.7026907      881.386     69.32649      1.165     2.23    -10.38327     19.54915     160.7642        12     0.885     0.733 -65.55   0
       114    219.3612    645.5897 300.0488378 +22.6366407     266.7274      69.2912      1.040     2.51    -10.98302     19.54915     50.53705         5     0.676     0.484 -10.48   0
       115     95.0274    638.9771 300.0123491 +22.5974239     9783.356     69.27354      1.197     1.99    -11.26064     19.54915     1786.581        35     1.036     0.915 -85.99   0
       116   1016.6324    640.9565 300.2986110 +22.8744014     511.5655     69.32649      1.057     2.47    -10.79964     19.54915     102.6435         7     0.825     0.593  84.69   0
       117    525.8169    639.1302 300.1462645 +22.7267345     529.2606     69.30885      1.181     2.64    -10.44044     19.54915     82.99833         7     0.854     0.530 -78.94   0
       118    943.9437    625.1523 300.2810793 +22.8480789     481.1928     69.32649      1.050     1.82    -10.79817     19.54915     125.7708         9     0.791     0.628  18.71   0
       119     41.0257    622.9635 300.0007799 +22.5766204     907.8328     69.30885      1.682     4.04    -11.29099     19.54915     99.79493        15     1.316     0.796 -85.71   0
       120    106.9796    623.4551 300.0211089 +22.5965606     172.4385     69.27355      1.260     3.23    -11.20105     19.54915     34.22565         6     0.793     0.496   4.04   0
       121    489.6819    619.9941 300.1412395 +22.7104035     189.3409     69.22057      0.956     2.13     -10.2948     19.54915     49.81947         5     0.746     0.453  25.26   0
       122    884.2690    618.1331 300.2647550 +22.8281783     420.6911     69.34412      0.920     1.49    -10.70245     19.54915     96.20451         5     0.646     0.424  74.42   0
       123    446.1886    612.1122 300.1302673 +22.6950951     274.4189     69.23824      1.049     2.10    -10.25935     19.54915     71.33264         6     0.815     0.450  56.10   0
       124    611.5706    608.5867 300.1828929 +22.7436846     281.9353      69.2912      1.418     3.42    -10.30312     19.54915     41.56214         6     0.923     0.413 -18.94   0
       125    490.1465    607.8497 300.1453325 +22.7070572     469.4312     69.32649      1.141     1.90    -10.23846     19.54915     88.85371         7     0.669     0.627   3.73   0
       126    923.9767    603.3187 300.2819520 +22.8358224     1669.816     69.25589      1.039     1.61    -10.68861     19.54915     381.3062        12     0.793     0.698 -78.08   0
       127    455.7898    603.3831 300.1360928 +22.6954698     714.1364     69.25589      1.019     1.87    -10.20105     19.54915     149.5747        10     0.798     0.668  55.63   0
       128   1021.8718    601.0853 300.3132099 +22.8645144     444.1482     62.75248      0.952     1.78    -10.70827     19.54915     94.17612         7     0.691     0.580  79.27  16
       129     17.8030    597.2166 300.0019370 +22.5622660      2554.86      69.2029      1.201     2.09    -11.12353     19.54915     444.6718        20     0.946     0.906  41.70   0
       130    319.1883    590.1940 300.0978859 +22.6507049     4476.399     69.16754      1.154     1.94    -10.35989     19.54915     806.9144        24     0.995     0.853  74.70   0
       131    441.6329    587.1623 300.1369609 +22.6865678     4281.955     69.32649      1.138     2.00    -10.08105     19.54915     750.0808        24     1.013     0.832  84.81   0
       132    853.2733    580.9935 300.2671672 +22.8082197     891.4529     69.23823      1.092     1.98    -10.58117     19.54915     176.3572        11     0.816     0.690 -14.35   0
       133    937.8535    578.3505 300.2943966 +22.8328071     6192.939     69.32649      1.023     1.64     -10.6648     19.54915       1292.8        29     0.961     0.839  74.26   0
       134    502.1675    576.7227 300.1591929 +22.7017279     5649.734     69.27355      1.173     2.05    -9.998669     19.54915      976.373        30     1.082     0.913  82.86   0
       135    671.6327    572.7050 300.2132631 +22.7513908     178.8137     69.27355      1.036     2.54    -10.21474     19.54915     50.89062         5     0.732     0.427  67.97   0
       136    229.6272    572.2783 300.0758623 +22.6186915     659.9185      69.2912      1.095     2.33    -10.52356     19.54915     98.52065        10     0.800     0.757  88.22   0
       137    476.7158    569.5607 300.1535997 +22.6920386     222.1831     69.25589      1.184     4.16    -9.937954     19.54915     32.31487         6     1.091     0.453  53.90   0
       138    433.9772    564.9809 300.1417891 +22.6779051     2157.872      69.2912      1.202     1.86    -9.917795     19.54915      414.313        21     1.076     0.881 -76.67   0
       139    776.5020    564.6582 300.2485504 +22.7805171     366.5576     69.37939      1.297     2.36     -10.3002     19.54915     75.54741         6     0.864     0.558  59.39   0
       140    412.1156    563.4201 300.1354945 +22.6708996      437.635     69.23823      1.082     3.08    -9.928567     19.54915     92.58932         8     0.841     0.678 -28.32   0
       141    166.3523    562.6401 300.0593275 +22.5969384     249.4334     69.34413      0.952     2.10    -10.72012     19.54915     60.99992         5     0.675     0.459 -16.31   0
       142    853.5626    560.3282 300.2739753 +22.8023696     673.7468     69.25589      1.130     2.55    -10.53677     19.54915     109.4724        11     0.838     0.801  29.51   0
       143    550.4662    552.4677 300.1821112 +22.7092493     100090.3     69.34413      1.122     2.03    -9.827596     19.54915     14738.21       128     1.220     1.195 -48.97   0
       144    734.1984    557.3937 300.2377305 +22.7657500      342.608     69.11448      0.986     1.55    -10.00829     19.54915     89.02715         5     0.638     0.452  24.41   0
       145    236.6345    552.6689 300.0844143 +22.6151683     1748.793      69.2912      1.140     2.15    -10.48908     19.54915       255.89        16     0.963     0.767  85.02   0
       146    441.0423    532.8160 300.1544419 +22.6707918     1285.978     69.30885      1.201     2.12    -9.763132     19.54915     221.2285        13     0.911     0.725  69.17   0
       147    837.9653    518.9110 300.2825756 +22.7857965     881.5901     69.27354      1.119     1.85      -10.223     19.54915     184.2875         9     0.724     0.680  56.04   0
       148    709.2476    516.5317 300.2432385 +22.7465345     1199.522     69.27355      1.126     2.25    -9.791317     19.54915     179.0295        14     0.913     0.801  87.84   0
       149    614.1329    513.3181 300.2146582 +22.7170981      213.701     69.39702      1.140     1.94    -9.712211     19.54915     53.79645         5     0.695     0.436  17.48   0
       150    496.4066    512.2939 300.1783407 +22.6815045     305.7248     69.18523      1.003     3.31    -9.681533     19.54915     62.59272         6     0.855     0.565  31.41   0
       151    966.5246    510.4759 300.3254005 +22.8218933     680.4986     69.37939      1.113     2.13    -10.52964     19.54915     101.7058        10     0.835     0.659  87.39   0
       152    952.3047    509.5105 300.3212795 +22.8173557     486.6451     69.46747      1.318     2.21    -10.42959     19.54915     70.50194         6     0.775     0.501  44.63   0
       153    838.3765    509.2484 300.2858441 +22.7831436     842.9227      69.2912      1.082     1.96    -10.14418     19.54915     173.0937        10     0.763     0.716  75.21   0
       154    591.3713    507.1719 300.2095681 +22.7085088     328.4691     69.25589      1.356     3.44    -9.630569     19.54915     48.61216         6     0.898     0.490  51.76   0
       155    876.3977    503.9977 300.2994029 +22.7930282     2187.146     69.07909      1.053     1.79    -10.20253     19.54915     398.1701        17     0.893     0.777 -79.47   0
       156    108.4731    494.4941 300.0634877 +22.5600206     609.8719     69.41463      1.136     2.57    -10.58572     19.54915     74.37514        10     0.926     0.665  55.63   0
       157    968.2221    494.3174 300.3311812 +22.8177580     418.8324     69.25589      1.103     1.66     -10.4765     19.54915     86.61183         6     0.637     0.569 -77.40   0
       158    101.1693    484.7142 300.0643961 +22.5550233     209.7606      69.2912      1.309     4.28    -10.56686     19.54915     32.98137         6     0.791     0.661  75.53   0
       159    708.7994    478.5831 300.2554311 +22.7355000     248.8963     69.18523      1.200     1.75    -9.754107     19.54915     54.20243         5     0.661     0.450  24.63   0
       160    650.0951    474.5776 300.2384469 +22.7167531     381.0503      69.2029      1.127     2.85    -9.700911     19.54915     65.02161         8     0.871     0.618 -61.40   0
       161    964.6321    466.8078 300.3390012 +22.8087761     140.5723      69.2912      0.925     2.85    -10.29993     19.54915     46.13951         5     0.741     0.436  69.84   0
       162    710.5482    466.5959 300.2598710 +22.7325808     338.6834      69.2912      1.055     2.39    -9.756891     19.54915      79.7151         6     0.849     0.417  20.40   0
       163    867.9181    463.0193 300.3100757 +22.7787124     552.7321     69.27354      1.216     2.04    -9.973833     19.54915     111.6933         8     0.786     0.582  55.24   0
       164    852.2654    459.6051 300.3063056 +22.7730414     366.2465      69.2912      1.393     3.28    -9.945692     19.54915     71.10372         7     1.137     0.573  74.98   0
       165    596.3910    457.3641 300.2273158 +22.6957103     1721.751      69.2912      1.175     2.22     -9.45657     19.54915     223.7478        16     0.926     0.832  73.10   0
       166   1007.7749    436.3425 300.3623566 +22.8129422      530.855      69.2912      1.091     2.08    -10.27254     19.54915     128.8134        10     0.838     0.653 -81.19   0
       167    879.6047    436.1358 300.3224539 +22.7744884     116.7308     69.27355      1.003     1.84    -9.936625     19.54915     50.65541         5     0.671     0.450 -67.32   0
       168    966.0414    434.9313 300.3497981 +22.8000361      439.497     69.27354      1.023     1.68    -10.08702     19.54915     113.7098         7     0.745     0.505  43.71   0
       169    707.0382    431.2549 300.2702600 +22.7213765     520.9756      69.2912      1.096     2.13    -9.758332     19.54915     93.64797         7     0.681     0.655   9.54   0
       170    273.5115    425.4563 300.1372154 +22.5897274     1761.307     69.32649      1.174     2.15     -9.97095     19.54915     245.3036        18     0.996     0.841 -85.05   0
       171   1006.3888    423.5949 300.3660659 +22.8088625     2097.894     69.16754      1.004     1.78    -10.10881     19.54915     398.6968        16     0.846     0.784  63.54   0
       172    220.7211    420.2264 300.1225016 +22.5723908     3581.495      69.2912      1.193     2.12    -9.978517     19.54915     570.7728        24     1.047     0.901  59.53   0
       173    361.4461    414.3769 300.1681621 +22.6129211     2448.996     69.30885      1.208     2.19    -9.669388     19.54915     295.7118        21     1.099     0.824  81.52   0
       174    986.3724    414.5510 300.3627605 +22.8002675     782.0328     69.30885      0.958     1.69    -9.990273     19.54915     162.1805        10     0.748     0.644  -0.95   0
       175    605.5617    410.9554 300.2452487 +22.6851304     8927.157     69.34412      1.197     2.09    -9.258235     19.54915     1461.326        31     1.050     0.915  77.12   0
       176    623.4900    410.3214 300.2510376 +22.6903221     417.0163     69.41463      1.678     5.51    -9.348219     19.54915     40.30905         9     1.348     0.806 -21.78   0
       177    938.9722    393.2306 300.3549035 +22.7799412     337.8146      69.2912      1.015     1.99      -9.9259     19.54915      76.3866         6     0.679     0.548 -48.26   0
       178    160.2772    391.2273 300.1131334 +22.5459362     1045.985      69.2912      1.143     2.22    -10.14821     19.54915      150.547        13     0.925     0.723  71.62   0
       179    546.1443    380.4770 300.2366492 +22.6585656     3358.733     69.32649      1.238     2.22    -9.247532     19.54915     484.0906        23     1.023     0.887 -87.43   0
       180    959.8827    380.5254 300.3655517 +22.7825522     555.8597     69.39702      1.257     1.76    -9.955185     19.54915     108.6298         8     0.706     0.621 -84.01   0
       181    261.1167    379.7590 300.1482048 +22.5728935     363.6791     69.25589      1.120     2.04    -9.785499     19.54915     60.80331         7     0.695     0.625  -0.39   0
       182    660.0889    370.7480 300.2752904 +22.6899234      269.799     69.30885      1.320     4.67    -9.401474     19.54915     34.45647         8     1.013     0.611  65.58   0
       183    750.3170    369.1777 300.3039092 +22.7165102     694.8337     69.25589      1.336     2.56    -9.784989     19.54915     82.57476         9     0.907     0.591  86.51   0
       184    452.8666    366.7546 300.2120733 +22.6266610      2865.39      69.2912      1.211     2.13    -9.309772     19.54915     486.7232        21     0.989     0.881 -86.63   0
       185    942.0235    361.0349 300.3663128 +22.7716002     286.6877     69.30885      1.057     2.56    -9.931853     19.54915      59.0481         5     0.653     0.540 -89.65   0
       186    844.8051    360.7764 300.3360855 +22.7424049     828.6877     69.27355      1.251     2.37    -9.882513     19.54915     119.6488        12     0.911     0.796  58.18   0
       187    437.9053    354.7187 300.2113267 +22.6187191     193.9747     69.44986      1.195     3.05    -9.287631     19.54915     44.59131         6     0.752     0.614 -57.88   0
       188    817.7944    348.4575 300.3316673 +22.7307726     262.4463     69.25589      1.111     2.56    -9.801809     19.54915     54.46551         6     0.716     0.628  61.71   0
       189    340.3793    346.0069 300.1838154 +22.5869754     1330.858     69.27355      1.254     2.09    -9.378242     19.54915     200.4652        17     1.080     0.798  89.13   0
       190     58.9140    343.4656 300.0971489 +22.5018206     380.8257     69.37939      1.137     2.45    -10.05679     19.54915       66.506         8     0.779     0.668  42.91   0
       191    309.7831    335.4492 300.1777280 +22.5747694     14381.64     69.32649      1.231     2.13    -9.405643     19.54915     2276.392        44     1.159     0.986  78.34   0
       192    844.2855    332.5079 300.3451044 +22.7341243     636.0085     69.44986      1.135     2.67    -9.817479     19.54915     100.1941        11     0.994     0.630  82.19   0
       193      6.1404    323.3204 300.0872978 +22.4802064     2380.805     69.34412      1.187     2.18    -9.881728     19.54915     384.9332        21     0.997     0.868  62.44  16
       194    759.7322    321.4787 300.3223339 +22.7056242     250.6695     69.39702      1.271     2.43     -9.50375     19.54915     50.95271         5     0.691     0.471 -19.19   0
       195    183.6688    321.2266 300.1431362 +22.5328635     129.7563     69.27355      1.040     3.02    -9.830115     19.54915     45.15937         5     0.761     0.421 -70.71   0
       196    720.1370    314.9634 300.3121126 +22.6918888     929.1853      69.2912      1.233     2.01     -9.40847     19.54915     151.5849        12     0.925     0.716  58.97   0
       197    935.3629    307.6675 300.3815674 +22.7542629     384.1126     69.27355      1.266     2.57    -9.965001     19.54915      46.4388         5     0.713     0.448 -71.73   0
       198    381.8083    299.8266 300.2116979 +22.5861377     981.4423      69.2912      1.397     2.87    -9.231049     19.54915     139.3503        13     1.139     0.682  60.07   0
       199    821.2177    292.5675 300.3508837 +22.7157341     260.2997     69.27355      0.945     1.95    -9.467449     19.54915     63.58931         6     0.668     0.581  65.60   0
       200    457.7566    279.1234 300.2420507 +22.6029601     566.2576     69.27355      1.275     2.66    -9.180193     19.54915     80.58283         9     0.879     0.634  33.35   0
       201    702.5844    270.9535 300.3209339 +22.6739827     1020.523     69.30885      1.200     2.43    -9.242633     19.54915      162.828        12     0.873     0.789 -73.21   0
       202    963.7836    265.0912 300.4042551 +22.7505321     1675.495     69.22057      1.129     1.93     -9.90412     19.54915     297.6923        16     0.931     0.757  72.88   0
       203    410.8996    254.8595 300.2353474 +22.5819453     352.3385     69.37939      1.219     2.19    -9.134585     19.54915     57.94694         8     0.775     0.630 -65.15   0
       204    116.6203    249.3592 300.1456307 +22.4921254     213.7204     69.32649      1.091     2.79    -9.612872     19.54915     57.11067         6     0.842     0.483  85.75   0
       205     85.8559    248.9069 300.1362185 +22.4827679      671.184     69.34412      1.448     3.61    -9.673466     19.54915     77.83183        12     1.214     0.676 -46.02   0
       206    979.7042    245.3770 300.4156209 +22.7496302     292.7776      69.2029      1.130     2.45    -9.777568     19.54915     45.96254         5     0.698     0.459 -17.22   0
       207    965.1846    238.0738 300.4134632 +22.7431826     166.7173      69.2912      1.273     4.36     -9.80199     19.54915     33.94234         5     0.849     0.637  52.91   0
       208    774.1793    232.0312 300.3558771 +22.6842435     258.5374      69.2912      1.131     2.11    -9.191987     19.54915     57.76255         7     0.706     0.639  81.92   0
       209    872.3897    221.2932 300.3899746 +22.7105706     1057.708     69.23824      1.167     2.00    -9.636559     19.54915     172.3415        13     0.860     0.795 -76.32   0
       210    290.8725    218.8483 300.2097014 +22.5356204     1045.638      69.2912      1.254     2.41     -8.99823     19.54915     184.5331        12     0.876     0.809  65.86   0
       211    368.8937    214.1164 300.2355041 +22.5576516     474.2811     69.46747      1.419     3.26    -9.008961     19.54915      73.6759        11     0.913     0.830 -78.06   0
       212    770.6265    212.7732 300.3610211 +22.6776435     173.5774     69.25589      1.199     3.14     -9.16126     19.54915     35.30525         5     0.723     0.461  74.74   0
       213    185.4952    206.0645 300.1810883 +22.5003531     425.1085     69.37939      1.370     4.08    -9.289357     19.54915     61.60209         8     1.128     0.538  68.80   0
       214    723.3705    202.7299 300.3495562 +22.6606017     801.8032      69.2912      1.159     2.22    -9.145937     19.54915     125.2426        12     0.870     0.765 -64.06   0
       215    206.7658    199.3128 300.1898914 +22.5047930     368.5664     69.25589      1.507     3.66    -9.254169     19.54915     48.35336         6     0.946     0.572  28.66   0
       216    994.6630    195.2632 300.4365540 +22.7396965     455.6003     69.32649      1.141     3.05    -9.415248     19.54915     74.91023         7     0.913     0.542 -49.55   0
       217    727.6008    194.2292 300.3536333 +22.6594254     216.1993     69.25589      1.068     1.67    -9.124844     19.54915      61.6368         5     0.630     0.473 -72.32   0
       218    648.0703    193.5449 300.3290804 +22.6354043     659.4746     69.30885      1.222     2.55    -9.039016     19.54915      91.8957        10     0.822     0.772  77.80   0
       219    574.3151    185.2589 300.3088014 +22.6109256     544.9729     69.39702      1.299     2.56    -8.792082     19.54915     78.52518        10     0.854     0.762 -34.87   0
       220    843.4031    184.8789 300.3927574 +22.6914202     737.8181      69.2029      1.190     2.18    -9.272477     19.54915      113.487        11     0.835     0.736 -54.78   0
       221    855.4642    183.7080 300.3968972 +22.6946953     377.3132     69.39702      1.153     2.74    -9.319084     19.54915     66.54765         8     0.979     0.498 -87.76   0
       222   1016.2525    174.6957 300.4499641 +22.7402438     717.2737     69.36176      1.048     2.37    -9.260501     19.54915     148.5774        11     0.986     0.646  59.70   0
       223    972.2531    174.2426 300.4363864 +22.7269417     506.2559      69.2912      1.079     2.06    -9.314888     19.54915     94.70479         9     0.773     0.651 -11.28   0
       224    206.3631    167.3486 300.2001391 +22.4954946     523.6226     69.30885      1.547     3.63    -9.248686     19.54915     43.40444         7     0.958     0.558 -24.30   0
       225     68.3357    162.3226 300.1588752 +22.4526610     1267.184     69.37939      1.356     2.24    -9.270064     19.54915     165.1214        16     0.932     0.905  81.30   0
       226    891.2921    159.2376 300.4160086 +22.6983870     342.6691      69.2912      1.159     1.96    -9.209604     19.54915      65.3793         6     0.661     0.604 -36.74   0
       227     17.5275    159.2272 300.1440964 +22.4365339     359.5721      69.2912      1.680     3.37    -9.157704     19.54915     36.12684         5     0.750     0.439 -67.00   0
       228    225.5875    155.8181 300.2098570 +22.4979476     2769.868     69.25589      1.249     2.31    -9.210985     19.54915     400.5193        21     1.104     0.864 -79.58   0
       229      9.8408    150.0081 300.1447002 +22.4315823     660.0536     69.30885      1.316     3.02    -9.142254     19.54915     105.8986        13     1.050     0.781  42.80   0
       230   1023.6891    142.8465 300.4626198 +22.7333084     5363.586     53.79108      0.920     2.02     -9.12008     19.54915     1659.115        19     1.013     0.564  88.96  24
       231    869.5573    136.9924 300.4164508 +22.6854822     1698.212     69.30885      1.194     2.22    -9.108515     19.54915     267.6468        17     0.989     0.803 -86.19   0
       232    973.2742    135.7184 300.4492066 +22.7161669       1382.9     69.39702      1.155     2.07    -9.105062     19.54915     241.5905        14     0.864     0.812  77.05   0
       233    418.8788    132.2952 300.2776073 +22.5491305     284.0823     69.39702      1.242     3.24    -8.992365     19.54915     47.97064         9     0.928     0.660  68.60   0
       234    343.1777    124.1720 300.2566921 +22.5241089     328.5988      69.2912      1.049     1.94     -9.01583     19.54915     52.64853         6     0.702     0.535  47.55   0
       235    347.2359    123.1552 300.2582843 +22.5250332      153.116     69.34412      1.144     3.92    -9.010195     19.54915     31.35093         5     0.957     0.460  43.00   0
       236    109.1365    121.1592 300.1849078 +22.4530796      375.462     69.27355      1.258     4.06    -9.307467     19.54915     39.97993         6     0.808     0.582  40.77   0
       237    470.3306    119.7827 300.2976782 +22.5609539      834.568     69.32649      1.097     2.17    -8.842813     19.54915     129.4361         9     0.814     0.639  71.60   0
       238    244.5710     99.5892 300.2340021 +22.4874911     2861.134      69.2912      1.213     2.28    -9.197129     19.54915     414.1449        24     1.077     0.917  82.18   0
       239     95.4120     98.8025 300.1878960 +22.4425455     363.6779     69.11448      1.199     3.71     -9.29389     19.54915     52.63815         9     1.086     0.613  81.16   0
       240    873.8796     96.4788 300.4309434 +22.6751252     235.2707     69.41463      1.369     4.12    -8.928267     19.54915     36.44968         5     0.775     0.626 -71.59   0
       241    490.5484     84.8932 300.3152897 +22.5569864     3014.588     69.36176      1.216     2.28    -8.791675     19.54915     453.1788        19     0.972     0.878 -89.64   0
       242    376.1823     84.4157 300.2798566 +22.5225797     298.1652     69.27355      1.299     4.77    -9.019348     19.54915     43.27705         9     1.156     0.584  77.64   0
       243    743.0520     74.2847 300.3973667 +22.6295704       421.65      69.2912      1.143     2.52    -8.470152     19.54915     73.90826         8     0.810     0.656  53.04   0
       244    618.9722     64.8630 300.3617707 +22.5897012      3100.42      69.2912      1.300     2.32    -8.533453     19.54915      457.661        25     1.057     1.003  76.23   0
       245    393.9347     63.8723 300.2920434 +22.5219973      818.386     69.32649      1.281     2.20    -9.046552     19.54915     139.0657        10     0.840     0.650  79.34   0
       246    659.9684     62.0130 300.3754637 +22.6011606     481.0313     69.27354      1.463     2.81    -8.348893     19.54915     63.12519         9     0.894     0.683  18.79   0
       247    676.0051     58.2832 300.3816689 +22.6048912     321.9047     69.22057      1.290     2.98    -8.252719     19.54915      49.8368         6     0.876     0.496 -38.05   0
       248    142.9195     56.7671 300.2162939 +22.4447198     362.7676      69.2912      1.426     3.57    -8.912935     19.54915     47.30225         8     0.981     0.578  64.72   0
       249    946.0253     55.3511 300.4667818 +22.6848924     205.3372     69.30885      1.102     2.47    -8.545673     19.54915     60.99029         5     0.801     0.499 -58.71   0
       250    663.1185     49.6541 300.3804537 +22.5985510     1370.283     69.34412      1.305     2.50    -8.209413     19.54915     186.3585        16     1.014     0.848 -76.44   0
       251    303.8051     50.5460 300.2683298 +22.4911587     197.0303     69.27355      1.147     3.43     -9.13269     19.54915     33.26853         5     0.802     0.425  22.42   0
       252    678.0405     48.4680 300.3854866 +22.6026789     449.8142     69.27355      1.615     3.04    -8.139043     19.54915     59.52858         7     1.001     0.644  41.24   0
       253    749.6848     41.2827 300.4101384 +22.6220670     742.4786     69.41463      1.205     2.18    -8.112877     19.54915     109.6376        11     0.814     0.757  57.38   0
       254    687.3132     34.4663 300.3929166 +22.6014301     391.3658     69.37939      1.432     3.31    -7.979267     19.54915     45.90726         8     0.806     0.764 -42.39   0
       255    493.0768     34.0307 300.3325746 +22.5431269      573.804     69.27354      1.403     2.50    -8.912431     19.54915     85.14331        10     0.876     0.718 -83.93   0
       256     66.1301     34.0090 300.1998139 +22.4151622      317.972     69.27354      1.341     2.32    -9.073085     19.54915     55.82005         6     0.875     0.417  53.63   0
       257    397.2116     32.0815 300.3033740 +22.5138448     438.7975     69.27355      1.175     2.58     -9.09177     19.54915      72.9746        10     0.849     0.780  60.06   0
       258    736.5170     22.4360 300.4121481 +22.6127047     284.3629     69.27355      1.097     3.12    -7.835453     19.54915     51.53863         7     0.931     0.476  79.10   0
       259    168.4662     22.0947 300.2354787 +22.4424209     1861.608     69.41463      1.280     2.50    -8.579011     19.54915     242.8197        17     1.021     0.854 -86.33   0
       260     73.3849    936.1417 299.9089505 +22.6761074     1936.263     69.27355     23.509    44.46    -7.390325     19.54915     57.11301       366     8.947     6.130 -42.89   3
       261      2.7399   1021.1507 299.8593326 +22.6792373     485.3888      57.1852      3.103     5.50    -18.51549     19.54915     30.29075         5     1.244     0.686 -70.97  17
       262    197.1676   1018.8163 299.9204936 +22.7369809     872.5944     69.27354      4.068     6.36     21.56661     19.54915     37.19949        10     1.586     0.715  -4.02  16
       263    227.0555   1018.4622 299.9298985 +22.7458567     407.8436     69.36176      1.258     3.95     20.64827     19.54915      59.2242         7     0.975     0.458  13.28  16
       264    352.8646   1016.4224 299.9696795 +22.7830550     142.5594     69.27355      0.909     2.07    -12.44047     19.54915     52.84859         6     0.696     0.578  74.12   0
