#   1 NUMBER                 Running object number                                     
#   2 X_IMAGE                Object position along x                                    [pixel]
#   3 Y_IMAGE                Object position along y                                    [pixel]
#   4 ALPHA_J2000            Right ascension of barycenter (J2000)                      [deg]
#   5 DELTA_J2000            Declination of barycenter (J2000)                          [deg]
#   6 FLUX_APER              Flux vector within fixed circular aperture(s)              [count]
#   7 FLUXERR_APER           RMS error vector for aperture flux(es)                     [count]
#   8 FLUX_RADIUS            Fraction-of-light radii                                    [pixel]
#   9 FWHM_IMAGE             FWHM assuming a gaussian core                              [pixel]
#  10 BACKGROUND             Background at centroid position                            [count]
#  11 THRESHOLD              Detection threshold above background                       [count]
#  12 FLUX_MAX               Peak flux above background                                 [count]
#  13 ISOAREA_IMAGE          Isophotal area above Analysis threshold                    [pixel**2]
#  14 A_IMAGE                Profile RMS along major axis                               [pixel]
#  15 B_IMAGE                Profile RMS along minor axis                               [pixel]
#  16 THETA_IMAGE            Position angle (CCW/x)                                     [deg]
#  17 FLAGS                  Extraction flags                                          
         1    733.1943     11.5917 300.4121232 +22.6128340     375.1702     68.91424      1.594     3.50    -8.572877     19.48254     42.08509         6     0.750     0.647  66.04   0
         2    164.8187     11.0846 300.2354176 +22.4424194     1932.718      68.9847      1.343     2.32    -9.325713     19.48254     282.9812        18     1.066     0.850  56.83   0
         3    586.5710      7.4164 300.3678084 +22.5677282      214.406     69.05509      1.488     4.15    -8.583001     19.48254     26.82466         5     1.004     0.489 -84.94   0
         4    726.1061      3.1501 300.4126522 +22.6082845     517.6932     62.59689      1.343     3.56    -8.541239     19.48254     66.25053        14     1.143     0.830  60.15  24
         5    280.7206      2.9952 300.2740722 +22.4748321     691.3445     61.89441      1.377     2.96    -9.391345     19.48254     82.79671        14     1.048     0.847  59.25  24
         6    172.3336   1013.9915 299.9118718 +22.7323638     893.1458     69.05509      4.959    12.11     25.43699     19.48254     44.86366        19     2.987     1.367 -67.68  18
         7    149.8861   1022.4244 299.9021507 +22.7280373      330.664     60.04164      2.137     7.70     27.97127     19.48254     34.91912         9     2.010     0.826  23.77  24
         8     70.9114    924.4080 299.9095261 +22.6762318     1746.937     68.96709     23.640    40.80    -7.532738     19.48254     50.16678       340     8.059     5.732 -49.92   3
         9    163.6823    986.8408 299.9180236 +22.7219857     1007.354     69.01991     12.524    13.95     15.74413     19.48254      36.8582        26     3.045     1.778  66.62   2
        10     76.2131   1017.0261 299.8810212 +22.7043590     3038.869     69.05509     12.013    34.98     16.94705     19.48254     77.20495       358     7.376     4.603 -51.63  27
        11    166.9525   1006.1907 299.9127396 +22.7285124     1679.812     69.07268      6.480    11.73     22.46994     19.48254     39.95905        27     2.574     1.488  -3.59   2
        12     71.8401    999.4346 299.8853906 +22.6980059     2612.372     69.09026     16.623    23.16     10.60546     19.48254     58.48607       142     4.759     3.130 -58.34  19
        13    139.0299    963.8402 299.9178518 +22.7079907     934.2194     69.05509      4.600    10.22     7.743708     19.48254     44.78725        17     2.289     1.272  31.39   0
        14    119.0993    963.7135 299.9117008 +22.7019680     598.8588     69.21322      3.282     4.64      7.71348     19.48254      33.0555         5     1.384     0.441 -32.87   0
        15    645.9734    960.8863 300.0764985 +22.8593298     3359.051     69.05509      1.244     2.12    -12.24291     19.48254     553.8992        23     0.989     0.918  49.92   0
        16    212.2871    995.3090 299.9303713 +22.7390104     1848.069     69.21322     11.411    14.43     18.51565     19.48254     58.81921        45     2.994     2.083 -11.89   3
        17    212.8213    989.5176 299.9324229 +22.7375112     1989.432     69.01991     10.038    19.60     16.43271     19.48254     52.88153        64     3.834     2.783  51.16   3
        18    541.1470    998.4415 300.0316355 +22.8386434     1238.755     69.05509      1.280     1.89    -13.29494     19.48254     210.4489        15     0.952     0.788  67.95   0
        19    237.0420    955.0206 299.9511822 +22.7348985    -162.4394     69.09026      1.037     2.59    -1.135949     19.48254     46.82566         9     0.770     0.751 -86.36   0
        20    797.8235    954.1871 300.1259814 +22.9029628      179.906     69.05509      1.162     4.56    -12.69519     19.48254     28.04676         5     0.796     0.743  71.69   0
        21    554.5067    951.6733 300.0510211 +22.8292403     662.2224     69.17811      1.039     2.09    -12.60867     19.48254     102.8214        12     0.858     0.717  38.17   0
        22    223.3559   1007.3942 299.9298766 +22.7457979        207.8     69.05509      1.246     3.88     23.66076     19.48254     35.69584         6     0.913     0.473  84.63   0
        23    448.2261    948.1282 300.0191006 +22.7963257     545.4976     69.05509      1.194     2.20    -12.52684     19.48254     92.10361         8     0.734     0.675 -47.82   0
        24    191.1613    989.5135 299.9256926 +22.7310048     965.1512     69.03751     21.237    19.40     16.59746     19.48254     38.01172        38     5.453     1.918   5.36   3
        25    195.0000    993.0016 299.9257499 +22.7331573     1358.947     68.82606      5.248     5.96     17.74558     19.48254      53.9091        13     1.479     0.740 -88.89   3
        26    104.0725    944.0725 299.9134262 +22.6918268     1340.865     69.10784      6.331     7.33    0.6735764     19.48254     43.32044        12     2.682     0.561  51.26   2
        27    378.8166    946.1349 299.9981576 +22.7749187     3140.012     69.03751      1.180     1.98    -12.11204     19.48254     581.9929        22     0.954     0.899 -74.09   0
        28    192.0464    994.0000 299.9245070 +22.7325563     1435.335     69.03751      4.867     6.29     18.14492     19.48254     52.50691         8     1.867     0.594   9.37   3
        29    627.6093    993.8346 300.0600523 +22.8632703     4013.663     69.03751      1.157     1.95    -12.17077     19.48254     637.0766        27     1.029     1.018  -4.74   3
        30    411.1191    932.9761 300.0124890 +22.7808427     308.3289     69.01991      1.198     2.01     -12.1942     19.48254     58.48047         5     0.585     0.573  77.92   0
        31    925.1675    924.6822 300.1752795 +22.9326856     1060.285     69.03751      1.164     2.01     -12.5357     19.48254     186.2283        13     0.855     0.775 -59.01   0
        32    633.2308    991.4744 300.0625712 +22.8642802      4640.47     69.07268      1.172     1.98    -12.17742     19.48254     691.6469        28     1.022     0.964 -83.89   3
        33    727.8705    994.6618 300.0910083 +22.8935910     330.0939     69.09026      1.019     2.02    -12.70146     19.48254     65.82064         7     0.760     0.562 -35.41   0
        34    233.5157    981.7205 299.9413937 +22.7414916     3948.644     69.19566      7.657    27.69     9.506594     19.48254     92.37489       295     7.491     3.537  55.91  18
        35    713.4590    912.8538 300.1131535 +22.8657960     435.1975     69.10784      1.338     2.26    -12.36174     19.48254     54.96981         6     0.698     0.607 -27.61   2
        36     69.7188    961.8466 299.8969690 +22.6866002     2301.802     69.05509     28.665    94.08    0.7703022     19.48254     60.58907      1688    19.556    12.559 -89.04  26
        37    748.7652    907.8275 300.1257882 +22.8749444     506.2899     69.07268      1.101     2.11    -12.40046     19.48254     91.04705         6     0.703     0.531  60.62   0
        38    771.0575    901.6174 300.1347550 +22.8798488     5688.618     69.03751      1.127     1.79     -12.4169     19.48254      1015.73        32     1.041     0.925  46.13   0
        39    204.5328   1000.5924 299.9262411 +22.7381955     1028.108     69.05509      7.220     8.48     20.95716     19.48254     38.69748        17     1.620     1.242 -35.68   3
        40    779.6605    883.5375 300.1433203 +22.8772404      599.701     69.09026      0.935     1.85    -12.39482     19.48254     122.5442         9     0.723     0.658 -12.71   0
        41    817.7187    877.1008 300.1572748 +22.8868068       479.83     69.17811      1.078     2.04    -12.43057     19.48254     85.51959         6     0.711     0.589 -57.49   0
        42    717.2778    867.3120 300.1291662 +22.8538733     470.7101     69.19566      1.208     3.89    -12.30941     19.48254     62.77669        10     1.182     0.630 -46.64   0
        43    728.8524    864.4472 300.1337042 +22.8565229     305.6644     69.09026      0.978     2.17    -12.29719     19.48254     67.58481         5     0.683     0.532  66.88   0
        44    430.0707    863.9045 300.0408660 +22.7667240     2038.278     69.16055      1.152     1.76    -11.71021     19.48254     448.8044        17     0.881     0.844 -76.65   0
        45    155.3748    849.6142 299.9601074 +22.6801640     385.4011     69.07268      1.207     3.50    -11.02022     19.48254     61.08646         6     0.846     0.514  50.54   0
        46    132.3127    846.6420 299.9539087 +22.6723870     721.4008     69.05509      1.210     2.24     -11.0479     19.48254     112.1747        12     0.888     0.786 -60.39   0
        47      7.2554    836.5891 299.9183348 +22.6319491     37.25877     69.05509      0.864     4.27    -11.24981     19.48254      29.3298         7     0.959     0.542 -58.33   0
        48   1004.1804    835.2915 300.2290144 +22.9307087     985.1813      68.9847      1.146     2.07    -12.07555     19.48254     167.6015        13     0.836     0.784  51.18   0
        49    958.4100    833.8416 300.2152120 +22.9165721     1071.784     69.05509      1.175     1.90     -12.0725     19.48254     185.8712        12     0.853     0.701  34.04   0
        50    164.7225    828.1676 299.9699903 +22.6768234      205.394     69.03751      1.150     4.25    -11.11126     19.48254     37.89544         5     0.786     0.687  32.73   0
        51    610.0170    821.9108 300.1105364 +22.8086709     2267.603      68.9847      1.137     1.84    -11.43714     19.48254     491.5472        17     0.862     0.824  78.74   0
        52    412.4444    819.2465 300.0499141 +22.7486263     324.3706     69.09026      1.211     3.18    -11.33412     19.48254     36.08252         5     0.723     0.462  70.70   0
        53    160.2610    815.9583 299.9725763 +22.6719841     712.4423     69.03751      1.331     2.80     -11.1629     19.48254     95.56979        12     1.035     0.715  67.96   0
        54    630.6362    814.3084 300.1194304 +22.8126748     340.7163      69.0023      1.112     3.00    -11.40509     19.48254     62.82812         7     0.870     0.571  67.36   0
        55    179.0415    813.0316 299.9793646 +22.6767838     233.5676     69.10784      1.219     3.81    -11.17676     19.48254     43.18982         5     0.810     0.515 -27.46   0
        56    786.0709    801.5735 300.1719909 +22.8556372     2097.477     69.05509      1.090     1.80    -11.75083     19.48254     396.3436        17     0.922     0.789  72.47   0
        57   1002.9372    801.7908 300.2395279 +22.9207154       461.95      69.0023      1.010     2.22    -11.67498     19.48254     101.3089         8     0.779     0.624 -51.47   0
        58    503.0468    794.0555 300.0863012 +22.7685872     266.9531     69.09026      1.174     1.93    -11.15422     19.48254       59.008         5     0.592     0.565  -4.64   0
        59    149.7514    792.2035 299.9770387 +22.6620191     472.1815     69.03751      1.196     3.48    -11.20904     19.48254     68.69456         9     0.919     0.775 -58.96   0
        60    299.0921    784.3480 300.0260142 +22.7045981     26145.69     69.10784      1.170     1.94    -11.25191     19.48254     4547.915        61     1.133     1.058  86.06   0
        61    564.7804    787.5710 300.1076258 +22.7852475      226.487     69.05509      1.247     3.23    -11.07817     19.48254     32.63979         5     0.724     0.466  17.45   0
        62    556.9838    783.1888 300.1066245 +22.7816512     716.2272      69.0023      1.082     1.91    -11.07403     19.48254      152.825        13     0.872     0.791 -48.89   0
        63    969.7671    782.2479 300.2355416 +22.9051608     388.9746     69.09026      1.136     1.92    -11.55029     19.48254     81.70042         7     0.755     0.561  72.13   0
        64    227.0896    782.3300 300.0042861 +22.6824066     284.4486     69.21322      1.287     4.24    -11.19229     19.48254      34.4287         7     0.734     0.699  24.65   0
        65    585.9918    779.3380 300.1169077 +22.7892482     349.6718      69.0023      1.016     1.76    -11.00272     19.48254     85.66717         7     0.674     0.580  27.12   0
        66    596.8895    777.9269 300.1207596 +22.7921122     203.8618     69.21322      0.962     3.29    -10.97972     19.48254     44.43305         5     0.650     0.567 -85.40   0
        67    702.3049    774.1371 300.1548205 +22.8226420     290.8444     69.14298      1.157     2.31    -11.34558     19.48254     51.45602         5     0.713     0.439  75.78   0
        68    348.8464    761.5596 300.0488994 +22.7129953     15123.63     69.10784      1.152     1.94    -11.00597     19.48254     2488.168        50     1.123     1.030 -86.93   0
        69    739.9562    764.0405 300.1698340 +22.8310350     303.1294     69.12541      0.949     1.88    -11.33884     19.48254     74.51978         7     0.770     0.521 -50.76   0
        70    363.0343    762.0325 300.0531582 +22.7173887     904.6075     69.09026      1.172     2.13    -10.99553     19.48254     168.9542        10     0.805     0.718   9.34   0
        71    871.8719    757.2805 300.2131420 +22.8686460     1475.724     69.17811      1.100     1.61    -11.33815     19.48254     305.7534        15     0.881     0.756 -68.79   0
        72    360.1933    756.0364 300.0542250 +22.7148164      304.786     69.05509      1.194     2.85    -10.96994     19.48254     54.12241         6     0.830     0.578  -1.14   0
        73    231.1980    753.6304 300.0148988 +22.6754109     462.9976     69.01991      0.967     2.46    -11.13332     19.48254     80.51569         9     0.844     0.695 -55.65   0
        74    629.7455    753.3510 300.1389846 +22.7949148     427.9572     69.09026      1.139     2.40    -10.97877     19.48254     77.49999         8     0.855     0.571 -19.12   0
        75     36.0512    748.7825 299.9558413 +22.6154333     322.7168     69.05509      1.487     3.15     -11.2464     19.48254      46.8486         6     0.854     0.577  88.39   0
        76    477.0473    748.1547 300.0931422 +22.7476182     332.1387     69.07268      1.043     2.02    -10.94186     19.48254     76.84637         8     0.753     0.620 -53.32   0
        77    378.4573    744.7096 300.0635900 +22.7170483     319.1811     69.10784      1.429     3.47    -10.92538     19.48254     30.43875         5     0.762     0.455 -70.72   0
        78    877.8417    744.6382 300.2191155 +22.8668054     221.3165     69.14298      1.180     2.03    -11.24826     19.48254     43.07933         5     0.697     0.443  20.30   0
        79    855.8867    739.5687 300.2139209 +22.8587682     328.0748     69.03751      1.383     3.90    -11.19281     19.48254     35.47001         5     0.878     0.495  -0.08   0
        80    228.6982    737.8392 300.0192579 +22.6701325     307.3852     69.05509      1.343     2.08    -11.09659     19.48254     57.14854         5     0.720     0.424  72.37   0
        81    552.2167    727.5417 300.1232421 +22.7642539     246.3411     69.01991      1.431     3.45    -10.84416     19.48254     39.69329         5     0.830     0.579 -46.94   0
        82    522.0824    726.3922 300.1142362 +22.7548846     237.0533      68.9847      0.934     2.03    -10.82945     19.48254     52.26226         5     0.697     0.433  24.39   0
        83    938.1951    722.5513 300.2451164 +22.8785534     2151.506     69.03751      1.049     1.78    -11.21212     19.48254     422.9452        18     0.887     0.828  81.01   0
        84    543.7775    723.8079 300.1218296 +22.7606510     622.0854     69.05509      1.105     1.87    -10.83318     19.48254     130.9287         8     0.727     0.608 -63.77   0
        85    926.7449    714.0184 300.2443217 +22.8726708     658.4895     69.03751      0.964     1.74    -11.18408     19.48254     178.8255         9     0.707     0.646  87.19   0
        86    289.4678    707.9622 300.0478671 +22.6798035     462.5502     69.03751      1.191     2.67    -11.09222     19.48254     68.90464         7     0.824     0.531  58.49   0
        87    752.9818    705.1721 300.1930406 +22.8180411     1328.236     69.05509      1.196     1.89    -11.08867     19.48254     238.3891        15     0.960     0.793  63.36   0
        88    957.9004    704.1456 300.2572476 +22.8791729     714.8676     69.14298      1.107     1.92    -11.15821     19.48254     167.4212        10     0.826     0.677  55.94   0
        89    138.3440    691.8449 300.0061354 +22.6298226      214.313     69.09026      0.994     2.79    -10.90431     19.48254     46.19334         7     0.793     0.612  66.72   0
        90    950.1443    687.8893 300.2601162 +22.8721791     308.6754     69.09026      0.864    -1.77    -11.11281     19.48254     129.7234         5     0.909     0.460 -21.80   0
        91    871.4522    682.2217 300.2374249 +22.8469662     71543.91     69.05509      1.099     1.84     -11.0283     19.48254     12569.08       102     1.209     1.077  83.53   0
        92   1018.8265    683.7148 300.2828942 +22.8915619     612.1876     69.03751      1.194     2.32    -11.10147     19.48254     117.5304        11     0.976     0.725 -70.60  16
        93    723.7615    682.3955 300.1913446 +22.8027410      404.781     69.07268      1.147     2.57    -11.02087     19.48254      61.5073         6     0.817     0.477  42.87   0
        94    557.8479    671.1942 300.1433201 +22.7497724     795.8057     69.03751      1.202     2.39     -10.6675     19.48254     135.8092        11     0.904     0.689  70.22   0
        95    738.9727    668.4117 300.2006308 +22.8032868     4575.228     69.05509      1.143     1.87      -10.965     19.48254     778.6904        28     1.033     0.896  72.00   0
        96    240.5339    663.7365 300.0470350 +22.6524340     2432.682     69.10784      1.152     2.14    -10.73565     19.48254      351.326        19     0.965     0.864  64.18   0
        97    322.4147    661.7804 300.0731294 +22.6764439     527.0887     69.01991      1.076     2.83    -10.99376     19.48254     110.3544         8     0.917     0.559  58.70   0
        98    531.0340    657.1508 300.1395400 +22.7376999     415.8696     69.09026      1.189     1.70    -10.57498     19.48254     83.33367         6     0.665     0.530  48.83   0
        99    522.4099    649.3623 300.1393881 +22.7328781     1603.796     69.07268      1.123     2.06    -10.51986     19.48254     252.2067        17     0.952     0.895 -68.61   0
       100    512.8376    643.1215 300.1384379 +22.7282160     706.9286     69.03751      1.152     2.10    -10.47684     19.48254     134.3879        10     0.825     0.673 -85.72   0
       101    176.1370    639.5137 300.0348947 +22.6261605     270.5392     69.16055      1.373     3.56    -10.73895     19.48254     39.91917         5     1.083     0.337 -86.18   0
       102    190.1642    638.0139 300.0397418 +22.6299403      207.405     69.05509      1.138     3.16    -10.70925     19.48254     43.40917         6     0.758     0.552  53.16   0
       103    959.6660    634.1928 300.2805468 +22.8596080     274.8397     69.07268      1.160     2.91    -10.81161     19.48254     35.45515         5     0.735     0.444 -74.30   0
       104    216.2665    634.5663 300.0489755 +22.6367851     210.8312     69.05509      1.029     2.83    -10.65408     19.48254     46.15318         5     0.918     0.365  23.46   0
       105    536.6438    633.0251 300.1491303 +22.7324583     224.9571     69.07268      1.008     2.73    -10.50242     19.48254     45.88174         6     0.772     0.630 -55.94   0
       106    437.6301    632.8571 300.1183717 +22.7027119      768.104     69.07268      1.146     2.23    -10.44852     19.48254     123.2415        11     0.835     0.731  51.06   0
       107   1013.1252    629.9150 300.2986107 +22.8743972     383.5486     69.16055      1.145     2.20    -10.81556     19.48254     101.1695         8     0.857     0.595 -33.54   0
       108     91.5053    627.9512 300.0123569 +22.5974426     9637.031     69.10784      1.239     2.14     -11.0982     19.48254     1354.893        40     1.121     1.030  61.37   0
       109    522.3107    628.0743 300.1462786 +22.7267387     581.3063     69.21322      1.223     2.19    -10.45342     19.48254     95.91124        10     0.829     0.712   4.71   0
       110    940.3927    614.0378 300.2810898 +22.8480427     581.3652     69.07268      1.109     1.81    -10.66319     19.48254     102.5792         7     0.682     0.592 -83.78   0
       111     37.4725    611.7808 300.0008295 +22.5765865     836.7028     69.05509      1.708     4.14    -11.22792     19.48254     94.30894        13     1.207     0.725 -86.26   0
       112    807.3197    611.9972 300.2402703 +22.8075757        159.6     68.96709      1.172     4.72    -10.62634     19.48254     43.46803         7     1.080     0.585 -70.74   0
       113    880.7723    606.8296 300.2648448 +22.8281058     370.1414     69.03751      1.077     2.48    -10.60537     19.48254     63.19328         6     0.735     0.543  46.92   0
       114    442.6179    600.9987 300.1302806 +22.6950660     370.9239     68.96709      1.109     2.84    -10.32104     19.48254     63.83859         8     0.908     0.606 -84.89   0
       115    637.5985    598.1103 300.1919125 +22.7527091     169.0694      68.9847      1.049     3.38    -10.25277     19.48254     30.30036         5     0.755     0.438 -69.04   0
       116    608.5287    597.3926 300.1830938 +22.7437869     270.2849     69.03751      1.391     4.18    -10.19759     19.48254     48.21764         9     1.132     0.605 -43.92   0
       117    486.6869    596.9095 300.1453230 +22.7071102     401.5278     69.21322      1.259     2.04    -10.26981     19.48254     62.93596         7     0.671     0.647  62.19   0
       118    920.3844    592.2918 300.2819208 +22.8358001     1513.932      68.9847      1.058     1.86    -10.61146     19.48254     290.2031        16     0.893     0.798  60.09   0
       119    452.2777    592.3005 300.1361138 +22.6954671     839.3022     69.17811      1.160     2.18    -10.27229     19.48254     121.6751        10     0.808     0.691  68.83   0
       120   1018.3973    590.4534 300.3130849 +22.8646385      358.157     69.01991      1.202     2.78    -10.64569     19.48254     53.48473         6     0.814     0.489  87.81  16
       121     14.2700    586.1492 300.0019548 +22.5622725     2482.323     69.05509      1.306     2.28    -10.92553     19.48254     359.7527        21     1.092     0.882  77.16   0
       122    315.6585    579.1989 300.0978751 +22.6507257     4366.487     69.01991      1.209     2.07    -10.50476     19.48254     685.2847        25     1.061     0.877  64.52   0
       123    438.0701    576.1531 300.1369419 +22.6865717      4253.57     69.03751      1.207     2.06    -10.22796     19.48254     731.0319        24     1.002     0.893  86.63   0
       124    849.7649    570.0935 300.2671214 +22.8082612     931.0894     69.01991      1.181     1.99    -10.57764     19.48254     186.2075        13     0.898     0.820 -75.73   0
       125    934.2964    567.2880 300.2943867 +22.8327853     5972.514     69.23077      1.127     1.86    -10.60678     19.48254     1100.119        29     0.981     0.892  81.26   0
       126    498.6534    565.7493 300.1591758 +22.7017555     5636.328     69.09026      1.167     2.00    -10.02236     19.48254     916.6465        27     1.027     0.918  79.32   0
       127    226.2277    561.3270 300.0758788 +22.6187667     572.1069     69.05509      1.097     2.47    -10.63428     19.48254     125.2982        10     0.972     0.760  -3.42   0
       128    668.4868    561.2188 300.2135240 +22.7513774     229.1934      69.0023      0.969     2.42    -10.27365     19.48254     55.20073         5     0.713     0.461 -69.12   0
       129    430.2833    553.9941 300.1417214 +22.6778768      2171.27      68.9847      1.242     2.20    -10.17214     19.48254     331.0118        20     0.976     0.911 -50.59   0
       130    773.0265    553.8205 300.2484954 +22.7805887     410.9987     69.05509      1.185     2.12    -10.48151     19.48254     88.86694         8     0.798     0.599  44.40   0
       131    408.8400    552.2919 300.1356033 +22.6709568     608.9565     69.05509      1.238     2.83    -10.22544     19.48254     76.19881        10     0.855     0.781  42.60   0
       132    162.7652    551.8183 300.0592445 +22.5969962     356.6139     69.05509      1.403     3.41    -10.72027     19.48254     51.29529         8     0.893     0.650 -85.46   0
       133    850.1434    549.1481 300.2740475 +22.8023579      766.285     69.10784      1.257     2.41    -10.56443     19.48254     114.7275        12     0.912     0.770 -36.50   0
       134    546.9434    541.4469 300.1821050 +22.7092601     99733.26     69.09026      1.219     2.01     -9.66512     19.48254     15231.89       129     1.265     1.245 -88.24   0
       135    370.0863    547.3511 300.1251538 +22.6579149      211.568     69.03751      1.298     4.61    -10.27273     19.48254     34.17464         6     0.915     0.658  31.69   0
       136    730.3842    546.1779 300.2376935 +22.7656127     476.2486     69.03751      1.151     1.93    -10.35799     19.48254     82.61101         6     0.692     0.528  45.65   0
       137    233.0543    541.4396 300.0844642 +22.6151098     1690.172     69.05509      1.184     2.24     -10.6174     19.48254     262.5616        17     0.928     0.838  60.93   0
       138    437.5659    521.7211 300.1544756 +22.6707984     1310.531      69.0023      1.165     2.22    -9.954306     19.48254     177.6645        13     0.910     0.730  71.11   0
       139    834.5681    507.8477 300.2826154 +22.7858263     829.6267     69.09026      1.144     2.50    -10.33824     19.48254     134.5146        14     1.013     0.799  55.11   0
       140    705.6989    505.5722 300.2431999 +22.7465520     1312.414      68.9847      1.145     2.09    -10.08405     19.48254     186.7429        14     0.889     0.799  36.50   0
       141    492.9566    501.4476 300.1783001 +22.6815894     294.2781     69.09026      1.188     2.64    -9.738051     19.48254     49.11857         6     0.756     0.495  -5.00   0
       142    962.8912    499.3998 300.3253680 +22.8218457      567.249     68.93186      1.022     1.95    -10.14984     19.48254     109.9718         9     0.776     0.647  65.69   0
       143    834.8967    498.1989 300.2858534 +22.7831528     1208.265     68.96709      1.284     1.97    -10.27779     19.48254      187.005        14     0.916     0.784  80.25   2
       144    948.7448    498.1227 300.3213715 +22.8172409     323.2872     69.09026      1.089     2.29    -10.14373     19.48254     56.00258         7     0.695     0.654 -45.86   0
       145    588.0757    495.9860 300.2096837 +22.7085403     294.1945     69.07268      1.245     2.52    -9.662345     19.48254     48.82394         7     0.841     0.522 -44.59   0
       146    872.8768    492.9459 300.2993991 +22.7930237      2119.98     69.09026      1.162     1.89    -10.18555     19.48254     414.2036        16     0.871     0.806  56.47   0
       147    104.8473    483.6444 300.0634004 +22.5600618     620.3322     69.09026      1.386     2.64    -10.65914     19.48254     78.64931        11     0.975     0.688  43.95   0
       148    964.5759    483.1767 300.3311652 +22.8176883     400.7684     69.01991      1.089     2.61    -10.00233     19.48254     64.06042         6     0.745     0.484  79.78   0
       149    704.9991    467.5623 300.2553326 +22.7354253     243.5969     69.05509      1.057     3.26    -9.821884     19.48254     39.13127         6     0.796     0.494   4.31   0
       150    646.3262    463.8225 300.2382729 +22.7167657     319.2685     69.09026      1.155     2.96    -9.579002     19.48254     49.37952         7     0.740     0.639 -70.77   0
       151    707.0959    455.7097 300.2598366 +22.7326494     322.2985     69.23077      1.007     1.96    -9.748478     19.48254     72.34877         7     0.681     0.621  -6.91   0
       152    864.2995    451.6147 300.3101548 +22.7785784     345.5701     68.96709      0.969     1.65    -9.926168     19.48254     78.22203         5     0.605     0.484  -7.71   0
       153    848.5411    448.3191 300.3063134 +22.7729103     213.2864     69.10784      1.049     2.59    -9.934676     19.48254     61.44033         6     0.806     0.508  44.27   0
       154    592.9169    446.3316 300.2273241 +22.6957334     1619.381     69.16055      1.250     2.23    -9.490698     19.48254     240.7685        17     1.044     0.829  70.82   0
       155   1004.1998    424.9742 300.3624337 +22.8128288      498.996     69.01991      1.058     2.17    -9.980778     19.48254     125.8332         8     0.812     0.602  80.74   0
       156    962.5547    423.9038 300.3497927 +22.8000482     411.9497     69.07268      1.169     2.23    -9.921554     19.48254     83.24478         6     0.749     0.494  84.32   0
       157    703.6346    420.2821 300.2702677 +22.7214357     373.1703     69.01991      1.134     2.40    -9.467003     19.48254     79.64906        10     0.872     0.699  47.65   0
       158    207.3877    418.8747 300.1163067 +22.5722445     378.3856     69.07268      1.238     3.33    -10.03783     19.48254     46.64796         9     0.962     0.631 -36.59   0
       159    270.0030    414.3507 300.1372418 +22.5897279     1827.829     69.05509      1.249     2.18    -9.616438     19.48254     267.4488        17     0.957     0.805  81.16   0
       160   1002.8134    412.4494 300.3660700 +22.8088134      2073.57     69.09026      1.104     1.86    -9.978703     19.48254     357.3696        20     1.016     0.856  51.14   0
       161    217.1172    409.0846 300.1225110 +22.5723538     3708.069     69.17811      1.279     2.26    -9.926382     19.48254     576.2018        25     1.061     0.917  73.60   0
       162    982.9260    403.6194 300.3627354 +22.8003192     967.4284     69.05509      1.214     2.16    -9.946298     19.48254     140.1293        14     1.024     0.758 -80.79   0
       163    357.8667    403.2843 300.1681601 +22.6129022     2382.474     69.16055      1.287     2.23    -9.351258     19.48254     364.7578        23     1.057     0.942  79.32   0
       164    602.0545    399.9147 300.2452474 +22.6851420     9070.726     69.12541      1.287     2.14    -9.322627     19.48254     1463.614        37     1.144     0.970  71.07   0
       165    799.1429    390.2002 300.3097971 +22.7414112     198.0588     68.96709      1.320     4.17    -9.720637     19.48254     30.47798         5     0.772     0.681 -40.81   0
       166    935.4125    382.5246 300.3547699 +22.7800255     480.5677     69.07268      1.457     2.96    -9.868521     19.48254     61.66371         6     0.810     0.531  40.78   0
       167    156.7698    380.2594 300.1131163 +22.5459802     1068.395     69.07268      1.380     2.54     -10.0078     19.48254     147.4455        17     1.160     0.821  60.82   0
       168    542.6994    369.3397 300.2366986 +22.6585703      3135.56     69.14298      1.228     2.24    -9.287957     19.48254     431.8971        23     1.038     0.898  68.46   0
       169    956.2503    369.5219 300.3654912 +22.7825289     631.0538     69.05509      1.107     2.10    -9.902548     19.48254     97.49957        10     0.849     0.632 -86.76   0
       170    257.7387    368.8583 300.1482037 +22.5729934     435.1744     69.10784      1.313     2.92    -9.527884     19.48254     53.17704         9     0.897     0.687  80.47   0
       171    114.9001    362.0349 300.1060240 +22.5281908     235.2676     69.03751      1.334     2.58    -9.910758     19.48254      39.6758         5     0.770     0.493  30.40   0
       172    747.0196    358.4046 300.3038819 +22.7166590     610.5698     69.01991      1.449     2.82    -9.504883     19.48254     69.09836         8     0.779     0.687  85.53   0
       173    449.3091    355.6732 300.2120709 +22.6266507     2920.977     69.21322      1.234     2.26    -9.332415     19.48254     378.5597        22     1.066     0.898  79.09   0
       174    938.4981    349.8615 300.3663405 +22.7715611     234.5309     69.14298      1.125     4.16    -9.855713     19.48254     52.91164         7     1.071     0.667  57.98   0
       175    841.2183    349.7852 300.3360368 +22.7424022     764.3844     69.03751      1.193     2.07     -9.67095     19.48254     124.9545         9     0.808     0.631  69.62   0
       176    433.9960    344.8971 300.2108055 +22.6189658     254.3712     68.96709      1.232     2.80    -9.307673     19.48254     38.38898         5     0.642     0.569 -89.74   0
       177    516.7338    342.0790 300.2374689 +22.6429585     290.4987     69.16055      1.554     3.58    -9.302494     19.48254      35.3858         5     0.806     0.516  33.88   0
       178    336.8341    335.1184 300.1837555 +22.5870275      1211.12     69.01991      1.314     2.37    -9.265821     19.48254     173.9205        16     0.989     0.942 -63.36   0
       179     55.3646    332.3007 300.0971829 +22.5017992     420.1446     69.03751      1.157     2.71    -9.589284     19.48254     58.41737         8     0.849     0.632  68.97   0
       180    306.2488    324.4080 300.1777213 +22.5747819     14511.64     69.05509      1.277     2.33    -9.377474     19.48254      1945.65        50     1.202     1.055  79.19   0
       181    840.7565    321.7161 300.3450079 +22.7341969     623.3001     69.01991      1.195     2.63    -9.591622     19.48254     98.20277        10     0.951     0.672  62.82   0
       182      2.6952    312.2679 300.0873280 +22.4802503     2362.645     60.70554      1.308     2.36    -9.440146     19.48254     309.0552        24     1.054     1.000  69.27  24
       183    755.9009    310.7459 300.3221253 +22.7056256     286.7356     69.14298      1.086     2.26    -9.445066     19.48254     54.20084         6     0.735     0.522  42.03   0
       184    404.6870    309.7881 300.2130866 +22.6000982     507.2287      69.0023      1.252     3.88    -9.272835     19.48254     64.29159         6     0.955     0.451  82.76   0
       185    716.5611    303.8238 300.3121161 +22.6918509       836.73     69.07268      1.273     2.48    -9.352353     19.48254     114.0733        14     1.002     0.779  44.53   0
       186    378.4165    288.8658 300.2117067 +22.5862151     1010.965     69.03751      1.406     2.58    -9.232061     19.48254     139.4621        16     1.099     0.818  51.42   0
       187    817.6688    281.2686 300.3509445 +22.7156565     243.5073     69.10784      1.024     2.64     -9.48624     19.48254      42.5725         6     0.683     0.640  17.11   0
       188    454.0864    268.0132 300.2420191 +22.6029098     695.3703      69.0023      1.547     2.98    -9.309369     19.48254     68.05466         9     0.831     0.673  52.43   0
       189    699.0965    259.7255 300.3209922 +22.6739472     1085.338     69.19566      1.261     2.65    -9.317055     19.48254     163.8239        13     1.004     0.797  75.92   0
       190    960.2032    254.1451 300.4041877 +22.7505436      1423.06      69.0023      1.212     2.23    -9.439403     19.48254     243.9694        17     0.958     0.840  70.98   0
       191    407.5726    243.6991 300.2354389 +22.5819851     272.4771      69.0023      1.181     3.61     -9.23054     19.48254      43.0379         7     0.972     0.474 -80.36   0
       192     82.0821    238.0515 300.1360782 +22.4827695     656.5355     69.07268      1.500     3.04    -9.302645     19.48254     67.85293        11     1.016     0.694 -76.73   0
       193    113.3069    237.9226 300.1458215 +22.4920976     336.9441     69.19566      1.289     2.67    -9.257257     19.48254     47.29665         7     0.727     0.649  60.72   0
       194    770.4871    220.8583 300.3558509 +22.6841617     332.8462     69.12541      1.373     3.64    -9.397926     19.48254     50.28608         8     1.024     0.656  89.99   0
       195    361.2786    221.3654 300.2282864 +22.5616948     112.4501      69.0023      1.116     4.04    -9.056178     19.48254     38.50537         5     0.978     0.476   4.68   0
       196    868.8969    210.2917 300.3899526 +22.7105957     1146.717     69.23077      1.293     3.14    -9.395185     19.48254     165.9965        16     1.182     0.755 -76.46   0
       197    287.3688    207.6762 300.2097427 +22.5356077     906.3362     69.05509      1.210     2.72    -9.035331     19.48254     125.0267        12     1.002     0.728  78.46   0
       198    365.5565    202.7224 300.2356675 +22.5576233     443.4897     69.03751      1.288     2.80    -9.060004     19.48254     64.18903        10     0.902     0.729 -50.43   0
       199    182.5565    194.9336 300.1812933 +22.5005247     386.5057     69.03751      1.410     4.32    -9.175947     19.48254     53.75617         9     1.098     0.620 -77.19   0
       200    720.0878    191.7026 300.3496103 +22.6606865     827.6298     69.23077      1.256     2.79    -9.253739     19.48254     123.5335        15     1.074     0.882 -54.06   0
       201    784.9260    191.4238 300.3699035 +22.6800255     220.0802     69.09026      1.068     3.17    -9.259526     19.48254     46.40836         5     0.894     0.559 -77.59   0
       202    991.6020    184.1924 300.4366858 +22.7398285      522.384     68.87897      1.315     2.78    -9.327541     19.48254     72.27581         8     0.870     0.610  80.56   0
       203    723.8063    183.1632 300.3535401 +22.6593458     432.7298     69.05509      1.369     4.03    -9.216788     19.48254     71.60897         6     1.141     0.407  31.67   0
       204    644.4553    182.4486 300.3290545 +22.6353718     756.3715     69.09026      1.538     2.54    -9.362371     19.48254     79.81906        11     0.962     0.692  65.49   0
       205    839.9216    174.0846 300.3926709 +22.6915098     654.8541     69.16055      1.156     1.88    -9.109013     19.48254      129.974        11     0.884     0.711  45.21   0
       206    570.6663    174.1551 300.3087686 +22.6108828     539.0239     69.05509      1.310     2.90    -9.417765     19.48254     69.16874        11     0.985     0.711  60.94   0
       207    851.9454    173.0592 300.3967516 +22.6948154     439.5933     69.10784      1.302     2.60    -9.081237     19.48254     68.90504         8     0.909     0.566  66.15   0
       208   1012.8489    163.6965 300.4499646 +22.7402939      891.501     69.10784      1.175     2.44    -9.323803     19.48254     145.8899        11     0.957     0.651  72.96   0
       209    968.4363    162.9783 300.4363450 +22.7267929     581.6004     69.07268      1.210     3.05    -9.328758     19.48254     89.39838         9     1.007     0.592  48.77   0
       210    202.9111    156.8537 300.1999764 +22.4956952     368.9225     69.09026      1.290     2.76    -9.169692     19.48254     51.41154         9     0.806     0.723  54.29   0
       211     64.7146    151.2315 300.1588559 +22.4526433     1056.733     69.05509      1.338     2.71    -9.266141     19.48254     127.6987        17     1.056     0.943 -79.29   0
       212    887.4359    147.6569 300.4160586 +22.6981378     245.1889     69.05509      1.020     2.63    -9.041677     19.48254     68.29838         7     0.902     0.526  56.21   0
       213    222.1001    144.6985 300.2098852 +22.4979580     2846.989     69.28338      1.293     2.38    -9.175036     19.48254     402.4509        22     1.100     0.886  58.75   0
       214      6.3278    138.9558 300.1447026 +22.4316099     685.0146     69.03751      1.417     3.38     -9.41357     19.48254     70.87206        12     1.003     0.829  18.03  16
       215    205.4614    135.3613 300.2077422 +22.4902889     176.4255     69.05509      1.021     3.43    -9.201135     19.48254     48.66689         5     0.727     0.476  74.26   0
       216   1020.7886    131.8759 300.4627667 +22.7335178     8892.818     66.43746      1.240     2.10    -9.174549     19.48254     1427.794        39     1.141     0.962  76.75  16
       217    866.0358    125.9863 300.4164183 +22.6854995     1850.362     69.05509      1.328     2.29    -8.901936     19.48254     270.4291        19     1.034     0.869  74.25   0
       218    969.7667    124.6174 300.4492071 +22.7161586     1423.781     69.03751      1.295     2.26    -9.125753     19.48254     216.2047        19     1.003     0.979  64.68   0
       219    415.5370    121.6770 300.2775135 +22.5493244     326.8551     69.12541      1.362     4.07    -9.038958     19.48254     41.21298         6     0.918     0.591  28.89   0
       220    339.7596    113.3046 300.2566565 +22.5242104     501.4005     69.05509      1.864     3.94    -9.053316     19.48254     45.04623         7     1.036     0.665  36.06   0
       221    105.8968    110.4929 300.1848668 +22.4532982     258.9443     69.23076      1.390     4.04    -9.275948     19.48254     38.78041         7     1.077     0.687  57.74   0
       222    466.9032    108.6244 300.2977315 +22.5609660     668.8964     68.96709      1.299     2.55    -9.047072     19.48254     101.2983        13     0.942     0.811  77.37   0
       223    528.6622    107.9894 300.3171598 +22.5792868     250.3788      68.9847      1.241     3.43    -9.096525     19.48254     33.31967         5     0.871     0.471  86.92   0
       224    241.0015     88.5139 300.2339879 +22.4874905     2876.429      68.9847      1.303     2.49    -9.229711     19.48254     396.9543        21     1.072     0.877  77.32   0
       225     91.8775     88.4135 300.1876729 +22.4427562     326.5876     69.07268      1.275     3.37    -9.316143     19.48254     45.06996         8     0.846     0.705  51.20   0
       226    486.9904     73.8728 300.3152558 +22.5569993     3123.923     69.05509      1.312     2.24    -8.911583     19.48254     467.7515        24     1.064     0.949  62.84   0
       227    372.1971     73.6079 300.2796232 +22.5225285     295.3199     68.87897      1.272     3.51    -9.066151     19.48254     46.46856         7     0.940     0.691  64.48   0
       228    739.7096     63.3708 300.3973601 +22.6296724     442.1797     69.01991      1.177     4.06    -8.697556     19.48254     55.45872         9     1.162     0.578  34.16   0
       229    180.1184     57.6231 300.2250810 +22.4603699     259.0768      69.0023      1.481     4.74    -9.301467     19.48254     27.11839         6     0.985     0.646  67.98   0
       230    615.3574     53.8883 300.3617011 +22.5897075     3005.063     69.05509      1.311     2.29    -8.673117     19.48254     415.7469        24     1.062     0.963  72.04   0
       231    390.3340     52.9484 300.2919661 +22.5220280     736.9406     69.09026      1.255     2.32    -9.071059     19.48254     108.3369         9     0.787     0.685  44.17   0
       232    656.8709     51.4534 300.3754196 +22.6014402     475.7285     69.05509      1.443     5.02    -8.678297     19.48254     52.19259        11     1.270     0.692  36.22   0
       233    139.1351     45.1461 300.2163902 +22.4445016     332.5951     69.09026      1.444     3.99     -9.31423     19.48254     42.86524         6     1.084     0.420 -63.54   0
       234    941.8790     44.1658 300.4666079 +22.6846712     343.8595      69.0023      1.420     2.93    -8.910209     19.48254     38.39129         8     0.817     0.657  53.73   0
       235    659.6763     38.6163 300.3804569 +22.5985901     1323.543     69.05509      1.221     2.25    -8.624022     19.48254     198.2599        15     0.950     0.812  86.56   0
       236    300.7812     39.5500 300.2684565 +22.4913441     116.4704     69.05509      1.247     3.49    -9.267011     19.48254     27.86379         5     0.783     0.450  19.37   0
       237    674.5690     37.5028 300.3854567 +22.6027297     545.2934      69.0023      1.547     3.34    -8.621073     19.48254     57.34773        11     1.063     0.707  58.90   0
       238    746.0655     30.3394 300.4100537 +22.6220783     805.5025     69.09026      1.256     2.58    -8.692971     19.48254     114.8545        11     0.942     0.694  67.21   0
       239     62.7714     22.7500 300.1999257 +22.4151781     409.4737     69.07268      1.616     4.62    -9.446884     19.48254     37.64915         7     1.303     0.465  58.33   0
       240    683.9525     23.4342 300.3929422 +22.6014950     357.8116     69.09026      1.329     3.88    -8.556392     19.48254     45.49259         7     0.898     0.683  18.06   0
       241    489.6017     22.7943 300.3326346 +22.5431037     558.9198     68.87897      1.309     2.67    -8.799734     19.48254     67.45204        11     0.901     0.761  47.66   0
       242    393.4979     21.0353 300.3032999 +22.5138072      358.955     69.05509      1.351     4.68    -9.088651     19.48254     53.50204         9     1.153     0.609  80.66   0
       243    289.6505   1019.6709 299.9464874 +22.7692255     501.6417     68.91424      1.293     2.66      -10.903     19.48254      85.9777        13     0.959     0.851 -50.56  16
       244    132.7468   1019.1926 299.8978779 +22.7219629     257.6155     69.05509      1.544     5.27     26.94891     19.48254     29.06521         5     1.183     0.662 -69.58  16
       245    125.2664   1015.1013 299.8968861 +22.7185437     1047.587     69.14298      3.552    11.22     25.56068     19.48254      42.0066        18     2.642     1.327 -60.25  18
       246     97.1110   1022.4073 299.8857604 +22.7121787     2462.117     60.10229      7.821    27.56     28.05137     19.48254     65.82377       196     7.520     2.804   1.88  27
