#   1 NUMBER                 Running object number                                     
#   2 X_IMAGE                Object position along x                                    [pixel]
#   3 Y_IMAGE                Object position along y                                    [pixel]
#   4 ALPHA_J2000            Right ascension of barycenter (J2000)                      [deg]
#   5 DELTA_J2000            Declination of barycenter (J2000)                          [deg]
#   6 FLUX_APER              Flux vector within fixed circular aperture(s)              [count]
#   7 FLUXERR_APER           RMS error vector for aperture flux(es)                     [count]
#   8 FLUX_RADIUS            Fraction-of-light radii                                    [pixel]
#   9 FWHM_IMAGE             FWHM assuming a gaussian core                              [pixel]
#  10 BACKGROUND             Background at centroid position                            [count]
#  11 THRESHOLD              Detection threshold above background                       [count]
#  12 FLUX_MAX               Peak flux above background                                 [count]
#  13 ISOAREA_IMAGE          Isophotal area above Analysis threshold                    [pixel**2]
#  14 A_IMAGE                Profile RMS along major axis                               [pixel]
#  15 B_IMAGE                Profile RMS along minor axis                               [pixel]
#  16 THETA_IMAGE            Position angle (CCW/x)                                     [deg]
#  17 FLAGS                  Extraction flags                                          
         1    790.3713     16.2307 300.4334602 +22.6230725     982.6438     69.30294      1.155     2.21    -8.140677     19.55246     156.2238        14     0.929     0.773  63.72   0
         2    174.0650     11.7224 300.2431423 +22.4371543     396.3279     69.39114      1.239     2.67    -8.614894     19.55246     74.82481         8     0.858     0.661  81.87   0
         3    739.0369      8.9896 300.4198148 +22.6056210     416.9022     69.30294      1.359     4.21    -8.031813     19.55246     50.85077        13     1.016     0.966  30.40   0
         4    965.5181      9.0978 300.4903684 +22.6734462     485.8959     69.44402      1.453     3.17    -9.281084     19.55246     50.40357         8     0.914     0.631 -50.44   0
         5     77.4124    946.1418 299.9095319 +22.6762088     1834.526     69.26762     23.438    45.82    -6.443531     19.55246     57.82103       379     7.807     7.463 -56.73   3
         6    220.3884   1014.5388 299.9316810 +22.7387538     3158.414     69.26762     11.426    29.16     6.824609     19.55246     65.51982       293     5.681     5.075  37.04  19
         7    239.3952   1003.3465 299.9412321 +22.7412548     4409.023     69.28529      9.959    32.88    0.4003504     19.55246     95.75289       516     9.596     4.804  65.69  18
         8     57.6079   1000.4072 299.8857153 +22.6858067      1825.47     69.16158     16.353    29.93    -1.261703     19.55246     45.96642       165     6.609     3.762  25.82  19
         9    175.0036   1019.8678 299.9158435 +22.7266490     1662.735     68.82468      9.296    14.71     13.37373     19.55246     42.09724        38     2.819     2.135 -42.66  27
        10     71.7259    991.0187 299.8931563 +22.6873585     1953.128     69.30294     17.493    19.57     1.368608     19.55246     58.25269        91     4.383     2.428  71.30  19
        11     61.8727    988.1415 299.8910331 +22.6835740     2233.773     69.33823     18.712    22.64    -1.795865     19.55246     51.53867       135     4.972     2.862  80.57  19
        12     76.6875   1017.7737 299.8859858 +22.6965142     2217.846     69.24996     20.019    37.30     8.235277     19.55246     50.50682       275     7.058     5.471  -1.99  27
        13    926.9475    999.1268 300.1566108 +22.9463940     464.9156     69.32059      1.367     2.44    -13.81856     19.55246      75.7263         8     0.802     0.655  40.56   0
        14    108.2917    998.0797 299.9022139 +22.7003663     996.2186     69.40878      8.045     9.64     10.10129     19.55246     37.79899        15     2.342     1.107 -13.59   1
        15    210.5456   1020.2399 299.9267659 +22.7374313     2106.005     68.14588     11.590    18.14     8.932951     19.55246     62.46772        75     3.687     2.480  61.07  27
        16    146.1435    984.7012 299.9183276 +22.7079032     882.0175     69.39114      3.591     7.54     6.771095     19.55246     39.83483        10     1.764     0.901 -82.45   0
        17    734.3516   1016.2973 300.0910073 +22.8935473     271.2077     69.33823      0.927     1.72    -12.80246     19.55246     70.48243         5     0.670     0.429  17.84   0
        18    127.7647    986.5856 299.9120048 +22.7029226     529.6782     69.30294      2.565     3.36     7.188161     19.55246     29.12024         5     0.757     0.431  22.55   1
        19    652.5497    982.6609 300.0764868 +22.8593526     3326.868     69.35587      1.082     1.98      -12.876     19.55246     558.5101        19     0.914     0.824  74.47   0
        20    199.9327   1014.8526 299.9252223 +22.7326998     2745.844     69.32059     11.073    26.03     9.230727     19.55246     84.49041       155     4.558     4.128   0.78  27
        21    561.0736    973.3339 300.0510481 +22.8292258     762.8585     69.33823      1.086     1.63    -12.96463     19.55246      168.533        10     0.806     0.688  80.65   0
        22    105.5434    973.4764 299.9093704 +22.6924913     1020.474     69.33823      7.924     8.21     3.263433     19.55246     43.99646        11     2.589     0.728 -13.84   1
        23     57.7294    972.8747 299.8947168 +22.6779554     1001.348     69.37351     11.282    15.20    -4.812552     19.55246     38.48985        19     3.424     1.876  41.65   3
        24     62.9979    960.7031 299.9003153 +22.6760509      1521.76     69.21462     14.922    18.90    -5.599848     19.55246     43.93826        53     4.435     2.239 -80.77   3
        25    781.4718    971.4504 300.1202886 +22.8948162     6244.646     69.30294      0.994     3.24    -12.83039     19.55246     1920.555        14     1.011     0.492 -68.71   0
        26    110.7582    967.6194 299.9128969 +22.6923796     1169.981     69.32059      9.085    10.92     1.981255     19.55246     44.04182        23     2.885     1.151 -88.91   2
        27    454.8406    969.8913 300.0191140 +22.7963527     438.1207     69.30294      1.048     2.11     -12.8909     19.55246     91.87474         8     0.763     0.625 -48.89   0
        28    385.4238    967.9739 299.9981472 +22.7749640     3316.065     69.26762      1.042     1.78    -12.73076     19.55246     609.6775        23     0.952     0.884 -66.88   0
        29    168.1337   1006.7480 299.9179811 +22.7208260     1300.298     69.33823      6.536    10.07      11.2298     19.55246     39.24013        15     1.915     1.475 -20.62   2
        30    417.9796    954.7687 300.0125715 +22.7809512     235.4171     69.30294      1.081     2.36    -12.66344     19.55246     59.98219         5     0.668     0.628  -2.04   0
        31    165.8783   1003.6017 299.9183049 +22.7192470     1039.789     69.21462      3.170     3.47     10.76297     19.55246     41.25336         5     1.040     0.334  41.41   3
        32    931.5701    946.6389 300.1751426 +22.9327138     1230.607     69.30294      1.107     2.02    -13.16405     19.55246     184.7956        13     1.041     0.698 -48.57   0
        33    720.4522    935.4032 300.1130178 +22.8661672     457.7866     69.30294      1.381     4.92    -12.87818     19.55246     60.12891        10     1.346     0.591  52.78   0
        34     81.7327    979.0540 299.9001594 +22.6869367     2645.559     69.32059     24.489    54.67      1.41787     19.55246     62.40743       765    13.352     6.211  66.19  19
        35    755.3067    929.5884 300.1257670 +22.8749545     443.7658     69.24996      0.937     2.12    -12.86629     19.55246     96.79663         8     0.765     0.631 -78.59   0
        36    777.5614    923.3085 300.1347439 +22.8798279     5798.064     69.30294      0.988     1.60    -12.80196     19.55246     1133.701        22     0.865     0.824  41.86   0
        37     88.8385    915.0379 299.9232047 +22.6707283     461.2794     69.37351      1.349     3.09     -9.95486     19.55246      52.4206        10     0.887     0.740 -15.79   0
        38    482.7862    911.1672 300.0469250 +22.7878998     231.0541     69.30294      0.997     2.37    -12.68643     19.55246     40.83945         6     0.724     0.550 -41.31   0
        39     79.0824    906.8999 299.9228234 +22.6654659     291.8344     69.46163      1.387     3.86    -10.50397     19.55246     43.89495         5     0.803     0.533  39.06   0
        40    786.1062    905.4097 300.1432324 +22.8772540     728.3532     69.24996      1.037     1.81    -12.66093     19.55246     141.9869         8     0.693     0.639 -80.92   0
        41    969.5318    904.2408 300.2007804 +22.9319245     263.1445     69.28529      1.194     4.45    -12.88469     19.55246      37.2782         7     1.135     0.496  87.11   0
        42    824.2335    898.8419 300.1572495 +22.8868043     403.3522     69.35587      1.005     1.77    -12.60565     19.55246     88.24987         6     0.647     0.545 -56.90   0
        43    872.7297    890.0641 300.1752193 +22.8988283     207.8567     69.33823      0.854     1.92    -12.57094     19.55246     82.82421         5     0.741     0.434 -32.60   0
        44    723.9096    889.0119 300.1291958 +22.8538920     391.4642     69.24996      0.945     2.00    -12.66793     19.55246     89.26463         8     0.792     0.594 -49.16   0
        45    436.6203    885.6520 300.0408677 +22.7667260      2023.29     69.28529      1.002     1.68     -12.3851     19.55246     402.4518        14     0.813     0.733 -76.34   0
        46    735.5317    886.0784 300.1337705 +22.8565363     250.2592     69.40878      0.956     2.09    -12.60402     19.55246     63.72572         5     0.696     0.462 -68.88   0
        47    214.6939    874.5496 299.9754815 +22.6969199     277.2006     69.37351      1.232     3.94    -11.44466     19.55246     34.75834         7     0.883     0.634 -69.70   0
        48    161.9189    871.2971 299.9601415 +22.6801404     366.4107     69.44402      1.066     1.88    -11.10581     19.55246     67.49522         7     0.652     0.626  46.56   0
        49    139.0408    868.4476 299.9539613 +22.6724533     689.7689     69.35587      1.045     1.92    -11.38931     19.55246     137.8122        10     0.810     0.691  38.18   0
        50   1010.5850    857.3355 300.2288488 +22.9307634     1051.204     69.28529      1.020     1.76    -12.54704     19.55246     223.5197        13     0.954     0.755  50.04   0
        51    964.9093    855.7057 300.2151368 +22.9166025     830.9916     69.46163      0.935     1.63    -12.44889     19.55246     250.2275        10     0.723     0.637  80.92   0
        52    171.0064    849.8984 299.9699284 +22.6767354     143.7013     69.19695      1.123     3.15    -11.68026     19.55246     42.92509         5     0.796     0.492  62.67   0
        53    748.5931    849.4827 300.1497493 +22.8499510     339.2278     69.23229      0.942     2.71    -12.38049     19.55246     61.42649         5     0.693     0.478 -16.83   0
        54    616.5015    843.6197 300.1105236 +22.8086455     2366.814     69.23229      1.008     1.92    -12.49393     19.55246      418.506        17     0.846     0.782  31.28   0
        55    418.7870    840.8554 300.0498989 +22.7485257     363.0783     69.30294      1.077     1.86     -12.0594     19.55246     85.71455         7     0.696     0.599 -84.66   0
        56    166.7253    837.6447 299.9725854 +22.6719373     705.6718     69.28529      1.042     1.95    -11.72954     19.55246     115.7124        11     0.793     0.732  70.84   0
        57    185.9571    834.7154 299.9795140 +22.6768721     279.4127     69.26762      0.988     2.12    -11.76635     19.55246      58.7295         7     0.699     0.641  -0.33   0
        58    792.5536    823.3894 300.1719352 +22.8556452     1977.093     69.32059      0.973     1.76    -12.24502     19.55246      395.254        16     0.882     0.710 -76.51   0
        59   1009.4960    823.5587 300.2395015 +22.9207368     637.8295     69.30294      1.012     2.13    -12.29763     19.55246     101.7256         7     0.721     0.613  72.97   0
        60    200.8528    817.8633 299.9896257 +22.6765132     253.9052     69.35587      1.151     2.47    -11.84355     19.55246     43.02739         5     0.746     0.492 -44.94   0
        61    509.5219    815.8370 300.0862676 +22.7685774      345.051     69.26762      0.931     1.68    -11.84075     19.55246     62.86469         5     0.650     0.441  60.56   0
        62    155.9515    813.9765 299.9769388 +22.6619174     422.1379     69.30294      1.078     1.87    -11.83953     19.55246     98.45767         9     0.725     0.685 -34.14   0
        63    305.6710    806.1183 300.0260262 +22.7046122      26187.6      69.4264      1.089     1.76    -11.91182     19.55246     5317.499        52     1.017     0.975 -84.45   0
        64    976.2676    804.4081 300.2353715 +22.9052765     460.3843     69.30294      1.213     2.38    -12.14536     19.55246     95.04638         9     0.921     0.639 -76.78   0
        65    563.4999    804.9903 300.1065950 +22.7816605      760.683     69.21462      1.004     1.88    -11.74195     19.55246     146.5441         8     0.682     0.639  74.06   0
        66    233.7469    804.3956 300.0042298 +22.6825275     342.8503     69.28529      1.366     3.52    -11.90016     19.55246      61.5711         6     1.113     0.430 -44.94   0
        67    592.6298    800.8224 300.1170181 +22.7892036     331.3811     69.28529      1.092     2.24    -11.70861     19.55246     79.45893         7     0.777     0.566 -52.59   0
        68    603.4664    799.1639 300.1209310 +22.7919785     297.4028     69.30294      1.057     1.73    -11.71601     19.55246      72.1666         5     0.664     0.463 -67.11   0
        69    708.3652    795.5342 300.1547742 +22.8224013     269.5733     69.30294      1.453     4.17    -12.15486     19.55246      47.5565         6     0.935     0.611  61.75   0
        70    746.4444    785.9966 300.1697377 +22.8310837     453.4389     69.32059      1.079     1.77    -12.06406     19.55246     82.13261         6     0.691     0.495 -84.47   0
        71    355.3519    783.3476 300.0488813 +22.7129932     15396.35     69.33823      1.061     1.84    -11.76279     19.55246      2629.98        39     0.980     0.926  87.08   0
        72    369.5932    783.8882 300.0531340 +22.7174224     979.3788     69.21462      1.076     1.69    -11.73282     19.55246     210.8186        12     0.802     0.706   1.14   0
        73    878.3080    779.0171 300.2130950 +22.8686186     1382.638     69.23229      1.010     1.68    -12.02663     19.55246     324.2308        13     0.767     0.730  81.43   0
        74    366.7156    777.4453 300.0543351 +22.7147108     200.3275     69.28529      1.043     3.42    -11.71992     19.55246     36.91151         5     0.731     0.462 -18.94   0
        75    636.3745    775.0989 300.1390053 +22.7949437     443.4174     69.24996      1.047     2.42    -11.79437     19.55246     90.62991         9     0.927     0.580  69.93   0
        76    237.9574    775.3556 300.0149857 +22.6754647     360.3321     69.39114      1.069     2.73    -11.87459     19.55246     74.72811         8     0.784     0.768  -8.42   0
        77     42.6857    770.8022 299.9558027 +22.6155301     277.1795     69.23229      1.119     3.85    -12.06451     19.55246     47.68827         6     0.779     0.546  57.25   0
        78    483.3626    770.2294 300.0929661 +22.7476437     426.0614     69.32059      0.986     1.92    -11.59433     19.55246     82.82413         6     0.632     0.612 -82.96   0
        79    637.7288    764.2148 300.1429678 +22.7922262     214.0001     69.30294      1.027     2.22    -11.74816     19.55246     47.20525         5     0.722     0.424 -76.81   0
        80     71.1302    764.4423 299.9667050 +22.6222487     298.5228     69.26762      1.336     2.90    -11.93355     19.55246     42.20924         5     0.730     0.462  18.81   0
        81    235.4188    759.2776 300.0194267 +22.6700922     354.2899     69.30294      1.209     2.23    -11.85304     19.55246     49.30536         5     0.700     0.438  65.47   0
        82    559.0407    749.7601 300.1231748 +22.7644745     258.8033     69.37351      1.176     2.23    -11.58933     19.55246     47.05775         5     0.744     0.472  60.30   0
        83    528.2249    748.0568 300.1141384 +22.7547414     379.2665     69.30294      1.203     2.06    -11.57894     19.55246     67.63591         6     0.809     0.440 -53.08   0
        84    550.1797    745.2631 300.1218798 +22.7605259      692.337     69.26762      1.114     2.23     -11.5782     19.55246     119.4823        12     0.881     0.782  26.72   0
        85    944.7819    744.3505 300.2450941 +22.8785901     2214.359     69.30294      1.002     1.55    -11.77689     19.55246     508.7803        17     0.827     0.759  24.65   0
        86    933.1505    735.7244 300.2442739 +22.8726262      746.624     69.30294      1.017     1.65    -11.71902     19.55246     183.3077         9     0.796     0.601 -31.92   0
        87    296.3570    729.9182 300.0479181 +22.6799631     411.8011     69.26762      1.105     2.33    -11.74691     19.55246     67.17511         7     0.716     0.624  78.28   0
        88    759.4792    726.9932 300.1929924 +22.8180536     1185.036     69.23229      0.974     1.71    -11.57614     19.55246     245.7531        10     0.777     0.629 -29.78   0
        89    964.3701    725.9202 300.2571965 +22.8791677     764.6774     69.30294      0.970     1.65    -11.72453     19.55246     179.1196         7     0.660     0.567  81.01   0
        90    144.7938    713.7621 300.0060698 +22.6298361     155.9947     69.33823      1.111     2.78    -11.64415     19.55246     47.44632         7     0.757     0.743 -62.97   0
        91    841.5031    712.4127 300.2232910 +22.8384589     297.5315     69.19695      0.974     2.66    -11.54091     19.55246     55.46576         5     0.698     0.467  69.88   0
        92    877.9575    703.9265 300.2374123 +22.8469498      72613.8     69.28529      1.083     1.61    -11.54721     19.55246     18180.48       100     1.118     1.026  87.56   0
        93    730.3500    704.2155 300.1913272 +22.8027797      450.183     69.32059      1.187     2.78     -11.5864     19.55246     76.29849         7     0.892     0.646 -23.47   0
        94    564.2246    692.8141 300.1433098 +22.7496868     712.6266     69.32059      1.102     1.91    -11.19495     19.55246     164.1801        11     0.900     0.650  86.87   0
        95    745.4620    690.0952 300.2006267 +22.8032568     4545.586     69.39114      1.036     1.82    -11.55989     19.55246     810.6903        21     0.875     0.814  69.02   0
        96    247.0848    685.4780 300.0470543 +22.6524292     2515.066     69.40878      1.104     1.81    -11.63498     19.55246     446.3817        19     1.001     0.787  78.66   0
        97    329.0421    683.7906 300.0730813 +22.6765407     620.0376     69.30294      1.127     2.24    -11.28808     19.55246     115.9479         9     0.785     0.679  59.71   0
        98    537.4355    678.7353 300.1395506 +22.7376109      433.079     69.30294      1.338     2.66    -10.95612     19.55246     67.82169         8     0.803     0.714   0.10   0
        99    528.9603    671.0956 300.1393974 +22.7328762     1716.749     69.28529      1.176     1.87     -10.8769     19.55246     325.9622        14     0.842     0.787 -41.78   0
       100    519.2155    664.9669 300.1383577 +22.7281943     762.8029     69.28529      1.162     2.00    -10.83078     19.55246     142.7634        11     0.801     0.754 -69.09   0
       101    182.5220    661.2393 300.0348713 +22.6260999     300.6306     69.28529      1.094     2.71    -11.45182     19.55246     72.65537         7     0.912     0.473 -78.12   0
       102    197.0276    659.4609 300.0399570 +22.6299436     324.0528     69.30294      1.015     1.79    -11.50443     19.55246     72.35982         5     0.659     0.453  25.78   0
       103    965.8852    655.6985 300.2805071 +22.8594500     246.6699     69.46163      0.939     1.88    -11.46551     19.55246     69.45635         6     0.680     0.539  64.69   0
       104    222.5082    656.0570 300.0489823 +22.6366149     346.9353     69.35587      1.152     3.20    -11.59074     19.55246     59.19588         9     0.976     0.622 -40.13   0
       105    443.9274    654.4706 300.1183456 +22.7025979     840.8073     69.37351      1.087     2.05    -10.82809     19.55246     149.8535        11     0.817     0.716 -87.33   0
       106     98.0231    649.7274 300.0123626 +22.5974346     9536.857     69.33823      1.175     1.93    -11.59735     19.55246     1696.398        37     1.113     0.950  86.75   0
       107   1019.5183    651.7650 300.2985109 +22.8743913      419.273     69.26762      0.980     1.90    -11.44496     19.55246     92.11414         5     0.671     0.491 -78.43  16
       108     18.8807    650.9924 299.9873726 +22.5740376     307.0455     69.23229      1.196     2.23     -11.6676     19.55246     59.43604         8     0.784     0.632 -61.64   0
       109    528.9009    649.8198 300.1462970 +22.7267521     421.7575     69.23229      1.036     1.77    -10.70697     19.55246     119.3803         7     0.654     0.626 -67.51   0
       110    946.8561    635.8060 300.2810425 +22.8480327     565.8363     69.28529      1.154     2.41    -11.32432     19.55246     94.10777        10     0.892     0.669 -71.17   0
       111     43.9876    633.6677 300.0008013 +22.5766082     747.2636     69.30294      1.629     5.64    -11.54369     19.55246     72.46753        17     1.504     0.757 -86.11   0
       112    887.1449    628.6567 300.2647530 +22.8280843     368.3146     69.35587      1.125     2.24    -11.21152     19.55246     71.45565         7     0.765     0.592  29.92   0
       113    449.0014    622.4756 300.1303266 +22.6949385     355.6539     69.19695      1.056     3.51    -10.62462     19.55246     62.67797         9     0.984     0.663 -88.36   0
       114    597.1835    621.2673 300.1768334 +22.7390347     185.1387     69.30294      0.993     2.91    -10.50223     19.55246      49.9183         5     0.911     0.382 -85.87   0
       115    614.7375    619.3887 300.1829089 +22.7437593     384.8784     69.24996      1.303     2.95    -10.48843     19.55246     49.94786         5     0.700     0.486  -4.61   0
       116    493.3860    618.4679 300.1454388 +22.7071015     551.7641     69.32059      1.470     2.63    -10.50823     19.55246     62.59307        10     0.866     0.749  38.84   0
       117    458.7822    614.2856 300.1360320 +22.6955219     893.1171     69.24996      1.234     2.14    -10.55267     19.55246       151.06        14     0.952     0.839 -78.36   0
       118    926.8630    613.8296 300.2819547 +22.8357279     1489.898     69.32059      1.081     1.85     -11.1634     19.55246     351.8549        13     0.873     0.707  79.32   0
       119     20.7546    607.8778 300.0019705 +22.5622389     2555.483     69.28529      1.208     2.03    -11.39891     19.55246     433.4059        21     0.996     0.902  35.00   0
       120    322.1402    600.8337 300.0979067 +22.6506703     4343.339     69.33823      1.188     2.03    -10.83495     19.55246     764.9296        24     0.985     0.885  84.17   0
       121    444.5811    597.8877 300.1369447 +22.6865561     4238.347     69.24996      1.139     1.92    -10.48451     19.55246     782.2408        23     0.945     0.895  88.00   0
       122    856.1928    591.6246 300.2671457 +22.8081703     915.5963     69.28529      1.139     2.10    -11.03345     19.55246     171.5293        14     0.965     0.739  85.51   0
       123    940.8378    589.0615 300.2943638 +22.8327997     6076.876     69.32059      1.073     1.72    -11.12087     19.55246     1384.419        22     0.872     0.816  59.32   0
       124    505.2197    587.4650 300.1591995 +22.7017521     5685.189     69.28529      1.135     2.03    -10.33051     19.55246      880.449        28     0.998     0.932 -80.32   0
       125    674.5732    582.8536 300.2134169 +22.7512103     186.5694     69.32059      1.098     3.12    -10.34678     19.55246     54.13199         6     0.946     0.485  83.10   0
       126    232.7710    582.8818 300.0759603 +22.6187049     586.9843     69.32059      1.100     2.00    -11.04767     19.55246     121.2651         8     0.714     0.656 -62.07   0
       127    436.8423    575.6872 300.1417536 +22.6778634     2180.816     69.30294      1.127     1.81    -10.35303     19.55246     409.8166        19     0.936     0.847 -86.31   0
       128    779.5626    575.3326 300.2485637 +22.7805232     259.4953     69.28529      1.065     2.47    -10.67178     19.55246     65.51407         7     0.767     0.607  -4.90   0
       129    415.2896    574.1748 300.1355409 +22.6709646     556.8361     69.24996      1.091     2.54    -10.37492     19.55246     97.54749        10     0.888     0.735  17.35   0
       130    169.3755    573.7476 300.0592283 +22.5970606     454.0045     69.32059      1.384     2.80    -11.30093     19.55246     56.46029         8     0.910     0.610 -84.40   0
       131    856.6542    570.7298 300.2740819 +22.8023063     843.3078     69.33823      1.254     2.95    -10.97794     19.55246     116.0456        12     0.980     0.716 -57.62   0
       132    377.2754    569.1607 300.1253471 +22.6581227      192.825     69.26762      1.137     2.37    -10.61137     19.55246     37.60342         5     0.811     0.637  36.55   0
       133    737.0712    567.8947 300.2377444 +22.7656502     248.5131     69.40878      1.017     1.98     -10.5291     19.55246      75.2534         7     0.780     0.523 -51.36   0
       134    553.4643    563.1922 300.1821035 +22.7092523     100952.4     69.28529      1.160     2.03    -10.22997     19.55246     15987.09       122     1.227     1.178 -54.24   0
       135    239.5753    563.1656 300.0844834 +22.6150904     1645.923     69.32059      1.178     2.14    -10.89244     19.55246      250.492        17     0.959     0.819  76.36   0
       136    805.3981    559.2200 300.2618506 +22.7836386     279.4675     69.23229      1.301     2.06    -10.61726     19.55246     46.42284         5     0.683     0.456  69.46   0
       137    444.0859    543.6157 300.1544310 +22.6708309     1249.038     69.26762      1.220     2.19    -10.14499     19.55246     201.1981        15     1.056     0.736 -86.76   0
       138    840.9582    529.5375 300.2825790 +22.7857688     778.1667     69.28529      1.015     1.81    -10.70106     19.55246      157.641        10     0.786     0.653  83.43   0
       139    712.2132    527.2734 300.2432045 +22.7465324     1258.048     69.32059      1.168     2.26    -10.32898     19.55246       195.75        16     0.933     0.819 -22.18   0
       140    499.4101    523.0919 300.1783142 +22.6815311     282.7767     69.24996      1.085     3.03    -10.14803     19.55246     51.49459         6     0.770     0.642  63.73   0
       141    969.5682    521.1687 300.3253897 +22.8218994      638.905     69.32059      1.264     2.27    -10.89712     19.55246     102.3408        10     0.824     0.708  72.40   0
       142    841.3252    519.9455 300.2858108 +22.7831231     1117.399     69.33823      1.168     2.02    -10.64465     19.55246      180.653        14     0.910     0.747 -66.57   0
       143    955.1851    519.8635 300.3213292 +22.8172153     357.1005     69.26762      1.312     2.24     -10.8977     19.55246      87.8092         7     0.852     0.517 -29.69   0
       144    594.3198    517.8403 300.2095602 +22.7084813     319.7802     69.26762      1.276     2.12    -10.25206     19.55246     51.39799         6     0.715     0.536 -33.48   0
       145    879.3913    514.6205 300.2994051 +22.7929997     2066.914     69.28529      1.056     1.98    -10.75376     19.55246     363.9748        18     0.961     0.760 -89.31   0
       146    971.1110    504.9910 300.3311283 +22.8177124     466.4901     69.23229      1.115     2.36    -10.78318     19.55246     95.82081         8     0.805     0.718 -59.06   0
       147    111.6311    504.9857 300.0636340 +22.5600079     446.5985     69.30294      1.107     2.54    -11.21314     19.55246     77.45757         8     0.883     0.583  83.31   0
       148    652.9910    485.1131 300.2384619 +22.7166718     441.7908     69.23229      1.353     4.30    -10.31779     19.55246     58.77823        10     1.168     0.764  49.04   0
       149    967.4850    477.3489 300.3389802 +22.8086821     374.5524     69.28529      1.084     2.74    -10.61033     19.55246     60.72761         7     0.892     0.545  62.41   0
       150    713.5016    477.3551 300.2598271 +22.7325808     351.8665     69.30294      1.118     2.45     -10.3404     19.55246     67.79737         9     0.804     0.738 -72.82   0
       151    870.9311    473.6064 300.3100960 +22.7786801     396.5231     69.26762      1.066     1.71    -10.46416     19.55246      108.104         7     0.664     0.587   0.33   0
       152    855.4234    470.2177 300.3063637 +22.7730600     249.8105     69.28529      1.015     1.77    -10.44365     19.55246     59.40753         5     0.621     0.490  80.45   0
       153    599.4756    468.0875 300.2273319 +22.6957401     1528.661      69.4264      1.192     2.37    -10.23459     19.55246     218.2337        17     1.005     0.813  78.63   0
       154   1010.6883    446.8871 300.3623503 +22.8128675     552.5868     69.46163      1.040     1.77    -10.56326     19.55246     130.4417         9     0.764     0.637 -22.54   0
       155    969.0075    445.5845 300.3497757 +22.8000086     460.1361     69.23229      1.010     1.90    -10.58805     19.55246     111.5038         8     0.740     0.617 -65.57   0
       156    506.3562    443.0075 300.2064967 +22.6606211     201.6886     69.32059      1.304     3.53     -10.0606     19.55246      44.1711         5     1.013     0.412  24.93   0
       157    710.0254    442.0233 300.2702237 +22.7213898     469.9361     69.26762      1.208     2.51    -10.36289     19.55246     71.11265         9     0.777     0.707  31.63   0
       158    276.4321    436.0642 300.1372389 +22.5896769     1818.671     69.30294      1.213     2.22    -10.26976     19.55246     267.1965        19     1.071     0.818  87.72   0
       159   1009.3109    434.2334 300.3660318 +22.8088177     2169.174     69.26762      1.058     1.83     -10.5459     19.55246     418.9211        14     0.843     0.735  72.64   0
       160    223.6328    430.8819 300.1225103 +22.5723517     3605.593     69.28529      1.222     2.19    -10.33995     19.55246     578.2444        23     1.025     0.885  87.88   0
       161    364.4411    425.1015 300.1681650 +22.6129262     2383.137     69.28529      1.173     2.08    -10.22517     19.55246     368.2315        18     0.983     0.844  80.62   0
       162    989.3851    425.1843 300.3627576 +22.8002485     800.7103     69.26762      1.063     1.97    -10.55304     19.55246       156.51        10     0.796     0.652 -30.43   0
       163    608.5298    421.6552 300.2452353 +22.6851191     9157.199     69.32059      1.196     2.15    -10.19054     19.55246     1446.837        33     1.061     0.990 -85.41   0
       164    626.3463    421.6145 300.2507955 +22.6904477     497.0081     69.32059      1.879     4.89    -10.22126     19.55246     34.48012         8     1.421     0.476 -39.79   0
       165    941.8999    404.3244 300.3547275 +22.7800297     411.0001      69.4264      0.973     1.96    -10.56247     19.55246     84.99522         7     0.776     0.527  36.99   0
       166    163.3091    401.8509 300.1131935 +22.5459247     902.1467     69.33823      1.163     2.34    -10.58755     19.55246     139.4653        13     0.910     0.816  72.15   0
       167    549.1926    391.1248 300.2366813 +22.6585641     3250.369     69.24996      1.227     2.25    -9.807143     19.55246     476.1286        23     1.015     0.919  73.83   0
       168    962.7870    391.3554 300.3654527 +22.7825579     625.2341     69.30294      1.009     1.93    -10.53217     19.55246     104.1981         7     0.654     0.605 -51.09   0
       169    264.5085    390.5724 300.1483085 +22.5730442     316.1407     69.28529      1.234     2.75    -10.23333     19.55246     63.13672         6     0.841     0.499 -87.39   0
       170    121.6525    383.9090 300.1060781 +22.5282794     261.5157     69.35587      1.134     3.33    -10.57656     19.55246     47.68087         7     0.852     0.616  10.11   0
       171    662.7728    381.2661 300.2752436 +22.6897751     346.9981     69.28529      1.701     2.86     -10.0417     19.55246     36.77973         6     0.721     0.622  57.07   0
       172    753.5305    379.9667 300.3039335 +22.7165980     627.5193     69.28529      1.310     2.52    -10.18715     19.55246     87.98232        10     0.895     0.704  48.64   0
       173    455.8784    377.4378 300.2120887 +22.6266595     2973.432     69.28529      1.240     2.18    -9.926718     19.55246     466.4348        22     1.002     0.917  66.35   0
       174    847.8643    371.6946 300.3360136 +22.7424832     717.4747     69.39114      1.133     2.02    -10.35032     19.55246     128.7953         9     0.878     0.639 -75.01   0
       175    945.1451    371.6039 300.3663674 +22.7715963     223.0829     69.26762      1.036     2.60     -10.4784     19.55246     47.49689         5     0.712     0.459 -18.18   0
       176    343.4163    356.6615 300.1838550 +22.5869741     1365.029     69.24996      1.304     2.37     -10.2368     19.55246      198.175        14     0.942     0.800 -54.77   0
       177     61.8113    354.1820 300.0971434 +22.5017966     391.5447     69.26762      1.201     2.15    -10.34669     19.55246     92.36301         8     0.844     0.557  79.49   0
       178    312.7157    346.1392 300.1777256 +22.5747472     14528.44     69.40878      1.282     2.24    -10.19201     19.55246     2131.813        42     1.121     1.035 -87.14   0
       179    847.3134    343.5320 300.3449882 +22.7342241     471.9857     69.40878      1.018     2.12    -10.24378     19.55246     106.5203         9     0.816     0.644  41.45   0
       180      9.0677    334.0638 300.0872962 +22.4801998     2204.606     69.35587      1.219     2.16    -10.04597     19.55246     385.4466        20     1.041     0.863  68.53   0
       181    762.6674    332.8304 300.3220880 +22.7057910     322.0978     69.28529      1.394     4.14    -9.968855     19.55246     47.43162         7     0.976     0.642  83.94   0
       182    187.0404    332.3292 300.1431445 +22.5330923     223.5098     69.26762      1.212     3.79    -10.16625     19.55246     37.36471         5     0.842     0.489  47.62   0
       183    410.9428    331.3347 300.2130811 +22.5999491     274.7722     69.35587      1.262     3.49    -9.819469     19.55246     42.85363         5     0.804     0.437 -15.22   0
       184    723.1151    325.6949 300.3120839 +22.6918905     979.8226     69.47924      1.239     2.52    -9.913007     19.55246     120.8188        13     0.934     0.780  83.27   0
       185    385.1368    310.4050 300.2118500 +22.5862024     1180.188     69.26762      1.557     3.47    -9.844993     19.55246     126.9522        16     1.181     0.940 -66.15   0
       186    460.6772    289.6794 300.2420781 +22.6028960      616.421     69.40878      1.450     2.64    -9.410608     19.55246     90.94555        11     0.943     0.739  77.26   0
       187    705.5618    281.3976 300.3209992 +22.6739023     998.7424     69.32059      1.183     2.16    -9.830801     19.55246     179.3183        15     0.954     0.831  68.28   0
       188    966.7515    275.7532 300.4042295 +22.7505103     1521.054     69.32059      1.171     1.98    -9.798108     19.55246     294.1607        15     0.945     0.762 -73.98   0
       189    413.6549    265.3564 300.2353455 +22.5818152     289.4946     69.30294      1.088     2.43    -9.431508     19.55246      57.0937         5     0.699     0.462 -77.68   0
       190    119.5173    259.5892 300.1457787 +22.4919628     194.1479     69.26762      1.119     3.60    -9.999479     19.55246     42.43102         6     0.931     0.402  69.28   0
       191     88.9183    259.6786 300.1362441 +22.4828106     649.4562      69.4264      1.431     3.24    -10.00292     19.55246     83.72452        10     1.027     0.725 -56.33   0
       192    982.5711    256.3585 300.4154590 +22.7496702     180.0054     69.32059      1.099     3.05    -9.577596     19.55246     50.03889         8     0.899     0.649 -88.45   0
       193    172.5749    251.4875 300.1648939 +22.5055502     311.9201     69.24996      1.177     4.85    -9.959981     19.55246     40.46222         7     1.015     0.656  44.01   0
       194    777.1628    242.9484 300.3557858 +22.6843011     264.1898     69.32059      1.229     2.16    -9.666627     19.55246     52.96938         5     0.747     0.472  40.20   0
       195    875.2682    232.0302 300.3899025 +22.7105447     989.9722     69.28529      1.158     1.98    -9.559916     19.55246      171.618        12     0.830     0.765  87.72   0
       196    293.8671    229.4204 300.2097572 +22.5355848       1083.3     69.28529      1.336     2.38    -9.700844     19.55246     142.5191        15     0.970     0.829  82.89   0
       197    371.7804    224.6484 300.2355341 +22.5575718     477.5554     69.32059      1.259     3.12    -9.365915     19.55246     63.96997         9     0.877     0.712  78.13   0
       198    188.6252    216.7426 300.1811585 +22.5003893     394.4302     69.30294      1.311     2.55    -9.844383     19.55246     46.42001         6     0.683     0.624 -25.91   0
       199    726.3216    213.4477 300.3495227 +22.6605930     956.8372     69.30294      1.312     2.37    -9.632823     19.55246     117.1807        14     0.925     0.840  24.98   0
       200    791.5246    213.1950 300.3699182 +22.6800501     392.6646     69.21462      1.445     2.05    -9.477856     19.55246     45.83433         5     0.679     0.463 -67.77   0
       201    997.9152    205.6719 300.4366970 +22.7396878     448.3401     69.40878      1.147     2.30    -9.210019     19.55246     95.67765         7     0.769     0.638 -63.15   0
       202    730.4174    204.9252 300.3535646 +22.6593703     407.9874     69.30294      1.336     2.99    -9.581331     19.55246     57.43818         9     0.894     0.738 -77.05   0
       203    650.7183    204.1414 300.3289968 +22.6352705       633.95     69.35587      1.399     3.71    -9.367517     19.55246     68.53827        13     1.145     0.804  42.52   0
       204    846.3784    195.7395 300.3926771 +22.6914595     675.1945     69.26762      1.170     2.32    -9.432511     19.55246     105.1091        11     0.937     0.664  38.54   0
       205    577.2395    195.9972 300.3087626 +22.6109158     472.2973     69.33823      1.226     2.39    -9.253161     19.55246     72.90202        10     0.848     0.714   3.67   0
       206    858.6292    194.5624 300.3968773 +22.6947896     528.9865     69.32059      1.406     3.26    -9.440824     19.55246     56.17148         9     0.903     0.693 -25.97   0
       207   1019.1580    185.3621 300.4499137 +22.7402057     797.5385     69.39114      1.093     2.05    -9.036439     19.55246     135.7466        10     0.798     0.675  88.83  16
       208    975.0714    185.0603 300.4362626 +22.7269213      488.794     69.33823      1.094     1.95    -9.205986     19.55246     123.5105         8     0.761     0.614 -53.52   0
       209    209.2617    178.0840 300.2001172 +22.4954782     334.1987     69.39114      1.297     3.45    -9.622484     19.55246     52.91096         8     0.953     0.640 -80.88   0
       210     71.1819    173.1817 300.1588059 +22.4526653     1050.556     69.30294      1.230     2.43    -9.601418     19.55246     151.2429        15     0.953     0.811  65.65   0
       211    894.0643    169.5162 300.4160507 +22.6981983      372.215     69.40878      1.125     2.58    -9.368746     19.55246     68.31854        10     0.959     0.627  64.88   0
       212    228.6676    166.3984 300.2099406 +22.4979412     2872.987     69.26762      1.261     2.31    -9.502276     19.55246     394.0398        22     1.038     0.937  70.70   0
       213     12.6795    160.8510 300.1446376 +22.4315801     549.6919     69.30294      1.232     2.15    -9.278133     19.55246     97.00578         9     0.796     0.671 -23.69   0
       214    211.8987    157.2178 300.2077074 +22.4902777     293.6461     69.21462      1.231     3.48    -9.509541     19.55246     55.52353         7     0.925     0.625 -13.96   0
       215    976.1574    146.4340 300.4491359 +22.7161371     1343.233     69.35587      1.154     2.00    -9.101909     19.55246      228.688        17     1.010     0.790  85.77   0
       216    872.4686    147.6722 300.4164073 +22.6854509     1614.677     69.37351      1.108     2.09     -9.35214     19.55246     258.7986        16     0.884     0.861   8.68   0
       217    422.1914    143.4829 300.2775533 +22.5493677     317.6027     69.24996      1.233     2.98     -8.95757     19.55246     46.22633         5     0.745     0.436 -23.86   0
       218    346.2046    134.7116 300.2567644 +22.5240748     399.9511     69.21462      1.097     2.91    -9.034987     19.55246      53.2672         5     0.908     0.397  84.90   0
       219    112.4442    132.2377 300.1849078 +22.4532856     365.5317     69.37351      1.331     2.84    -9.532829     19.55246     42.16084         5     0.708     0.481  76.08   0
       220    473.2464    130.4301 300.2976727 +22.5609169     851.0061     69.32059      1.373     2.58    -9.093022     19.55246     125.9593        14     0.961     0.864  70.29   0
       221    761.9652    119.7723 300.3910243 +22.6443401     280.7753     69.32059      1.395     4.04    -8.914946     19.55246     30.16036         5     1.003     0.534  34.45   0
       222    247.4755    110.2796 300.2339937 +22.4874644     3107.367     69.40878      1.258     2.32    -9.316117     19.55246     365.1744        21     1.058     0.886  79.21   0
       223     98.7452    109.7423 300.1879496 +22.4427198     295.1893     69.35587      1.226     3.69     -9.42911     19.55246     49.15982         7     0.983     0.544  71.16   0
       224    493.4637     95.5449 300.3152811 +22.5569509      2942.05     69.35587      1.263     2.42    -9.035159     19.55246     395.0583        23     1.070     0.931  86.65   0
       225    378.9058     95.2891 300.2797239 +22.5225510     200.5078     69.47924      1.281     3.84    -8.984792     19.55246     43.88602         7     0.851     0.710  40.42   0
       226    746.0176     85.0011 300.3973362 +22.6295675     426.4152     69.21462      1.217     2.99    -8.631568     19.55246     61.85754         8     0.847     0.618  39.09   0
       227    186.4708     79.4693 300.2250268 +22.4603290     253.0517     69.33823      1.626     3.72    -9.189202     19.55246     34.58499         6     0.925     0.429 -71.88   0
       228    621.7985     75.5142 300.3617260 +22.5896385     2910.469     69.23229      1.258     2.35    -8.621058     19.55246     423.7913        20     1.034     0.884  75.04   0
       229    396.8375     74.6809 300.2919862 +22.5220039     715.5844     69.26762      1.249     2.95     -9.05056     19.55246     102.1237        13     1.063     0.778 -84.57   0
       230    662.9834     72.9731 300.3753749 +22.6012432     434.5872     69.32059      1.108     2.77     -8.53489     19.55246     76.02327         9     0.896     0.679 -11.64   0
       231    678.5331     68.8063 300.3815690 +22.6047022     250.8362     69.30294      1.253     2.29    -8.487076     19.55246     48.83009         5     0.770     0.645  29.21   0
       232    145.6150     67.2560 300.2162923 +22.4445737     370.3935     69.28529      1.347     3.62    -9.145348     19.55246     47.44267         7     0.938     0.487 -89.50   0
       233    666.0472     60.3752 300.3804152 +22.5985391     1415.261     69.32059      1.321     2.40    -8.409652     19.55246     185.5697        16     0.967     0.863  56.96   0
       234    680.9591     59.0147 300.3855005 +22.6026138     460.5437     69.32059      1.809     3.46    -8.398138     19.55246      64.2352         8     1.184     0.490  67.28   0
       235    752.1976     51.8460 300.4100159 +22.6218850     763.7365     69.30294      1.234     2.64    -8.378138     19.55246     101.6674        13     0.938     0.806 -47.63   0
       236    690.4512     45.1556 300.3929519 +22.6014718     327.4221     69.33823      1.271     3.49    -8.279447     19.55246     43.92583         8     0.880     0.650  34.91   0
       237    496.2546     44.6409 300.3326606 +22.5431589     462.3567     69.26762      1.232     2.47    -9.066908     19.55246     60.00453         9     0.837     0.663  66.24   0
       238     68.7952     44.4456 300.1998248 +22.4149927     217.0214     69.30294      0.979     3.43    -9.394411     19.55246     35.62808         5     1.039     0.327  22.29   0
       239    400.1929     42.7858 300.3033747 +22.5138454     407.7775     69.19695      1.377     3.37    -9.177149     19.55246     53.18135        11     0.913     0.834  52.92   0
       240    171.4010     32.8298 300.2354698 +22.4424177     1963.715     69.26762      1.282     2.37    -8.794901     19.55246     269.6504        18     1.021     0.844 -86.29   0
       241    739.2274     33.0835 300.4120605 +22.6126063      205.061     69.30294      1.252     3.99    -8.220864     19.55246     36.46492         6     0.907     0.502  55.89   0
       242    732.6751     24.9542 300.4126557 +22.6083069     431.6543     69.30294      1.301     2.45    -8.151533     19.55246     63.09809         7     0.698     0.664  70.74   0
       243    287.5679     24.4762 300.2742874 +22.4748362     578.0324     69.30294      1.349     4.79    -9.323789     19.55246     81.14229        12     1.347     0.678 -66.27   0
       244    770.3975     20.2256 300.4259413 +22.6182415     327.9784     69.24996      1.479     3.98    -8.149505     19.55246     42.98164         5     0.945     0.481  83.47   0
       245    693.9935     19.9026 300.4022452 +22.5952719     230.5247     69.21462      1.107     3.39    -8.064694     19.55246     41.37208         5     0.671     0.550 -89.76   0
       246    547.7172   1020.4693 300.0315430 +22.8387353     1066.668     67.65944      1.032     1.89    -13.09507     19.55246     207.6933        12     0.877     0.692  89.97  16
       247    497.0977     14.6625 300.3426450 +22.5347958     237.6921     69.39114      1.346     3.41    -9.086036     19.55246     31.06183         5     0.799     0.422 -18.38   0
       248    634.2267   1015.5607 300.0600689 +22.8632915     4091.704     69.32059      1.032     1.65    -12.92167     19.55246     746.1418        23     0.966     0.839  23.79   2
       249    639.8038   1013.2681 300.0625518 +22.8643075     4357.447     69.28529      1.036     1.64    -12.90337     19.55246     981.6443        23     0.869     0.841  37.32   2
