#   1 NUMBER                 Running object number                                     
#   2 X_IMAGE                Object position along x                                    [pixel]
#   3 Y_IMAGE                Object position along y                                    [pixel]
#   4 ALPHA_J2000            Right ascension of barycenter (J2000)                      [deg]
#   5 DELTA_J2000            Declination of barycenter (J2000)                          [deg]
#   6 FLUX_APER              Flux vector within fixed circular aperture(s)              [count]
#   7 FLUXERR_APER           RMS error vector for aperture flux(es)                     [count]
#   8 FLUX_RADIUS            Fraction-of-light radii                                    [pixel]
#   9 FWHM_IMAGE             FWHM assuming a gaussian core                              [pixel]
#  10 BACKGROUND             Background at centroid position                            [count]
#  11 THRESHOLD              Detection threshold above background                       [count]
#  12 FLUX_MAX               Peak flux above background                                 [count]
#  13 ISOAREA_IMAGE          Isophotal area above Analysis threshold                    [pixel**2]
#  14 A_IMAGE                Profile RMS along major axis                               [pixel]
#  15 B_IMAGE                Profile RMS along minor axis                               [pixel]
#  16 THETA_IMAGE            Position angle (CCW/x)                                     [deg]
#  17 FLAGS                  Extraction flags                                          
         1    121.8902     14.1566 300.2568594 +22.4138582     612.5002     69.52047      1.392     3.09    -8.800057     19.61384     71.67944        10     0.975     0.690 -46.24   0
         2    899.0107   1009.8793 300.1752871 +22.9326779     932.1941     69.50275      1.395     3.30    -13.01697     19.61384     110.9118        16     1.039     0.954 -76.05   0
         3     68.5023   1021.7295 299.9129871 +22.6868115       1067.1     63.58272     10.946    14.70    -8.207587     19.61384     38.51091        34     4.090     1.470  41.65  27
         4     31.9708   1022.0313 299.9015426 +22.6759240     1489.977     62.19287      9.055     1.32    -9.437212     19.61384     206.9012        38     2.385     2.126  79.23  27
         5     46.8992   1022.9232 299.9058886 +22.6806640     1101.438     58.18404     11.486    15.36    -8.903002     19.61384     44.87348        60     5.930     1.106  -0.26  27
         6     60.0744   1020.2443 299.9108527 +22.6838544     1260.225     68.32375      5.181     9.06    -8.587402     19.61384     55.86195        22     1.973     1.169  40.17  19
         7     48.2635   1000.6575 299.9135596 +22.6746959     1797.441     69.57357     18.415    30.77    -9.662962     19.61384     50.73704       120     7.146     3.678  32.42  19
         8   1014.6130    997.8206 300.2152616 +22.9638789     296.8695     69.48505      1.729     6.74    -13.95673     19.61384     26.98103         8     1.407     0.906 -34.04  16
         9     45.1351   1012.7527 299.9086512 +22.6772209      2126.58     69.55588     12.413    33.36    -9.320168     19.61384     55.52502       199     7.072     4.369  39.72  19
        10    499.8271    994.4254 300.0559789 +22.8084915     268.5653     69.48505      1.280     4.69    -12.34136     19.61384     35.62039         6     1.073     0.581  24.29   0
        11    722.8117    993.1583 300.1258204 +22.8750334     507.2361     69.52047      1.278     2.50    -12.92047     19.61384     85.77029        11     0.890     0.767 -59.38   0
        12    744.8195    986.8019 300.1347456 +22.8798114     5765.572      69.4496      1.360     2.70    -13.08828     19.61384     657.7811        32     1.110     1.071  27.86   0
        13    687.8318    998.7211 300.1131137 +22.8661356     436.2843     69.50275      1.814     4.35    -12.42786     19.61384     34.65155         7     0.919     0.704  -0.48   0
        14    753.3712    968.8463 300.1432543 +22.8772249     724.3965     69.55588      1.473     3.24    -13.03177     19.61384     91.09824        12     1.088     0.704 -13.24   0
        15    791.3645    962.4948 300.1571597 +22.8867978     445.0475     69.52047      1.377     4.10    -13.01947     19.61384     51.27489         9     1.001     0.660  58.76   0
        16    839.9243    953.5384 300.1752082 +22.8987906     362.0919     69.57357      1.580     3.77    -13.03313     19.61384     44.72027         6     0.836     0.489  -8.31   0
        17    691.0847    952.3074 300.1292339 +22.8537967     221.2614     69.69732      1.119     2.71    -12.43896     19.61384     48.01138         7     0.726     0.650 -16.25   0
        18    702.4201    949.7497 300.1335971 +22.8564631      269.487     69.50275      1.024     3.39    -12.56474     19.61384     51.95252         5     0.811     0.410 -66.90   0
        19    403.8618    949.0951 300.0408732 +22.7666924     2087.396     69.60895      1.330     2.78     -12.2821     19.61384     265.1806        21     1.110     0.930  47.40   0
        20    128.9656    934.7767 299.9600691 +22.6800592     415.3642     69.53817      1.358     3.17    -11.95161     19.61384     49.65197         8     0.893     0.619  -4.49   0
        21    106.3148    931.7877 299.9540043 +22.6724006     918.0517     69.46732      1.480     2.96    -12.10316     19.61384     111.7213        16     1.033     0.941 -60.68   0
        22    977.8846    920.7325 300.2288971 +22.9307383      1078.57     69.62663      1.396     3.17    -13.02953     19.61384     105.0466        16     1.011     0.957 -29.36   0
        23    932.2834    919.1270 300.2151994 +22.9166067     917.6683     69.64431      1.334     2.85     -12.9176     19.61384     121.9849        13     0.998     0.761  50.39   0
        24    716.0065    913.2062 300.1497215 +22.8500535     213.5907     69.37866      1.005     2.27    -12.56339     19.61384     60.34371         7     0.692     0.670  38.24   0
        25    583.8088    907.1981 300.1105074 +22.8086746     2389.749     69.34316      1.206     2.09     -12.2993     19.61384     416.4797        20     0.939     0.902  48.83   0
        26    386.1327    903.9847 300.0500370 +22.7484372     372.9844     69.52047      1.354     3.73    -12.26267     19.61384      39.5107         5     0.804     0.498  25.73   0
        27    133.9416    901.1963 299.9725412 +22.6719306     620.2573     69.48505      1.377     4.06    -12.30421     19.61384     82.22729         9     0.904     0.745  14.66   0
        28    604.3062    899.6527 300.1193443 +22.8126594     274.3901     69.59126      1.082     3.00    -12.30999     19.61384      52.6237         6     0.700     0.639  74.67   0
        29    153.3073    898.8770 299.9793132 +22.6770807     216.2571     69.66199      1.221     3.87    -12.31257     19.61384     36.37141         5     0.877     0.489 -40.16   0
        30    759.8150    886.8524 300.1719448 +22.8556297     2048.376     69.50275      1.217     2.23    -12.51128     19.61384     327.5949        18     0.954     0.835 -82.72   0
        31    976.8215    886.9763 300.2395500 +22.9207282     579.8652     69.52047      1.317     3.06    -12.55345     19.61384     72.07253        10     0.901     0.727   8.14   0
        32    476.6792    879.8018 300.0860761 +22.7686744     178.7855     69.43187      1.013     2.07    -12.33482     19.61384     55.21962         6     0.670     0.617 -19.51   0
        33    123.6513    877.4011 299.9770852 +22.6620215      483.722     69.48505      1.254     3.29    -12.32526     19.61384     75.49508        12     1.062     0.802 -58.65   0
        34    272.8929    869.6401 300.0259950 +22.7046018     26709.23     69.52047      1.295     2.36    -12.28796     19.61384     3714.213        62     1.171     1.139  28.09   0
        35    530.8612    868.5947 300.1065849 +22.7817165     819.8859     69.50275      1.226     2.38     -12.2679     19.61384     129.3797        10     0.850     0.674  56.90   0
        36    943.7902    867.5953 300.2355553 +22.9052625     443.3652     69.37866      1.212     2.85    -12.33542     19.61384      58.7011         6     0.711     0.613 -38.95   0
        37    201.2610    867.6471 300.0043759 +22.6825272     176.4703     69.55588      0.918     2.68    -12.32022     19.61384      44.3591         6     0.828     0.489  46.90   0
        38    559.8952    864.4115 300.1169836 +22.7892269     359.8978      69.4496      1.038     2.43    -12.23719     19.61384     62.42526         7     0.729     0.608   2.15   0
        39    676.3178    859.1126 300.1549591 +22.8226285     270.1228     69.62663      1.308     4.16    -12.07464     19.61384     37.65646         5     1.111     0.444  32.93   0
        40    713.5960    849.3203 300.1697565 +22.8309985     289.8543     69.43187      0.994     2.55    -12.08102     19.61384     57.87682         6     0.662     0.634  25.42   0
        41    336.8772    847.4130 300.0531215 +22.7174336     930.2775     69.53817      1.253     2.18    -12.09792     19.61384     156.5484        16     1.038     0.822  73.56   0
        42    322.5648    846.8742 300.0488458 +22.7129836     15722.54     69.48505      1.228     2.03     -12.1281     19.61384     2704.855        44     1.082     1.045  89.28   0
        43    845.6346    842.5008 300.2131184 +22.8686328     1293.138     69.50276      1.109     2.13    -12.31824     19.61384      179.565        16     0.890     0.870 -83.59   0
        44    603.6505    838.5286 300.1390259 +22.7949268     531.7032     69.52047      1.158     2.49     -12.0717     19.61384     81.52524         9     0.872     0.669  32.86   0
        45    205.0019    838.6811 300.0149609 +22.6753472       322.92     69.43187      1.126     2.87    -12.16391     19.61384      58.6109         7     0.816     0.598 -18.50   0
        46    450.8086    833.3091 300.0931505 +22.7475774     501.9929      69.4496      1.188     2.59    -11.97164     19.61384     70.14182         8     0.834     0.692 -74.65   0
        47    605.0153    827.4244 300.1430629 +22.7921502     175.8604     69.53817      1.172     3.85    -11.99673     19.61384     31.76553         5     0.755     0.623  87.22   0
        48    829.5845    824.6541 300.2139215 +22.8586979     242.5524     69.50276      1.020     3.42    -12.09801     19.61384     36.00941         5     1.008     0.336 -67.69   0
        49    202.9612    823.1834 300.0193673 +22.6702920     248.7409     69.53817      1.074     2.69    -12.08115     19.61384     47.87791         6     0.855     0.462  30.92   0
        50    495.4405    811.8029 300.1140344 +22.7547991     313.9347     69.53817      0.943     2.28    -11.75677     19.61384     53.02425         5     0.689     0.468 -70.95   0
        51    912.0626    807.7681 300.2451249 +22.8785749     2238.375     69.53817      1.226     2.17      -12.077     19.61384     353.8734        19     0.949     0.916  35.63   0
        52    517.6238    808.9677 300.1218607 +22.7606407     774.3304     69.52047      1.113     1.84    -11.70907     19.61384     149.0788         8     0.757     0.624  78.15   0
        53    900.5562    798.9141 300.2444174 +22.8725838      948.823     69.50275      1.381     3.04    -11.98566     19.61384     107.7977        15     1.020     0.908 -30.47   0
        54    263.5240    793.3124 300.0479086 +22.6799063     307.6199     69.64431      1.090     2.85    -11.79733     19.61384     65.84262         9     0.921     0.696  -8.05   0
        55    726.7130    790.5453 300.1929608 +22.8180638     1153.443     69.55588      1.040     1.92    -11.67037     19.61384     209.4746        11     0.755     0.730 -43.75   0
        56    931.5789    789.3539 300.2571995 +22.8791372     857.2263     69.57357      1.143     2.18    -12.01303     19.61384     134.9854        12     0.823     0.807 -34.79   0
        57    112.2356    777.3544 300.0060781 +22.6299195       405.17     69.55588      1.255     2.63    -12.11528     19.61384     49.92641         5     0.702     0.465  12.51   0
        58    845.2510    767.4022 300.2374257 +22.8469584     73040.52     69.52047      1.116     1.91    -11.68374     19.61384     11911.43        96     1.130     1.085 -88.94   0
        59    992.3412    768.9986 300.2827687 +22.8915019     630.0563     69.48505      1.268     2.49    -11.91916     19.61384     97.71367        11     0.938     0.674 -14.24   0
        60    697.8452    767.9538 300.1913152 +22.8029236      459.798     69.55588      1.321     2.60    -11.58743     19.61384     58.60543         7     0.847     0.517  45.99   0
        61    878.1174    760.1509 300.2500290 +22.8547280     174.2517     69.52047      0.855     2.08    -11.67836     19.61384     51.33128         6     0.718     0.538  44.59   0
        62    531.5516    756.3932 300.1432938 +22.7497351     785.0646     69.52047      1.030     2.05    -11.22565     19.61384     139.2416        12     0.794     0.777  83.35   0
        63    712.7755    753.5734 300.2006425 +22.8032728     4675.048     69.48505      1.052     1.73    -11.54834     19.61384      884.462        26     0.976     0.854  88.53   0
        64    214.2729    748.8991 300.0470402 +22.6523902     2523.994     69.66199      1.246     2.17    -11.50048     19.61384     377.0581        21     0.988     0.903  63.00   0
        65    296.4453    746.8659 300.0732481 +22.6764674     537.4951     69.52047      1.118     2.36    -11.17969     19.61384     105.3739         8     0.827     0.589 -86.00   0
        66    171.9650    745.0067 300.0351562 +22.6385758     258.9512     69.52047      1.329     2.44    -11.75086     19.61384     40.48272         5     0.636     0.559   0.15   0
        67    504.6253    742.3571 300.1394770 +22.7376314     273.6606     69.55588      0.988     2.04    -11.12081     19.61384     73.72775         6     0.761     0.444  45.48   0
        68    496.1974    734.5377 300.1393965 +22.7328599     1590.636     69.52047      1.083     1.88    -11.07426     19.61384     274.0952        15     0.840     0.772  29.22   0
        69    486.4492    728.2234 300.1384157 +22.7281243     779.9837     69.52047      1.066     1.93    -11.04905     19.61384     128.0939        10     0.773     0.676   3.20   0
        70    880.1519    725.8053 300.2618317 +22.8454756     292.6786     69.50275      1.294     2.87    -11.44996     19.61384     48.48795         6     0.741     0.621  76.16   0
        71    149.7999    724.7159 300.0348651 +22.6261056     382.2718      69.3964      1.345     2.19     -11.6608     19.61384     71.71402         6     0.685     0.594 -35.28   0
        72    189.6138    719.8445 300.0488221 +22.6366585     284.5034     69.53817      1.210     3.27    -11.45788     19.61384     46.69302         5     0.763     0.418  66.97   0
        73    933.1678    719.5428 300.2803974 +22.8595657     236.0928     69.53817      1.023     2.77    -11.47382     19.61384     40.39108         5     0.725     0.451 -21.82   0
        74    510.4590    718.7736 300.1489606 +22.7326145     170.8303     69.52047      1.134     3.15     -10.9975     19.61384     46.15945         5     0.731     0.481 -76.16   0
        75    411.2106    718.0159 300.1183234 +22.7026263     809.5219     69.46732      1.086     1.76    -11.05187     19.61384     181.5015        11     0.867     0.665  48.59   0
        76     65.2357    713.1484 300.0123523 +22.5974055      9797.31     69.53817      1.314     2.37    -11.50014     19.61384      1294.91        41     1.138     1.111   8.64   0
        77    986.9442    715.1686 300.2985901 +22.8744239     402.8238     69.53817      1.305     3.13    -11.44723     19.61384     54.15256         8     0.872     0.669 -84.17   0
        78    496.1715    713.2748 300.1463016 +22.7267514      551.739     69.53817      1.252     3.30    -10.97763     19.61384     79.88913         9     0.981     0.714  63.04   0
        79    914.1098    699.1711 300.2810786 +22.8480038     557.4415     69.50275      1.149     2.07    -11.23977     19.61384     108.2475         7     0.800     0.506  50.04   0
        80     11.2603    697.3262 300.0007310 +22.5766665     677.0822     69.55588      1.731     5.21     -11.3007     19.61384     88.13144        14     1.363     0.874 -87.10   0
        81    781.3013    697.3284 300.2402808 +22.8076700      212.169     69.66199      1.158     2.44    -11.17465     19.61384     46.51772         5     0.717     0.445  78.53   0
        82    854.6395    692.2859 300.2647769 +22.8282038     309.4474     69.50276      0.926     2.56     -11.1398     19.61384     72.55838         5     0.834     0.456  77.48   0
        83    416.2054    686.2238 300.1302128 +22.6950041     412.3313     69.50275      1.043     2.11    -10.98117     19.61384     72.45963         6     0.704     0.532  29.92   0
        84    564.3920    684.7114 300.1768227 +22.7390150     264.4679     69.43187      1.020     2.21    -10.85993     19.61384     55.62633         5     0.693     0.450 -68.87   0
        85    460.7761    682.0132 300.1454496 +22.7071652     353.7059     69.52047      1.177     2.06    -10.88356     19.61384     74.72093         7     0.783     0.591  19.58   0
        86    894.1791    677.4324 300.2819319 +22.8357878     1602.816     69.52047      1.046     1.90    -11.01831     19.61384     294.1278        15     0.817     0.787 -15.37   0
        87    425.9752    677.5726 300.1360647 +22.6954526     843.9949     69.50275      1.093     1.70    -10.94483     19.61384     165.4368        12     0.839     0.711  57.21   0
        88    289.3868    664.3684 300.0978726 +22.6506889     4639.595     69.50276      1.095     1.99    -10.82838     19.61384     690.4789        23     0.953     0.866  51.98   0
        89    411.8765    661.3588 300.1369486 +22.6865718     4317.535     69.48505      1.076     1.69    -10.80809     19.61384     882.0966        22     0.881     0.868  60.48   0
        90   1016.3209    656.0781 300.3269640 +22.8662511     530.6543     69.64431      1.157     2.47    -10.96135     19.61384     88.50431         8     0.831     0.660  68.10   0
        91    823.5093    655.1719 300.2671390 +22.8082160     833.6706     69.50275      0.988     1.86    -10.92811     19.61384     167.6663        12     0.882     0.680  -2.91   0
        92    908.1370    652.4483 300.2944054 +22.8327947     6031.195     69.55588      1.049     1.77     -10.9442     19.61384     1173.684        25     0.927     0.841  77.97   0
        93    472.4229    650.9203 300.1591807 +22.7017366      5706.48     69.46732      1.044     1.77    -10.60283     19.61384     1036.631        24     0.920     0.846  48.15   0
        94    641.6824    646.7206 300.2132380 +22.7512858     303.2953     69.64431      1.320     3.43    -10.63113     19.61384     42.03035         5     0.752     0.453  79.77   0
        95    199.7586    646.4883 300.0758201 +22.6186676     621.9021     69.52047      1.096     2.13    -11.07563     19.61384     115.0792        12     0.827     0.775   6.09   0
        96    404.1418    639.1506 300.1417605 +22.6778799     2155.155     69.57357      1.109     1.92    -10.55849     19.61384     442.5783        17     0.923     0.751  52.79   0
        97    747.0751    638.9892 300.2485806 +22.7806602     371.5744     69.53817      0.834     1.47    -10.69723     19.61384     121.1747         6     0.639     0.496  44.15   0
        98    382.4328    637.5950 300.1355127 +22.6709219     501.5182     69.50276      0.997     2.08    -10.57021     19.61384     92.57142         7     0.705     0.623 -79.82   0
        99    136.9310    636.9565 300.0593923 +22.5970804     310.6812     69.48505      1.227     3.35    -11.19453     19.61384     74.13078         8     1.044     0.592 -24.13   0
       100    823.9406    634.3735 300.2740339 +22.8023725      681.096     69.52047      1.236     2.61    -10.86627     19.61384     108.3498        13     0.951     0.755 -29.28   0
       101    520.7422    626.6436 300.1821094 +22.7092604       100720     69.52047      1.045     1.72    -10.35717     19.61384     20372.01       122     1.155     1.114 -40.95   0
       102    704.5752    631.5765 300.2377494 +22.7657924     389.1424     69.48505      1.028     2.32    -10.57742     19.61384     85.08725         6     0.653     0.614  64.72   0
       103    206.8606    626.6639 300.0844704 +22.6151132     1692.304     69.55588      1.155     2.08    -11.04036     19.61384     313.3443        14     0.891     0.781  37.69   0
       104    255.2694    609.3264 300.1051534 +22.6246648     310.6895     69.59126      1.120     2.44    -10.75793     19.61384     50.22799         6     0.676     0.631 -72.13   0
       105    411.3329    606.8458 300.1544964 +22.6707676     1257.465     69.52047      1.114     1.97    -10.20212     19.61384     235.0572        12     0.819     0.718  84.81   0
       106    879.8297    595.3002 300.3041542 +22.8078979     1549.567     69.46732      0.627     0.74    -10.69633     19.61384     909.7624         5     0.461     0.435 -71.70   0
       107    808.2230    593.0474 300.2825662 +22.7857937     842.8113     69.53817      1.015     1.77    -10.75502     19.61384     214.7574        10     0.833     0.681  45.96   0
       108    679.4972    590.6220 300.2432475 +22.7465165     1219.323      69.4496      0.962     1.78    -10.32935     19.61384     242.0397        12     0.778     0.715  34.41   0
       109    924.4189    588.0164 300.3204234 +22.8191651     331.7119     69.50275      1.502     2.65    -10.81604     19.61384     62.12218         5     0.932     0.519 -13.11   0
       110    466.8487    586.5874 300.1783534 +22.6816033     310.2861     69.55588      0.888     1.93    -10.12872     19.61384     80.34807         7     0.781     0.530  75.87   0
       111    936.9553    584.5953 300.3254443 +22.8219381     670.6033     69.52047      1.103     2.24    -10.83173     19.61384     110.6078         9     0.818     0.636  47.56   0
       112    808.5258    583.0512 300.2859090 +22.7830135     1167.596     69.53817      1.226     2.79    -10.70015     19.61384     186.0856        14     1.258     0.724  74.32   0
       113    922.5809    583.3098 300.3213798 +22.8172624     311.2728      69.4496      1.025     2.87    -10.78308     19.61384       50.199         6     0.684     0.646  26.71   0
       114    562.0369    581.0829 300.2097700 +22.7085652     376.4675     69.50275      0.976     1.93    -10.02528     19.61384     64.87037         5     0.591     0.563  -5.39   0
       115    846.7136    578.0849 300.2994253 +22.7930302     2073.729     69.64431      1.027     1.72    -10.62763     19.61384     451.1503        16     0.852     0.747  77.54   0
       116    487.7831    578.5342 300.1874851 +22.6855695     130.4704     69.50275      0.977     3.46    -10.07531     19.61384     30.33905         5     0.759     0.456  19.57   0
       117    938.5237    568.5193 300.3311574 +22.8177895     523.2155     69.62663      1.128     2.36    -10.75034     19.61384      65.9779         8     0.892     0.542  44.98   0
       118     78.9083    568.8317 300.0635012 +22.5601326     494.5765     69.46732      1.180     2.00    -10.86784     19.61384     89.66248         8     0.743     0.617 -37.92   0
       119    620.1229    548.6883 300.2383814 +22.7166788     340.2112     69.66199      0.903     1.61    -10.05076     19.61384     101.0686         7     0.630     0.606  31.68   0
       120    934.9830    540.6516 300.3391082 +22.8087222     333.6743     69.52047      1.281     3.15    -10.59089     19.61384     78.32677         9     1.088     0.611  79.24   0
       121    680.8314    540.8051 300.2598499 +22.7326120     404.0541     69.50275      0.933     1.71    -10.26997     19.61384     102.1507         6     0.668     0.533  46.35   0
       122    838.0345    536.8218 300.3101274 +22.7785770      437.416     69.53817      1.044     2.00    -10.50846     19.61384     129.3959         9     0.816     0.635  67.33   0
       123    822.4221    533.2057 300.3064360 +22.7728605     346.5153     69.50275      0.825     1.67    -10.48267     19.61384     71.32264         5     0.645     0.458  65.88   0
       124    566.6735    531.5621 300.2273032 +22.6957392      1550.49     69.46732      0.981     1.73    -9.795602     19.61384     318.7776        13     0.809     0.692  58.25   0
       125    927.1703    530.1500 300.3400840 +22.8033646     272.8955     69.53817      1.059     2.16    -10.55833     19.61384      69.8884         8     0.763     0.645 -46.15   0
       126    977.9413    510.3767 300.3623411 +22.8128908      724.912     69.52047      1.139     1.78    -10.47364     19.61384     126.9836        11     0.939     0.629   8.94   0
       127    936.6566    509.1110 300.3498772 +22.8001611     558.9205     69.55588      1.089     2.29    -10.54323     19.61384     98.25844         8     0.747     0.675  37.45   0
       128    677.3243    505.3475 300.2702766 +22.7213787     546.0671     69.52047      1.036     1.88    -10.06948     19.61384     95.86892         8     0.745     0.594 -86.84   0
       129    181.0313    503.7922 300.1163627 +22.5721200     271.5573     69.52047      1.169     3.82     -10.5769     19.61384     38.83278         6     0.937     0.447 -34.16   0
       130    243.7695    499.5198 300.1372526 +22.5897142     1774.392     69.52047      1.135     2.04    -10.47696     19.61384     272.9626        17     0.883     0.869 -50.72   0
       131    976.7006    497.7019 300.3660717 +22.8088769     2204.397     69.73264      1.092     1.80    -10.34422     19.61384     416.0982        17     0.840     0.789 -56.41   0
       132    190.8284    494.3390 300.1224783 +22.5723472     3745.972     69.52047      1.160     1.99    -10.55151     19.61384      645.851        24     0.996     0.889  59.66   0
       133    331.5523    488.5051 300.1681266 +22.6128820      2420.35     69.53818      1.053     1.95    -10.25945     19.61384     411.0303        19     0.976     0.809  58.64   0
       134    956.7219    488.7210 300.3627582 +22.8003122     888.9883     69.64431      1.050     1.84    -10.37633     19.61384     181.8718        10     0.804     0.638  57.17   0
       135    575.8431    485.1016 300.2452504 +22.6851488     9177.699     69.52047      1.070     1.65    -9.732718     19.61384     2178.561        30     0.929     0.836  78.57   0
       136    593.1896    485.0520 300.2506674 +22.6903340     415.4091     69.52047      1.747     4.93    -9.737002     19.61384     45.23188         8     1.698     0.406 -40.63   0
       137    195.6026    472.6768 300.1309978 +22.5675647     149.7825     69.43187      1.053     3.43    -10.46413     19.61384     36.16925         5     0.763     0.445  70.85   0
       138    909.1943    467.6396 300.3547853 +22.7800187     426.4822     69.53817      1.063     1.93    -10.45533     19.61384     80.84963         6     0.662     0.592  54.88   0
       139    130.4436    465.3771 300.1131180 +22.5459240     940.2153     69.57357      1.096     2.22    -10.49769     19.61384     141.2818        13     0.881     0.765  45.73   0
       140    516.4342    454.6153 300.2366576 +22.6585874     3205.426     69.50276      1.013     1.90    -9.737184     19.61384     530.0111        20     0.938     0.784  79.77   0
       141    930.1895    454.5372 300.3655875 +22.7825421     736.5482     69.46732      1.101     1.62    -10.33669     19.61384     147.5682        11     0.897     0.662  74.64   0
       142    231.3428    453.9497 300.1481896 +22.5729119      391.965     69.57357      1.165     2.46    -10.24457     19.61384     60.82609         7     0.724     0.641 -89.96   0
       143     88.7511    447.5050 300.1059675 +22.5282893     264.8556     69.57357      1.287     2.59    -10.41831     19.61384     47.78049         5     0.713     0.478  16.07   0
       144    720.7418    443.4497 300.3039064 +22.7166118     659.0607     69.57357      1.099     2.53    -9.899581     19.61384     96.57849         8     0.815     0.681  37.88   0
       145    423.0522    440.8325 300.2120729 +22.6266358     3141.835     69.53817      1.102     1.80     -9.92843     19.61384     665.6043        20     0.917     0.808  55.69   0
       146    912.3647    435.2169 300.3663042 +22.7716514     356.4445     69.52047      1.076     1.72    -10.20181     19.61384     68.07249         5     0.665     0.448  68.91   0
       147    814.9630    435.0386 300.3359981 +22.7424244     770.3698     69.59126      1.088     1.74     -10.1302     19.61384     164.7534         9     0.718     0.671  43.99   0
       148    310.6949    420.1626 300.1838345 +22.5870139     1234.238     69.50275      1.071     1.94    -9.908283     19.61384      232.085        15     0.899     0.771  68.83   0
       149     28.9721    417.5988 300.0971083 +22.5017762     484.6736     69.48505      1.152     3.13    -10.24442     19.61384     79.71511         8     0.848     0.673  55.71   0
       150    279.9726    409.5995 300.1777106 +22.5747696     14686.26     69.48505      1.115     1.85     -9.85869     19.61384     2753.114        40     1.037     0.927  53.83   0
       151    814.6062    406.8860 300.3450291 +22.7342287     566.6908      69.4496      0.927     1.71    -10.02949     19.61384      151.095         7     0.692     0.564 -86.60   0
       152    729.9388    395.9478 300.3221971 +22.7057218     242.5585     69.57357      1.087     3.06    -9.695496     19.61384     67.38207         7     0.977     0.497  56.95   0
       153    154.3665    396.2007 300.1430147 +22.5332542     160.0192     69.48505      1.091     2.15     -10.0499     19.61384     42.19505         5     0.696     0.451  71.41   0
       154    690.3292    389.1198 300.3120743 +22.6918930     931.6046     69.62663      1.066     1.74    -9.464325     19.61384     210.2307        11     0.811     0.701  88.17   0
       155    905.6564    381.6132 300.3816189 +22.7542374     257.2818     69.50276      1.171     2.45    -10.04615     19.61384     64.32915         5     0.728     0.654  27.42   0
       156    352.1613    373.9286 300.2117424 +22.5861766     1082.754     69.48505      1.226     2.41    -9.606805     19.61384     187.9952        14     1.046     0.725  63.21   0
       157    791.3701    366.4443 300.3509183 +22.7156482     291.7126     69.55588      0.979     2.65    -9.892118     19.61384      68.6798         7     0.916     0.480  60.70   0
       158    427.9645    353.0070 300.2421167 +22.6028947     572.1678     69.53817      1.166     2.05    -9.305305     19.61384     112.4469         8     0.751     0.621  51.76   0
       159    912.5353    344.8387 300.3957031 +22.7457278     8882.271     69.50275      1.838     6.20    -10.00368     19.61384     1535.523        25     2.157     0.501 -45.68   3
       160    918.3056    337.8999 300.3997549 +22.7454613     7820.545     69.69732      3.972     7.67    -9.995339     19.61384     844.8364        28     4.052     0.406 -46.91   3
       161    928.6002    325.9994 300.4068282 +22.7451232     9815.201     69.30765      5.451    10.46    -10.00041     19.61384     1068.585        63     6.571     0.464 -47.86   3
       162    938.5695    314.7174 300.4135991 +22.7448652     6103.921     69.52047      0.899     3.22    -9.990429     19.61384     1801.828        10     0.944     0.378 -36.19   3
       163    942.0110    310.9890 300.4158826 +22.7448238     8780.327     69.41414      2.191     5.25      -9.9868     19.61384     1260.334        14     2.324     0.336 -50.09   3
       164    672.9239    344.9136 300.3210045 +22.6739791     873.3187     69.64431      1.087     1.74     -9.13795     19.61384      243.464        10     0.767     0.653  81.97   0
       165    934.0994    339.2010 300.4042575 +22.7505647     1573.196      69.3964      1.036     1.66     -10.0122     19.61384      354.692        13     0.798     0.747  89.83   0
       166    381.2027    328.8904 300.2353965 +22.5819532     295.0073     69.43187      1.061     3.28    -9.238684     19.61384     66.27975         7     0.984     0.551  68.03   0
       167   1003.4218    327.1824 300.4297797 +22.7678656     759.8056     69.50275      0.978     1.74    -10.00132     19.61384     168.3441        10     0.758     0.673  64.99   0
       168     56.0195    323.1022 300.1361857 +22.4827824     820.9324      69.4496      1.486     3.87    -9.937375     19.61384     104.4818        15     1.175     1.070  -4.75   0
       169     86.9557    323.3232 300.1457249 +22.4921250       316.36     69.50275      1.344     2.91    -9.907332     19.61384     41.24333         7     0.729     0.657 -18.68   0
       170    949.7859    319.5302 300.4155348 +22.7496071     313.1542     69.53817      0.931     3.21    -9.994965     19.61384     50.06707         7     0.962     0.512  47.95   0
       171    744.4249    306.4677 300.3557591 +22.6843524     330.1692     69.50276      1.040     2.44    -9.415338     19.61384     68.22382         8     0.773     0.735  25.42   0
       172    842.5537    295.2538 300.3899807 +22.7105193     1012.646     69.55588      1.061     1.99     -9.61085     19.61384     173.5849        14     0.927     0.722  77.83   0
       173    261.1845    292.8576 300.2097645 +22.5356287     1162.645     69.50275      1.222     1.94    -9.502054     19.61384     208.9695        13     0.927     0.735  56.94   0
       174    338.8983    287.9415 300.2355275 +22.5575152     552.6093     69.60895      1.185     2.33    -9.100016     19.61384     94.19151        10     0.844     0.702  33.77   0
       175    741.3013    287.1435 300.3610577 +22.6778639     170.9747     69.60895      0.972     1.86    -9.321648     19.61384     63.90888         5     0.783     0.459  88.52   0
       176    155.9508    280.0545 300.1812066 +22.5004004      247.302     69.55587      0.949     1.94    -9.573079     19.61384     59.91757         5     0.626     0.517  88.77   0
       177    693.8069    276.8103 300.3496145 +22.6606686     757.3427      69.3964      1.097     1.95    -9.173139     19.61384     162.4165        11     0.863     0.680  75.88   0
       178    758.7032    276.2642 300.3700109 +22.6799497     220.4368     69.62663      0.967     2.21    -9.368505     19.61384     48.63612         6     0.682     0.600  42.34   0
       179    177.4164    273.3974 300.1900384 +22.5049265     285.8569     69.43187      1.231     4.46    -9.523757     19.61384     38.69536         7     0.870     0.679  33.65   0
       180    467.4534    269.4475 300.2815256 +22.5907353     252.7142     69.55588      1.277     3.68    -8.963921     19.61384     34.07661         6     1.024     0.380  70.23   0
       181    965.0262    269.1180 300.4366501 +22.7396770      398.335     69.50275      1.132     1.96    -9.878366     19.61384     94.68763         9     0.743     0.691 -71.40   0
       182    697.7808    268.2301 300.3536370 +22.6593935     443.7826     69.52047      1.119     2.22    -9.171348     19.61384     71.51713         8     0.760     0.639  54.32   0
       183    618.1528    267.6394 300.3290270 +22.6353702     608.0559     69.55588      1.021     1.93    -8.979589     19.61384     119.7705         9     0.769     0.637  72.38   0
       184    439.2569    264.1618 300.2744664 +22.5807673     129.0811     69.52047      1.111     2.93    -8.954202     19.61384     35.20845         5     0.726     0.656 -26.89   0
       185    813.6841    259.0330 300.3927372 +22.6914633     739.4227     69.48505      1.091     2.00    -9.469375     19.61384     132.2239         8     0.750     0.623  86.49   0
       186    544.5689    259.1258 300.3088783 +22.6108784     544.4014     69.53817      1.226     3.01    -9.095684     19.61384     76.97924         6     0.878     0.468 -77.37   0
       187    825.4884    258.2045 300.3966853 +22.6947601     498.1542     69.43187      1.086     2.22     -9.47248     19.61384     72.47999         6     0.647     0.627 -14.93   0
       188    986.3535    248.8438 300.4498815 +22.7402322      883.776     69.55588      1.161     2.13    -9.859892     19.61384     147.6948        13     0.993     0.713  39.76   0
       189    942.3417    248.3200 300.4363249 +22.7269062     445.1461     69.55588      1.034     2.07    -9.706887     19.61384     107.4786         9     0.795     0.632  73.22   0
       190    176.3383    241.6317 300.2000106 +22.4954858     308.2305     69.53817      1.147     2.32    -9.424275     19.61384     59.88351         5     0.675     0.475 -10.27   0
       191     38.4355    236.5802 300.1587999 +22.4526830     1081.487     69.53818      1.243     2.76    -9.363546     19.61384     133.4165        16     0.992     0.936  32.96   0
       192    861.3441    233.2280 300.4159671 +22.6983170     286.8595     69.52047      0.911     1.81    -9.391316     19.61384     73.18206         6     0.654     0.564 -26.70   0
       193    195.8148    229.8838 300.2098761 +22.4979531     2881.583     69.48505      1.199     1.90    -9.331511     19.61384     542.8317        22     1.046     0.835  65.55   0
       194    179.1622    220.4136 300.2077724 +22.4902420      330.403     69.52047      1.039     2.58    -9.346205     19.61384     67.27853         5     0.793     0.475  52.68   0
       195    994.6261    216.9888 300.4627984 +22.7335486     9157.009     69.52047      1.083     1.84     -9.77466     19.61384     1667.521        35     0.981     0.933  63.10   0
       196    839.8549    211.1425 300.4164342 +22.6855340     1658.874     69.57357      1.039     1.77    -9.296171     19.61384      363.881        12     0.785     0.715 -80.48   0
       197    943.4961    209.8639 300.4491631 +22.7161947     1401.348     69.60895      1.063     1.78    -9.476889     19.61384     265.0294        13     0.850     0.730 -62.38   0
       198     79.4898    195.6435 300.1848343 +22.4532468     361.7572     69.53817      1.249     2.82    -9.296236     19.61384     51.09776         8     0.786     0.732  40.61   0
       199    440.6224    193.6375 300.2977733 +22.5609214     883.8394     69.53817      1.057     2.04    -8.825398     19.61384     147.8187        11     0.801     0.698  63.20   0
       200    728.8898    182.8466 300.3910327 +22.6441731     106.3787     69.50275      1.073     3.92    -9.006854     19.61384     30.22956         6     0.766     0.576  44.34   0
       201   1005.0967    174.3020 300.4799137 +22.7244067     1789.764     69.69732      1.106     1.92    -9.430645     19.61384     319.2062        18     0.912     0.816  54.17   0
       202    214.6639    173.7336 300.2339509 +22.4874845     2849.832     69.57357      1.173     2.04    -9.173404     19.61384     469.2149        23     1.048     0.857  51.86   0
       203     65.8850    173.0619 300.1879325 +22.4426863     285.3757     69.64431      1.282     2.27    -9.217979     19.61384     61.55903         6     0.735     0.644 -67.59   0
       204    460.7513    158.9201 300.3152990 +22.5569801      3148.69     69.53817      1.142     1.99     -8.76298     19.61384     575.7122        22     1.023     0.805  73.02   0
       205    346.4649    158.9473 300.2797322 +22.5227425      320.885     69.55588      1.150     2.21    -8.814092     19.61384     49.86943         6     0.738     0.493  82.32   0
       206    713.3724    148.0939 300.3974713 +22.6295375     499.7181     69.43187      1.714     3.78       -8.768     19.61384     60.71286         8     1.087     0.613 -80.40   0
       207    805.7845    147.0889 300.4265940 +22.6569190     239.8583      69.4496      1.152     2.52    -8.866047     19.61384     49.72942         7     0.797     0.642 -36.76   0
       208    589.1206    138.9127 300.3617491 +22.5896870     3029.458     69.67966      1.138     1.83    -8.541426     19.61384     640.6157        21     0.963     0.824  73.85   0
       209    364.0222    138.0636 300.2919671 +22.5220059       751.72     69.50275      1.174     1.89    -8.744903     19.61384     160.7678        10     0.850     0.670  60.99   0
       210    630.2189    136.2680 300.3754053 +22.6012363     490.1192     69.52047      1.127     2.28    -8.555438     19.61384     89.59476         8     0.805     0.630  -8.55   0
       211    916.4011    130.4025 300.4664909 +22.6852350     382.1319     69.30765      1.360     5.06    -8.866055     19.61384     58.20019         9     1.556     0.465  45.49   0
       212    646.3256    132.1660 300.3817521 +22.6048812     262.3985     69.50275      0.950     1.64    -8.563783     19.61384     70.61929         5     0.658     0.443  71.87   0
       213    112.8157    130.6111 300.2162821 +22.4445725     445.7982     69.46732      1.607     2.87    -9.060187     19.61384     50.83684         7     0.878     0.547  55.61   0
       214    684.6466    127.5966 300.3951705 +22.6150439     178.9016     69.50276      0.983     2.83    -8.606463     19.61384     49.40297         7     0.875     0.528  60.50   0
       215    274.0435    124.9316 300.2682412 +22.4912699     229.7256     69.48505      1.255     3.34    -8.846879     19.61384     37.40859         5     0.780     0.514  26.77   0
       216    633.3151    123.8908 300.3803838 +22.5986065      1360.83     69.67966      1.024     1.75    -8.496767     19.61384     288.4839        12     0.802     0.672  54.82   0
       217    648.0532    122.2956 300.3854914 +22.6025618     538.0798     69.59126      1.605     4.90    -8.511172     19.61384     63.27295         9     1.206     0.563  42.61   0
       218    719.6865    115.3531 300.4100575 +22.6220170     655.6362     69.48505      0.989     1.92    -8.576684     19.61384      131.107        10     0.805     0.600  44.54   0
       219    463.2191    108.0163 300.3325764 +22.5430958     594.0645     69.50275      1.242     2.06    -8.609783     19.61384     113.3836         9     0.821     0.632  72.07   0
       220     36.1421    108.3432 300.1996819 +22.4151928     387.1156     69.59126      1.499     4.16    -9.035589     19.61384     48.35315         5     1.139     0.433  57.30   0
       221    367.2323    106.0815 300.3033377 +22.5137817      319.433     69.52047      1.034     1.87    -8.663044     19.61384     83.26314         7     0.706     0.588 -86.95   0
       222   1010.1182    102.7281 300.5046956 +22.7053232     1312.724     69.64431      1.246     1.91    -9.302979     19.61384     222.2729        17     1.011     0.878 -70.70   0
       223    138.5908     96.3760 300.2353937 +22.4424711     1926.776     69.52047      1.213     2.02     -8.84692     19.61384     265.6606        18     0.991     0.847  50.36   0
       224    700.0683     88.4415 300.4126728 +22.6084069      336.646     69.50275      1.075     2.36    -8.446258     19.61384     79.21706        10     0.873     0.693  84.24   0
       225    254.5632     88.2117 300.2740914 +22.4748867     638.6241     69.50275      1.203     2.19    -8.799486     19.61384     90.75118         8     0.697     0.665 -87.84   0
       226    737.6511     83.6368 300.4259401 +22.6182783     251.6901     69.53817      1.493     3.82    -8.490598     19.61384     36.14582         5     1.034     0.405  74.65   0
       227    661.1345     83.6137 300.4021102 +22.5953610     117.9592     69.46732      0.826     2.45    -8.405293     19.61384     61.38614         5     0.884     0.347  49.72   0
       228    757.6639     79.7482 300.4334371 +22.6231520     1156.906     69.57357      1.101     1.84    -8.491297     19.61384     219.6184        14     0.936     0.731  19.83   0
       229    463.2791     77.9577 300.3423422 +22.5344776     245.0432     69.50275      1.181     3.10    -8.575205     19.61384     49.49869         5     0.926     0.329  46.57   0
       230    140.7381     75.9254 300.2426920 +22.4372432     532.6301     69.55588      1.527     5.02    -8.834236     19.61384     58.69176         9     1.165     0.675 -40.63   0
       231    932.7100     73.0144 300.4901878 +22.6736117     411.6725     69.46732      1.178     2.22       -8.599     19.61384     76.59286         6     0.785     0.537   0.73   0
       232    706.1417     72.3330 300.4197883 +22.6055947     407.8916     69.55588      1.113     2.12     -8.46424     19.61384     105.6375         7     0.851     0.497  55.79   0
       233    558.6293     56.9906 300.3788211 +22.5570123     375.3415     69.52047      1.096     2.38    -8.420032     19.61384     76.23189         7     0.788     0.583 -65.87   0
       234    721.7494     52.0896 300.4312147 +22.6044479     332.8235     69.52047      1.100     1.92    -8.484355     19.61384     81.66257         7     0.756     0.560  59.08   0
       235    530.3224     50.1692 300.3722201 +22.5465742     912.3298     69.50275      1.114     2.20    -8.462226     19.61384      152.478        10     0.816     0.680  69.28   0
       236    253.0308     47.6518 300.2867655 +22.4627790     439.6049     69.55588      1.408     3.53    -8.748892     19.61384     50.32365         7     0.927     0.613  53.26   0
       237    487.7686     44.0392 300.3609615 +22.5320672     646.2527     69.53817      1.154     2.61     -8.55525     19.61384     103.2304         9     0.872     0.635  84.40   0
       238    593.0435     40.5866 300.3948551 +22.5626038     750.8919     69.53817      1.222     2.34     -8.41878     19.61384     146.1654        11     1.026     0.635  70.36   0
       239    237.5312     37.7921 300.2851427 +22.4553026     186.6678     69.50275      1.040     2.41    -8.744651     19.61384     40.44183         5     0.700     0.468  70.45   0
       240    413.3378     34.6821 300.3408322 +22.5070834     1125.175     69.60895      1.137     2.18     -8.58186     19.61384       173.84        13     0.933     0.746  86.91   0
       241     60.3973     32.6120 300.2317702 +22.4007250     797.3819     69.34316      1.445     2.60    -8.934101     19.61384      92.6893        14     0.936     0.855  66.03   0
       242    544.4578     29.0221 300.3834766 +22.5447301     126.9073     69.52047      0.843     1.94    -8.430981     19.61384     55.15615         6     0.720     0.497 -86.79   0
