#   1 NUMBER                 Running object number                                     
#   2 X_IMAGE                Object position along x                                    [pixel]
#   3 Y_IMAGE                Object position along y                                    [pixel]
#   4 ALPHA_J2000            Right ascension of barycenter (J2000)                      [deg]
#   5 DELTA_J2000            Declination of barycenter (J2000)                          [deg]
#   6 FLUX_APER              Flux vector within fixed circular aperture(s)              [count]
#   7 FLUXERR_APER           RMS error vector for aperture flux(es)                     [count]
#   8 FLUX_RADIUS            Fraction-of-light radii                                    [pixel]
#   9 FWHM_IMAGE             FWHM assuming a gaussian core                              [pixel]
#  10 BACKGROUND             Background at centroid position                            [count]
#  11 THRESHOLD              Detection threshold above background                       [count]
#  12 FLUX_MAX               Peak flux above background                                 [count]
#  13 ISOAREA_IMAGE          Isophotal area above Analysis threshold                    [pixel**2]
#  14 A_IMAGE                Profile RMS along major axis                               [pixel]
#  15 B_IMAGE                Profile RMS along minor axis                               [pixel]
#  16 THETA_IMAGE            Position angle (CCW/x)                                     [deg]
#  17 FLAGS                  Extraction flags                                          
         1    790.0557     15.9371 300.4334107 +22.6232134       1003.1     69.45611      1.288     2.07    -8.348381     19.58072     188.1929        16     0.961     0.881  60.36   0
         2    173.5112     10.9921 300.2431542 +22.4371067     533.4617     69.31465      1.329     3.38    -9.276899     19.58072     63.97504         8     1.042     0.482 -81.85   0
         3    965.1158      8.6237 300.4903524 +22.6735074     500.8379     69.38541      1.662     3.15    -9.129817     19.58072     46.23334         7     0.804     0.640 -70.68   0
         4    738.4352      8.1697 300.4198465 +22.6055260     405.0637     69.42077      1.473     3.32    -8.405902     19.58072     48.49966         8     0.892     0.626 -32.38   0
         5    496.6850      1.3459 300.3467856 +22.5311692      186.028     54.12786      1.539     4.05    -8.539424     19.58072     34.24319         5     0.997     0.470  -4.75  24
         6    733.8840   1015.2062 300.0911454 +22.8933674     369.5995     69.33234      1.228     2.39    -13.71463     19.58072     60.11461         5     0.723     0.505  43.93   0
         7    199.5032   1015.0076 299.9249612 +22.7328956     2471.447     69.29694     11.376    27.69     10.33131     19.58072     64.00045       176     4.950     4.299 -22.21  19
         8    211.2361   1021.6708 299.9264373 +22.7383287     1594.789     63.59124      4.493    11.83      11.1195     19.58072     51.45129        37     2.415     1.613 -35.17  27
         9    220.6648   1013.4730 299.9320370 +22.7388116     2836.253     69.43844     11.343    29.01     8.257121     19.58072     60.55072       252     5.359     4.619  59.23  19
        10    238.8721   1002.7950 299.9411726 +22.7412201     4213.383     69.35004      9.575    34.43     1.642445     19.58072       110.21       449     9.018     4.357  61.82  18
        11     76.4736    951.8626 299.9073011 +22.6778510      2164.57     69.43844     22.267    39.13    -6.053408     19.58072     52.78323       293     9.071     4.686 -24.88   3
        12     63.6530    990.8204 299.8906358 +22.6851596     2059.573     69.38541     26.302    48.74    -1.538232     19.58072      59.7766       470     9.854     6.691 -67.07  19
        13     82.8488    983.4457 299.8989985 +22.6888137     2908.523     69.42077     26.204    56.25     1.786335     19.58072     67.40387       661    11.811     7.434  76.90  19
        14    125.3587    990.0520 299.9100515 +22.7034756     515.9914      69.4031      4.926     4.66     7.124314     19.58072     33.94511         5     1.356     0.455  83.12   1
        15    173.2404   1020.8278 299.9149055 +22.7266749     1604.152     66.66193      7.452    14.71     13.86238     19.58072     47.03186        52     3.047     1.974 -26.80  27
        16     73.2947    970.1687 299.9003541 +22.6821403     2247.501     69.33235     17.929    22.83    -3.049822     19.58072     59.52469       127     5.115     2.830  47.34   3
        17    126.6317    981.8750 299.9131094 +22.7015154     934.5208     69.40309      7.447    10.05     5.027031     19.58072     33.83141        16     2.097     1.343 -69.41   0
        18    652.0900    982.0400 300.0764741 +22.8593127     3404.798     69.40309      1.185     1.88    -13.27415     19.58072     641.2656        23     0.968     0.916  80.24   0
        19    144.9365    983.3261 299.9183234 +22.7074292      854.545     69.43844      4.071     5.83     5.377154     19.58072     29.16929         8     1.961     0.488  55.40   0
        20    175.2011   1013.4628 299.9179131 +22.7251537     682.1949     69.38541      3.795     4.47     11.76636     19.58072     30.92197         5     0.979     0.581  39.78   3
        21     76.5454   1018.0522 299.8857725 +22.6968331     2464.475     69.43844     18.317    38.31     7.434272     19.58072     57.13303       332     7.661     5.318  -3.46  27
        22    110.6364    966.1978 299.9132450 +22.6922194     1347.963     69.40309     13.180    14.05    0.6163902     19.58072     36.10297        30     2.548     2.154  51.30   3
        23    560.5884    972.8264 300.0509899 +22.8292124     725.2972     69.40309      1.118     1.98    -12.89783     19.58072     117.8317         9     0.772     0.641 -19.73   0
        24    454.5915    969.1978 300.0191889 +22.7963584     561.5804     69.22609      1.122     2.16    -12.92528     19.58072     105.4911         8     0.829     0.594 -78.04   0
        25    167.3449   1004.6338 299.9183472 +22.7202645     1344.137     69.42077      7.322    12.51     10.42103     19.58072     39.01816        36     3.225     1.351  65.44  17
        26    385.0224    967.3514 299.9981510 +22.7749452     3217.692     69.40309      1.150     1.82    -12.94223     19.58072     575.8695        22     0.951     0.893 -64.33   0
        27     92.4619    955.0522 299.9112284 +22.6835672     1214.024     69.45611      7.320     6.88    -3.292423     19.58072     50.11488        20     1.791     1.112 -19.80   3
        28    110.3638    997.9144 299.9028336 +22.7012238     928.7911     69.38541      7.556     7.61     9.268803     19.58072     40.11613        10     1.574     1.029  18.24   1
        29    931.3092    945.9316 300.1752237 +22.9327067      988.871     69.52673      1.116     1.99      -13.509     19.58072     179.1856        11     0.821     0.709 -15.26   0
        30     45.6769   1005.3918 299.8803089 +22.6839330     831.9114     69.36773      4.019     4.36    -5.177249     19.58072     36.30986         5     1.186     0.457  55.51   1
        31    719.6024    934.5607 300.1129576 +22.8659480     343.1804     69.42077      1.397     2.94    -12.86893     19.58072     51.67664         6     0.840     0.496   0.55   0
        32    926.4966    998.3898 300.1566411 +22.9463190     376.5928     69.33235      0.975     2.15    -13.56513     19.58072     75.42976         5     0.655     0.457  64.54   0
        33    754.9727    928.8857 300.1258224 +22.8749299     445.1876     69.40309      1.072     1.97    -12.86444     19.58072     127.6576         8     0.909     0.488 -53.58   0
        34    777.1241    922.7355 300.1347254 +22.8798096     5344.313     69.47377      1.095     1.76    -12.86252     19.58072     1108.169        25     0.951     0.825 -79.39   0
        35    573.8325    924.4712 300.0708557 +22.8193190      2463.54     69.40309      0.925     3.40    -12.80976     19.58072     837.8717         8     0.846     0.395 -26.64   0
        36    823.0526    922.7899 300.1490175 +22.8936004     271.3197      69.4031      1.243     4.08    -13.06112     19.58072     46.86893         7     0.956     0.689  80.56   0
        37    968.1590    922.0255 300.1944960 +22.9368939     229.8105     69.45611      0.956     1.90    -13.39042     19.58072     67.16479         6     0.802     0.436 -53.10   0
        38     88.1673    914.9498 299.9229490 +22.6707880     531.4496     69.43844      1.437     4.28    -10.62974     19.58072     54.71507         9     1.169     0.527 -45.76   0
        39    743.5267    911.9398 300.1277738 +22.8666344     648.1199     69.43844      0.668     0.94    -12.68425     19.58072     331.5717         5     0.508     0.338 -14.21   0
        40    785.5991    904.8417 300.1431910 +22.8772169     610.3228     69.40309      1.021     1.86    -12.68794     19.58072     132.6775         8     0.679     0.623 -11.90   0
        41    823.6406    898.2628 300.1571854 +22.8867381     319.0538     69.38541      0.951     2.30    -12.71697     19.58072     72.91298         5     0.705     0.449 -71.75   0
        42    872.1502    889.3840 300.1751931 +22.8987369     339.2009     69.43844      1.105     2.24     -12.7119     19.58072     64.98591         6     0.677     0.627 -64.06   0
        43    436.2371    885.0667 300.0408675 +22.7667266     1921.964     69.38541      1.140     1.90    -12.52849     19.58072     378.8085        18     0.916     0.792 -89.17   0
        44    106.5335    993.4420 299.9031001 +22.6987920      920.988     69.38541      3.976     4.24      7.91481     19.58072     32.69545         5     1.253     0.409  56.31   1
        45    138.6667    867.8898 299.9539523 +22.6724693     679.1773     69.52673      1.104     2.00    -11.69441     19.58072     143.7972         9     0.831     0.589  38.32   0
        46     13.8572    857.7618 299.9184848 +22.6320838     225.2744     69.40309      1.541     5.50    -12.44952     19.58072     26.33274         5     1.156     0.737  11.29   0
        47   1010.1980    856.5016 300.2289347 +22.9306853      1066.64     69.31465      1.053     1.70    -12.54906     19.58072     195.4606        12     0.828     0.690  63.53   0
        48    964.4194    854.9420 300.2151673 +22.9165145     980.1031     69.38541      1.021     1.87    -12.37865     19.58072     193.3788        13     0.875     0.724  81.36   0
        49    748.3373    849.1227 300.1497193 +22.8500521     331.3915     69.47377      1.056     3.11    -12.23973     19.58072     76.86652         8     0.914     0.664  57.30   0
        50    616.1119    843.0673 300.1105135 +22.8086533     2434.793     69.50908      1.115     1.73    -12.19847     19.58072     545.5241        19     0.888     0.824  56.92   0
        51    418.5999    840.1591 300.0499967 +22.7485556     290.5906     69.42077      0.976     2.18    -12.24765     19.58072     61.41137         7     0.746     0.602  62.42   0
        52    166.3873    837.0874 299.9725885 +22.6719652     721.7578     69.35004      1.222     2.28    -11.68967     19.58072     114.4542        12     0.894     0.766 -45.26   0
        53    636.8773    835.5679 300.1194191 +22.8127309     357.4766     69.38541      1.032     2.40    -12.19433     19.58072     59.31495         6     0.738     0.495  -0.06   0
        54    552.4714    825.8436 300.0963086 +22.7846197     106.0005     69.36773      1.265     4.25     -12.3837     19.58072     26.10343         5     0.904     0.568  44.01   0
        55    792.1423    822.7369 300.1719531 +22.8556163     1934.596     69.45611      1.076     1.80    -12.17593     19.58072     401.6594        14     0.846     0.732 -67.03   0
        56   1009.0689    822.6395 300.2396034 +22.9206237     510.2557     69.36773      1.121     1.97    -12.40447     19.58072     114.1315         8     0.729     0.658  87.89   0
        57    200.2014    816.9745 299.9896402 +22.6763526      274.349     69.35004      1.183     3.91    -11.73467     19.58072     38.49947         6     0.981     0.447  49.24   0
        58    509.4429    815.2423 300.0863675 +22.7686689     331.2086     69.50908      0.951     2.20    -12.20828     19.58072      77.0826         6     0.776     0.514  48.84   0
        59    155.6482    813.4147 299.9769546 +22.6619558     474.1805     69.43844      1.098     2.73    -11.74945     19.58072     71.75888        11     0.877     0.822 -41.81   0
        60    305.2440    805.5209 300.0260169 +22.7046016     26020.18     69.38541      1.134     1.93    -11.81102     19.58072     4120.058        61     1.104     1.049  74.52   0
        61    563.1025    804.4815 300.1065687 +22.7816809     754.3838     69.54437      1.128     1.78    -12.21151     19.58072     150.5733        11     0.836     0.669  76.52   0
        62    975.9937    803.4913 300.2355206 +22.9052114     403.5538     69.31465      0.959     1.65    -12.24647     19.58072     94.73553         6     0.673     0.489 -13.00   0
        63    592.0640    800.4777 300.1168863 +22.7892204     326.6857     69.49142      1.044     1.96      -12.085     19.58072     84.93229         8     0.768     0.613  61.14   0
        64    602.9110    798.7127 300.1208373 +22.7919678     354.5901     69.56201      1.102     2.71    -12.03878     19.58072     54.78991         7     0.729     0.640 -19.70   0
        65    708.4380    795.0640 300.1548834 +22.8225724     265.2711     69.38541      1.141     2.42    -12.10863     19.58072     47.89939         6     0.721     0.588 -35.62   0
        66    354.9590    782.7836 300.0488727 +22.7130029     15266.25     69.42077      1.189     1.90    -11.59073     19.58072      2801.72        48     1.082     1.003  87.28   0
        67    745.9466    785.3490 300.1697275 +22.8310327      421.531     69.43844      1.084     1.85    -12.01283     19.58072      74.0423         7     0.671     0.608  45.64   0
        68    369.2787    783.1833 300.0531958 +22.7174150     1005.616     69.40309      1.186     2.18    -11.64768     19.58072     159.3815        13     0.894     0.797  57.80   0
        69    877.9730    778.4052 300.2131254 +22.8686253     1355.663     69.38541      1.045     1.76     -11.9437     19.58072     283.7112        11     0.817     0.657 -71.67   0
        70    366.0409    776.8434 300.0542515 +22.7146252     209.7411     69.49142      1.035     2.17    -11.56886     19.58072     56.15971         5     0.750     0.472  50.73   0
        71    635.8828    774.4724 300.1389893 +22.7949025     505.3898     69.52673      1.129     3.33    -11.83958     19.58072     93.76924        10     1.133     0.618 -62.98   0
        72    237.4300    774.6416 300.0149832 +22.6753928      346.646     69.43844      0.980     2.16    -11.69255     19.58072     65.93944         5     0.661     0.467 -69.39   0
        73    482.8253    769.2754 300.0930411 +22.7474972     356.8497     69.42077      0.965     3.20    -11.76742     19.58072     73.14328         9     0.939     0.706  82.04   0
        74    884.4333    766.0587 300.2191561 +22.8670172    -236.6225     69.42077      0.896     1.70    -11.84507     19.58072     63.52386         6     0.686     0.490 -81.17   0
        75    341.1450    765.5241 300.0501921 +22.7039077     185.9787     69.43844      0.988     3.46    -11.40214     19.58072     35.04691         5     0.773     0.447 -20.71   0
        76    234.8466    759.2703 300.0191807 +22.6702104     329.9902     69.38541      1.276     3.48    -11.66793     19.58072     44.02323         5     0.976     0.357  87.12   0
        77    558.8303    748.9032 300.1233212 +22.7644538     256.0941     69.35004      1.325     4.05     -11.5585     19.58072     41.10944         6     1.069     0.621 -12.24   0
        78    527.9566    747.5913 300.1141392 +22.7548161     332.4049     69.42077      0.904     1.89    -11.55491     19.58072     64.37102         5     0.666     0.449  23.95   0
        79    549.8967    744.6396 300.1219276 +22.7605508      616.146     69.38541      1.141     1.90    -11.50207     19.58072     136.3888         9     0.805     0.733  -5.06   0
        80    469.7447    744.7877 300.0969375 +22.7365481     124.0435      69.4031      1.068     3.90    -11.55657     19.58072     30.49261         5     0.721     0.715  11.21   0
        81    944.3819    743.6362 300.2451390 +22.8785487     2177.615      69.4031      1.040     1.87    -11.69318     19.58072     407.2001        17     0.869     0.815  79.51   0
        82    932.8157    735.0250 300.2443345 +22.8726092     952.5172     69.42077      1.189     1.83     -11.6177     19.58072     176.9371        10     0.742     0.700 -32.63   0
        83    295.4776    729.1419 300.0478280 +22.6797692     249.8824     69.43844      1.011     1.75    -11.15786     19.58072     80.11934         5     0.651     0.471  68.25   0
        84    758.9315    726.3973 300.1929513 +22.8180050     1292.031     69.38541      1.091     2.03    -11.53837     19.58072     219.9734        12     0.799     0.735 -67.74   0
        85    964.0068    725.2672 300.2572336 +22.8791554     764.9072     69.38541      1.070     1.63    -11.62417     19.58072     176.4518        10     0.816     0.641  52.22   0
        86    144.4786    713.0296 300.0061398 +22.6298268     327.6463      69.4031      1.268     2.90    -11.74874     19.58072      44.4231         6     0.772     0.489 -80.22   0
        87    841.6239    712.1227 300.2233600 +22.8386982     243.8566     69.42077      1.014     2.89    -11.46121     19.58072     54.23286         5     0.937     0.349  41.43   0
        88    877.5684    703.3645 300.2374114 +22.8469581     71581.66     69.42077      1.056     1.81     -11.4761     19.58072     11910.17        94     1.144     1.072 -86.59   0
        89   1023.8793    704.8378 300.2825500 +22.8912303     270.2026     52.77359      0.791     1.92    -11.72268     19.58072     103.0745         5     0.832     0.325 -88.09  24
        90    563.7490    692.3273 300.1432547 +22.7496954     660.9381      69.4031      1.083     2.21    -11.13058     19.58072     137.8388        10     0.840     0.726 -46.11   0
        91    745.0598    689.5630 300.2006110 +22.8032721     4538.429     69.42077      1.110     1.85    -11.47411     19.58072     784.5668        23     0.939     0.870  58.18   0
        92    246.6770    684.9608 300.0470271 +22.6524539     2380.522     69.38541      1.211     1.90    -11.19118     19.58072     400.4084        25     1.138     0.934  80.93   0
        93    328.6946    682.9728 300.0731715 +22.6764963      476.285     69.31465      1.068     1.71    -10.98743     19.58072     101.6084         7     0.662     0.602  76.73   0
        94    204.2038    680.7735 300.0351882 +22.6385059     246.0201     69.36773      1.158     3.88    -11.40446     19.58072     29.59679         6     0.770     0.560 -49.82   0
        95    536.9023    678.2436 300.1394792 +22.7376018     366.8521     69.40309      1.205     1.88    -10.94304     19.58072     76.09481         5     0.702     0.457  52.04   0
        96    528.5697    670.4406 300.1394235 +22.7328634     1596.551      69.4031      1.119     1.98    -10.87401     19.58072      231.733        17     0.971     0.815  71.42   0
        97    518.8126    664.2422 300.1384027 +22.7281583     706.6349     69.40309      1.202     1.85    -10.81429     19.58072     135.2004         9     0.759     0.678 -82.73   0
        98    912.2394    661.6864 300.2617741 +22.8453808     233.5149     69.38541      1.167     3.11    -11.32487     19.58072     39.94847         5     0.731     0.451 -10.82   0
        99    182.1626    660.2685 300.0350066 +22.6260109     252.7272     69.38541      1.108     2.88    -11.46079     19.58072     59.05166         5     0.831     0.444  48.51   0
       100    196.3790    658.7611 300.0399145 +22.6298455     326.7818     69.43844      1.255     3.88    -11.36327     19.58072     36.51401         6     0.875     0.509  45.09   0
       101    543.0334    654.4009 300.1491410 +22.7325987     164.8454     69.36773      1.148     3.85    -10.71477     19.58072      43.0899         5     1.041     0.407  64.70   0
       102    221.9281    655.4198 300.0489410 +22.6365551     187.4922     69.43844      1.327     3.79    -11.18698     19.58072      35.4632         5     0.761     0.614 -77.77   0
       103    443.6137    653.8608 300.1183805 +22.7026231     947.8661     69.36773      1.219     2.33    -10.74223     19.58072     141.3414        14     1.061     0.754  29.86   0
       104   1019.3140    651.3638 300.2985180 +22.8745017     317.2685     69.38541      1.082     2.43    -11.52248     19.58072     76.58341         9     0.918     0.618 -79.77  16
       105     97.6209    649.0959 300.0123736 +22.5974318     9606.046     69.31465      1.214     2.06    -11.58417     19.58072     1483.641        35     1.051     0.975  78.74   0
       106     18.5262    650.6429 299.9873061 +22.5741308      345.523     69.38541      1.087     2.63    -11.65874     19.58072     51.74926         5     0.683     0.481  73.83   0
       107    528.5296    649.3051 300.1462841 +22.7267864     590.7017     69.50908      1.168     2.20      -10.665     19.58072     81.76558         9     0.832     0.646  63.91   0
       108    946.4482    635.1790 300.2810592 +22.8480190     507.2258     69.42077      1.058     2.18    -11.25967     19.58072     94.72937         7     0.830     0.483 -80.04   0
       109     43.6511    633.1091 300.0008090 +22.5766475     707.1993     69.43844      1.518     4.42    -11.52859     19.58072     78.62907        14     1.444     0.638 -85.87   0
       110    813.6735    633.5378 300.2402076 +22.8077553      267.551     69.43844      1.094     3.60    -11.11683     19.58072     49.64028         6     0.722     0.699  -8.42   0
       111    886.7859    627.8793 300.2648334 +22.8280431     503.2721     69.40309      1.227     2.41    -11.19347     19.58072     77.32581         7     0.867     0.524 -68.61   0
       112    448.6343    622.1378 300.1302572 +22.6950271      387.599     69.42077      1.151     2.76    -10.40778     19.58072     67.89648         7     0.834     0.595  -7.20   0
       113    613.6580    617.9956 300.1829627 +22.7433294     350.4954     69.36773      1.732     3.90    -10.86124     19.58072     50.38283         5     1.480     0.295  51.24   0
       114    492.7541    618.1597 300.1452779 +22.7071188     440.5068     69.47377      1.239     2.46    -10.35648     19.58072     72.14954         6     0.767     0.493 -51.17   0
       115    458.5096    613.6625 300.1360851 +22.6955573     831.9261     69.49142      1.317     2.28    -10.32247     19.58072     116.5333        14     0.917     0.830  67.02   0
       116    926.5471    613.2986 300.2819692 +22.8357707      1596.45     69.49142      1.080     1.89    -11.15471     19.58072      262.435        16     0.868     0.804  82.81   0
       117     20.3354    607.3074 300.0019567 +22.5622515     2559.773     69.50908      1.195     2.14    -11.41589     19.58072     354.9932        20     0.976     0.893 -60.50   0
       118    321.7653    600.3713 300.0978748 +22.6507236     4456.116     69.42077      1.228     2.15    -10.74415     19.58072     673.0898        27     1.051     0.939 -89.77   0
       119    444.2471    597.2991 300.1369677 +22.6865840     4290.435     69.43844      1.196     2.09    -10.27113     19.58072     669.8954        27     1.037     0.942  73.20   0
       120    855.9075    591.1249 300.2671593 +22.8082331     879.5608     69.56201      1.147     1.85    -10.96665     19.58072     179.9519        10     0.770     0.691 -83.04   0
       121    940.4157    588.3696 300.2943982 +22.8327655     5952.265      69.4031      1.081     1.93    -11.13219     19.58072     952.8132        29     0.979     0.899  85.13   0
       122    504.8225    586.8835 300.1592015 +22.7017628     5582.126     69.36773      1.244     2.04    -10.26257     19.58072     927.2968        30     1.033     1.000  19.66   0
       123    232.2288    582.3774 300.0758895 +22.6186978     735.3757      69.4031      1.359     2.75     -11.0123     19.58072     90.69125        12     0.951     0.762  51.84   0
       124    478.6627    579.3623 300.1535063 +22.6917589     111.3217     69.42077      1.188     4.84    -10.26128     19.58072     30.66109         6     0.938     0.707 -11.30   0
       125    436.4405    575.0627 300.1417677 +22.6778617     2114.444     69.38541      1.201     2.14     -10.2661     19.58072     309.4817        20     1.040     0.831  66.71   0
       126    779.1050    574.7100 300.2485632 +22.7805009     441.9954     69.57965      1.165     3.77    -10.79022     19.58072     66.16861        10     1.111     0.713  83.82   0
       127    414.8978    573.5201 300.1355677 +22.6709576      611.107     69.52673      1.116     2.27     -10.2739     19.58072     90.54405         8     0.759     0.655 -74.84   0
       128    168.9208    572.9477 300.0592803 +22.5969963     362.7476     69.42077      1.232     2.78    -11.14323     19.58072     47.96555         7     0.838     0.540  50.24   0
       129    856.2139    570.2478 300.2740419 +22.8023287     858.8008      69.4031      1.238     2.55    -10.80683     19.58072     122.8062        13     0.978     0.841  26.90   0
       130    553.0656    562.6358 300.1820979 +22.7092702      99424.4      69.4031      1.254     2.14    -10.28481     19.58072     15187.68       135     1.300     1.266 -67.04   0
       131    736.8745    567.3690 300.2377934 +22.7657349     305.3631     69.42077      1.046     1.99    -10.67545     19.58072     63.67459         7     0.670     0.633 -34.52   0
       132    239.1310    562.5958 300.0844648 +22.6150948     1674.267     69.36773      1.184     2.25    -10.90065     19.58072      253.663        15     0.876     0.855 -81.21   0
       133    804.9251    558.6710 300.2618221 +22.7836332     276.9814     69.47377      1.128     3.15    -10.71463     19.58072     43.53588         5     0.745     0.436  16.94   0
       134    443.7404    542.9352 300.1544816 +22.6708315     1313.741     69.43844      1.310     2.21    -10.25635     19.58072     203.6809        15     0.990     0.789 -82.53   0
       135    840.7067    528.8713 300.2826587 +22.7857971     743.6869     69.52673      1.156     1.92    -10.59841     19.58072     148.7431        11     0.865     0.670  47.92   0
       136    711.8241    526.7614 300.2431899 +22.7465656     1191.748     69.42077      1.148     2.14    -10.45283     19.58072     197.8481        15     0.978     0.745  70.19   0
       137    499.0115    522.7166 300.1782501 +22.6816035      298.557     69.36773      1.013     2.22    -10.17883     19.58072     58.37732         7     0.776     0.628 -68.20   0
       138    969.0493    520.4552 300.3254028 +22.8218326     628.6724     69.43844      1.138     2.00    -10.85817     19.58072     113.2885        11     0.856     0.728  68.30   0
       139    841.0279    519.3656 300.2858483 +22.7831629     1067.894     69.42077      1.193     2.11    -10.58706     19.58072     153.6111        13     0.973     0.720 -75.29   0
       140    594.2706    517.2197 300.2096858 +22.7085872     433.2339     69.42077      1.333     2.80    -10.00212     19.58072      42.8088         5     0.876     0.353 -46.64   0
       141    879.0062    514.1912 300.2993669 +22.7930562     2179.077     69.26153      1.225     2.04    -10.62998     19.58072     389.1316        18     0.899     0.890  81.76   0
       142    970.6935    504.5277 300.3310922 +22.8177487     285.6546     69.52673      1.038     2.11    -10.70122     19.58072     66.91582         7     0.755     0.588 -74.62   0
       143    111.0304    504.7430 300.0634606 +22.5600636     440.0044     69.42077      1.289     2.52    -10.87403     19.58072     66.87574        10     0.850     0.733 -89.68   0
       144    652.8311    484.6388 300.2385068 +22.7167873     283.1806     69.40309      1.118     2.70    -10.11063     19.58072     55.68287         6     0.769     0.598  32.04   0
       145    966.7009    476.7549 300.3388728 +22.8085723     178.6064     69.42077      0.996     2.45    -10.45299     19.58072     45.50451         5     0.730     0.432  75.10   0
       146    713.2754    476.9026 300.2598451 +22.7326822     435.3992     69.54437      1.296     3.12    -10.36542     19.58072      58.3019         7     0.717     0.680  88.49   0
       147    870.5313    473.0302 300.3101018 +22.7786921     353.3182     69.38541      1.162     2.08    -10.53101     19.58072     68.72168         8     0.746     0.651   1.30   0
       148    598.9907    467.4646 300.2273238 +22.6957169     1589.272     69.38541      1.265     2.38    -9.631087     19.58072     208.7588        15     0.895     0.874  89.07   0
       149    959.0497    465.8031 300.3400458 +22.8031334     227.7027     69.40309      1.145     4.45    -10.45799     19.58072     53.75259         7     0.977     0.611  12.97   0
       150    438.9790    454.6330 300.1816952 +22.6440600     310.9976     69.40309      1.654     4.15    -10.16137     19.58072     24.21584         5     0.808     0.609  87.29   0
       151   1010.2372    446.2800 300.3623522 +22.8128547     698.7671     69.36773      1.124     2.40     -10.4261     19.58072     106.0335        11     0.840     0.759 -21.66   0
       152    881.9682    445.9902 300.3224528 +22.7743497     267.8976     69.40309      1.278     4.24    -10.50255     19.58072     43.34509         7     1.138     0.599  21.92   0
       153    968.6569    444.7248 300.3498905 +22.7999539     421.0712     69.43844      1.197     4.21    -10.45174     19.58072     78.28101        10     1.223     0.671  54.48   0
       154    709.7586    441.2808 300.2703241 +22.7213975     504.4161     69.36773      1.180     3.24    -10.33269     19.58072     73.17676        10     1.066     0.668  84.82   0
       155    505.1638    442.2942 300.2062974 +22.6603622     249.9948     69.40309      1.337     3.23    -9.899291     19.58072     35.32719         7     0.840     0.596 -27.52   0
       156    276.0550    435.5207 300.1372361 +22.5897146     1742.185     69.43844      1.261     2.30    -10.12083     19.58072      242.981        18     1.009     0.902 -85.01   0
       157   1008.9774    433.5719 300.3660883 +22.8088250     2151.792      69.4031      1.138     1.93    -10.42673     19.58072     384.8937        17     0.877     0.836  80.57   0
       158    223.1754    430.3145 300.1224899 +22.5723593     3685.554     69.36773      1.261     2.32    -10.12454     19.58072     500.1968        29     1.100     1.002 -79.28   0
       159    364.0275    424.4866 300.1681752 +22.6129318     2418.115      69.4031      1.309     2.25    -9.952931     19.58072     337.8308        22     1.105     0.935  58.09   0
       160    989.0420    424.6902 300.3627567 +22.8003017     866.8053     69.42077      1.118     1.83    -10.43924     19.58072     172.4369        11     0.827     0.688 -78.44   0
       161    608.1580    421.0888 300.2452452 +22.6851481     8900.004     69.40309      1.293     2.28     -9.77702     19.58072     1228.486        38     1.169     1.005  72.63   0
       162    625.2051    421.3518 300.2504674 +22.6903331     408.7031     69.38541      1.661     4.90    -9.907109     19.58072      33.1559         7     1.034     0.658  -7.49   0
       163    941.7590    403.0633 300.3550389 +22.7799247     364.4628     69.38541      1.195     3.69    -10.49922     19.58072     62.59854         6     0.988     0.459 -63.77   0
       164    162.8513    401.5045 300.1131013 +22.5459978      1033.58     69.47377      1.300     2.24    -10.41247     19.58072     148.7058        15     0.969     0.825 -73.21   0
       165    548.7947    390.6009 300.2366694 +22.6585997     3123.281     69.22609      1.331     2.35    -9.822992     19.58072     427.1638        24     1.094     0.967  68.91   0
       166    962.3887    390.8158 300.3654500 +22.7825835     540.5167     69.35004      1.155     2.41    -10.51949     19.58072     94.60614        11     0.924     0.696  43.49   0
       167    263.4907    389.7862 300.1481863 +22.5728223     276.2982     69.35004      1.086     3.05    -10.04478     19.58072     43.36656         7     0.917     0.489  82.34   0
       168    121.2400    383.3916 300.1060555 +22.5283184     294.1886      69.4031      1.440     4.19    -10.45687     19.58072     37.53503         6     0.733     0.684 -71.46   0
       169    662.1925    380.6848 300.2751950 +22.6897385      234.757     69.33235      1.290     3.65    -9.999063     19.58072     33.83925         5     0.987     0.389  85.76   0
       170    753.0655    379.4361 300.3039052 +22.7166095     575.0643     69.40309      1.435     2.98     -10.1641     19.58072     79.08431        10     0.959     0.719  50.13   0
       171    455.3704    376.8643 300.2120580 +22.6266497     3058.322     69.42077      1.301     2.46    -9.857924     19.58072     397.2996        25     1.065     1.003  46.75   0
       172    944.7981    371.2153 300.3663319 +22.7716818     324.9925     69.26153      1.385     3.09    -10.56902     19.58072     59.57086         7     0.929     0.730 -14.35   0
       173    847.4446    370.9041 300.3360850 +22.7424327     711.5675     69.42077      1.190     2.33    -10.44753     19.58072     115.8741        10     0.815     0.719 -23.57   0
       174    342.9087    356.0010 300.1838522 +22.5869419     1293.843     69.29694      1.315     2.58    -9.879838     19.58072     178.6321        18     1.092     0.900 -73.88   0
       175     61.3847    353.5597 300.0971506 +22.5018035     491.7559     69.42077      1.258     2.72     -10.5575     19.58072     66.68507         8     0.862     0.637 -87.62   0
       176    312.3164    345.5783 300.1777241 +22.5747770     14350.44     69.36773      1.290     2.37    -9.930401     19.58072     1682.682        51     1.222     1.096  78.65   0
       177    846.9791    342.9328 300.3450247 +22.7342555     663.7672     69.38541      1.123     1.91     -10.3579     19.58072     129.3365         9     0.730     0.667  74.07   0
       178      8.6248    333.4812 300.0872854 +22.4802147     2326.421     69.38541      1.226     2.22    -10.57964     19.58072     332.7778        22     1.058     0.909  67.47   0
       179    762.3564    331.5114 300.3223649 +22.7056241     309.6447      69.4031      0.999     3.45    -10.02016     19.58072     53.03526         5     0.765     0.449 -20.71   0
       180    722.6372    325.1166 300.3120681 +22.6918873     973.8918     69.38541      1.302     2.44    -9.888432     19.58072     149.3383        13     0.903     0.818  28.18   0
       181    938.1084    317.8380 300.3815819 +22.7543365     244.4415     69.40309      1.147     2.28    -10.60777     19.58072     46.01752         6     0.748     0.520 -38.86   0
       182    384.6043    309.9884 300.2117617 +22.5862344     998.4328     69.26153      1.476     3.54    -9.784247     19.58072     114.9486        18     1.266     0.872  50.20   0
       183    823.4875    302.5729 300.3508102 +22.7156207     276.0587     69.38541      1.008     2.95    -10.03477     19.58072     52.37239         6     0.870     0.420 -69.18   0
       184    460.3223    289.0527 300.2421145 +22.6029209     577.1157     69.43844      1.225     2.76    -9.817385     19.58072     76.24004        11     0.885     0.794  80.73   0
       185    705.2462    281.0084 300.3209734 +22.6740044     1070.542     69.42077      1.272     2.58     -9.84948     19.58072     136.5289        17     0.989     0.898  78.09   0
       186    966.3456    275.1866 300.4042360 +22.7505312     1534.833     69.40309      1.239     2.06    -10.51954     19.58072     240.5227        21     0.998     0.928  87.13   0
       187    413.7632    264.8673 300.2354815 +22.5820203     370.7607     69.38541      1.226     2.78    -9.594916     19.58072     58.10375         6     0.876     0.434  55.42   0
       188     88.2371    259.2218 300.1361210 +22.4827926     656.2742     69.42077      1.455     3.37    -10.03445     19.58072     72.33497        10     0.976     0.714 -58.89   0
       189    118.8264    258.8788 300.1457352 +22.4918688     456.1225     69.40309      1.496     4.24    -9.963395     19.58072     45.46038         9     1.084     0.670  12.74   0
       190    982.2211    255.6640 300.4155250 +22.7496718     215.4514     69.36773      1.252     3.62    -10.48569     19.58072      41.0733         7     0.848     0.603  24.13   0
       191    776.3196    241.9073 300.3558089 +22.6840587        310.3     69.54437      1.338     5.07    -9.864711     19.58072     47.69828         9     1.113     0.798 -29.55   0
       192    874.9558    231.3701 300.3899686 +22.7105700     1008.728     69.43844      1.248     2.28    -9.803027     19.58072     144.9894        16     1.068     0.808  55.73   0
       193    371.5824    223.9735 300.2356356 +22.5576341      597.377     69.42077      1.539     3.31    -9.592487     19.58072     56.77841         7     0.754     0.633 -68.26   0
       194    773.3244    222.5753 300.3611512 +22.6776057     187.9199     69.42077      1.180     3.54    -9.834566     19.58072      42.8658         6     0.904     0.467 -87.82   0
       195    293.6342    228.9301 300.2097870 +22.5356905     948.3851      69.4031      1.310     2.79    -9.521487     19.58072     124.5812        16     0.973     0.916   7.94   0
       196    188.4937    216.3112 300.1811999 +22.5005443      392.755     69.56201      1.472     4.52    -9.693733     19.58072     44.07996         7     0.872     0.664  86.48   0
       197    726.0327    212.7637 300.3496028 +22.6606213     868.5744     69.42077      1.345     2.43    -9.766935     19.58072     121.8946        12     0.925     0.775  65.71   0
       198    209.5111    209.4532 300.1899578 +22.5048776     212.7907     69.42077      1.409     3.64    -9.637888     19.58072     41.25882         5     0.937     0.496  85.51   0
       199    997.6074    205.1815 300.4367112 +22.7397629     356.4295     69.36773      1.123     2.74    -10.20193     19.58072     51.19456         7     0.772     0.628  72.99   0
       200    790.7969    212.5870 300.3698375 +22.6799680     341.3623     69.24381      1.396     3.37     -9.74092     19.58072     34.51962         5     0.783     0.419  22.97   0
       201    650.4754    203.6096 300.3290413 +22.6353577     538.7133     69.38541      1.272     2.77    -9.598419     19.58072     68.23184        11     0.930     0.769 -66.03   0
       202    845.9516    195.0442 300.3927196 +22.6914425     667.9734     69.43844      1.259     2.60    -9.582333     19.58072     104.9377        12     0.920     0.798 -67.63   0
       203    576.8241    195.4699 300.3087514 +22.6109540     533.0686     69.40309      1.499     3.65    -9.372952     19.58072      56.5591        11     0.906     0.834  88.77   0
       204    858.3190    193.7241 300.3970026 +22.6947663     465.7872     69.50908      1.450     3.98     -9.58259     19.58072     50.54614        10     0.981     0.801 -75.51   0
       205   1018.8582    184.7805 300.4499608 +22.7402577     854.5208     69.38541      1.277     2.23    -9.963998     19.58072     131.7558        13     0.897     0.793 -82.57  16
       206    974.6994    184.1200 300.4364032 +22.7268490     564.3987     69.52673      1.252     2.15    -9.739393     19.58072     92.82668         7     0.702     0.634 -76.07   0
       207    208.8714    177.7451 300.2000494 +22.4955837     355.5647     69.42077      1.281     3.69    -9.459827     19.58072      47.7443        10     1.012     0.776  77.31   0
       208     70.7310    172.5468 300.1588140 +22.4526696     990.1891     69.42077      1.290     2.76    -9.492815     19.58072     142.9389        14     1.002     0.819  82.63   0
       209    228.0447    165.8934 300.2098548 +22.4979296     2729.632     69.42077      1.319     2.40    -9.377438     19.58072     374.1261        22     1.011     0.972  77.15   0
       210     12.3439    160.2245 300.1446785 +22.4316228     665.9913      69.4031      1.279     3.08    -9.339495     19.58072     86.15997        11     0.926     0.810  34.94   0
       211    211.4399    156.7272 300.2076679 +22.4903200     316.5917     69.38541      1.418     4.18    -9.342317     19.58072     24.88301         7     1.032     0.484  82.94   0
       212    872.1280    147.1722 300.4164147 +22.6855178     1759.278     69.38541      1.276     2.14    -9.325017     19.58072     272.9509        21     1.046     0.923  84.93   0
       213    975.7792    145.7791 300.4491828 +22.7161469     1274.517      69.4031      1.200     2.17    -9.362536     19.58072     220.8457        13     0.872     0.770  58.16   0
       214    421.6587    142.5978 300.2776214 +22.5492725     309.7318     69.36773      1.320     3.40    -9.021482     19.58072     48.27748         7     0.918     0.756 -29.70   0
       215    345.7726    134.6804 300.2565862 +22.5242564     276.0657     69.42077      1.483     2.10    -9.156021     19.58072     44.46953         5     0.704     0.440  16.37   0
       216    472.8476    129.6181 300.2977595 +22.5608827     878.5267     69.43844      1.392     3.04    -8.957432     19.58072     105.8692        13     1.027     0.815  69.70   0
       217    401.0000    129.9924 300.2752849 +22.5394611     184.6169     69.22609      1.296     3.33    -9.037782     19.58072     35.32527         5     0.957     0.383  61.25   0
       218    247.0824    109.7133 300.2340008 +22.4875064     2924.988     69.52673      1.315     2.34    -9.122139     19.58072     391.2814        26     1.095     1.016  88.25   0
       219     98.0338    109.0673 300.1878916 +22.4426371     357.3403     69.40309      1.212     1.75     -9.35502     19.58072     64.34287         5     0.586     0.544  -2.71   0
       220    493.1441     94.9537 300.3153219 +22.5570052     3169.103     69.43844      1.374     2.41    -8.829977     19.58072     429.6678        27     1.109     1.044  86.89   0
       221    378.4016     94.6820 300.2797114 +22.5225469     285.0086     69.31465      1.336     2.96    -8.967731     19.58072     37.92028         6     0.809     0.535  42.28   0
       222    745.6453     84.6323 300.3972913 +22.6296671     446.5219     69.45611      1.323     3.51    -8.723879     19.58072     45.28543         5     0.801     0.481  45.25   0
       223    621.3651     75.0535 300.3616909 +22.5896956     3000.645     69.42077      1.328     2.35    -8.711892     19.58072     362.8039        23     1.079     0.985  64.25   0
       224    396.2798     74.1444 300.2919347 +22.5220049     664.3557     69.43844      1.310     2.84    -8.967731     19.58072     87.12356        11     0.912     0.779 -68.86   0
       225    662.6898     72.2781 300.3754597 +22.6012743      397.173     69.52673      1.210     2.40    -8.538679     19.58072     58.24361         6     0.682     0.617  29.06   0
       226    145.3569     66.7045 300.2163366 +22.4446638     311.7841     69.42077      1.363     3.40    -9.278615     19.58072      34.8222         5     0.759     0.442 -72.48   0
       227    948.4026     65.6986 300.4666281 +22.6849221     199.3198     69.29694      0.951     3.88    -9.129817     19.58072     38.74098         5     0.846     0.601  36.49   0
       228    716.9898     63.6814 300.3951609 +22.6150639     218.5627     69.36773      1.405     3.76    -8.574317     19.58072     35.64283         5     0.983     0.576  69.75   0
       229    680.9056     58.9359 300.3854608 +22.6028944     482.8738     69.49142      1.668     6.27    -8.509559     19.58072     42.55732        14     1.427     0.773  80.64   0
       230    665.5795     59.7049 300.3804382 +22.5985258     1322.935     69.31465      1.358     2.66    -8.525388     19.58072     161.9379        16     0.988     0.864  56.41   0
       231    752.1621     51.2296 300.4101571 +22.6220157     788.2209     69.43844      1.212     2.27    -8.583516     19.58072     111.0453        10     0.892     0.671 -12.02   0
       232    689.7806     44.3389 300.3929598 +22.6013560     336.3672     69.35004      1.154     3.40    -8.508382     19.58072     40.36673         5     0.741     0.450 -14.32   0
       233    495.9230     43.9230 300.3327401 +22.5431755     323.1245     69.49142      1.134     2.76    -8.677478     19.58072     74.49217         9     0.911     0.648  76.18   0
       234     68.8929     44.0129 300.1999407 +22.4152257     339.0117     69.33234      1.452     2.90    -9.440545     19.58072     48.32441         6     0.912     0.425  50.79   0
       235    399.5219     42.0129 300.3033654 +22.5137460     279.5783      69.4031      1.379     2.58    -8.967731     19.58072     43.31586         6     0.757     0.498 -85.64   0
       236    170.9933     32.3145 300.2354569 +22.4424747       1964.9     69.33234      1.400     2.56    -9.271504     19.58072     236.5933        22     1.120     0.964  49.14   0
       237    731.9560     24.3651 300.4125756 +22.6082424     442.9938     69.45611      1.401     2.72    -8.468161     19.58072     57.57574         9     0.849     0.691  71.99   0
       238    286.7429     24.0454 300.2741187 +22.4747912     675.8321     69.42077      1.586     4.07    -9.164454     19.58072     78.98042        12     1.221     0.877  66.98   0
       239    769.9275     19.0740 300.4261216 +22.6180896     277.1573     69.45611      1.362     3.79    -8.401263     19.58072     40.25182         5     0.696     0.594  87.66   0
       240    547.3172   1019.8373 300.0315507 +22.8387097     1097.243     68.97752      1.068     1.86    -12.92402     19.58072     221.3279        13     0.854     0.708  11.66  16
       241    496.0379     13.9415 300.3424996 +22.5345949     251.7019     69.42077      1.254     3.71    -8.590106     19.58072     27.31843         5     0.637     0.621  83.72   0
       242     80.4216    936.9853 299.9133704 +22.6747747     1981.134     69.38541     15.637    26.85    -8.762141     19.58072     48.01728       142     6.958     2.878 -24.91   3
       243    633.7415   1014.9216 300.0600533 +22.8632373     4200.692     69.43844      1.137     1.72    -13.32716     19.58072     839.5771        24     0.936     0.903  30.61   3
       244    639.3311   1012.6669 300.0625279 +22.8642681     4462.694     69.45611      1.076     1.84    -13.38517     19.58072     757.2333        22     0.918     0.859 -57.13   3
