#   1 NUMBER                 Running object number                                     
#   2 X_IMAGE                Object position along x                                    [pixel]
#   3 Y_IMAGE                Object position along y                                    [pixel]
#   4 ALPHA_J2000            Right ascension of barycenter (J2000)                      [deg]
#   5 DELTA_J2000            Declination of barycenter (J2000)                          [deg]
#   6 FLUX_APER              Flux vector within fixed circular aperture(s)              [count]
#   7 FLUXERR_APER           RMS error vector for aperture flux(es)                     [count]
#   8 FLUX_RADIUS            Fraction-of-light radii                                    [pixel]
#   9 FWHM_IMAGE             FWHM assuming a gaussian core                              [pixel]
#  10 BACKGROUND             Background at centroid position                            [count]
#  11 THRESHOLD              Detection threshold above background                       [count]
#  12 FLUX_MAX               Peak flux above background                                 [count]
#  13 ISOAREA_IMAGE          Isophotal area above Analysis threshold                    [pixel**2]
#  14 A_IMAGE                Profile RMS along major axis                               [pixel]
#  15 B_IMAGE                Profile RMS along minor axis                               [pixel]
#  16 THETA_IMAGE            Position angle (CCW/x)                                     [deg]
#  17 FLAGS                  Extraction flags                                          
         1    166.8638     16.1418 300.2354952 +22.4425047     1963.067     69.39885      1.338     2.33    -8.624627     19.56956      267.068        23     1.086     1.044  42.76   0
         2    282.7562      8.4456 300.2740180 +22.4750309     607.2393     69.39885      1.290     3.55    -8.730507     19.56956     87.96321        12     1.062     0.774 -76.66   0
         3    727.6975      8.1364 300.4126047 +22.6082276     413.6025     69.46945      1.220     3.04    -7.543319     19.56956     60.45638         7     0.766     0.597 -83.93   0
         4    765.9567      3.0765 300.4261660 +22.6182283     315.7844     62.50506      1.243     3.54     -7.76618     19.56956     50.08581         5     0.791     0.498  67.06  16
         5    689.0374      3.3126 300.4021255 +22.5952649      239.331     63.49711      1.312     4.24    -8.359216     19.56956     31.20039         7     0.745     0.689   7.32  16
         6    128.3525   1018.1567 299.8979248 +22.7182849     863.9036     69.39885      2.932     8.09     24.08313     19.56956     32.98573        12     1.996     0.915  -0.94  24
         7    291.4227   1023.8979 299.9467343 +22.7689111      309.604      52.6039      0.882     2.27    -12.93871     19.56956     81.40972         5     0.873     0.298   3.68  24
         8     70.3426    931.8932 299.9079894 +22.6761502     2086.531     69.41651     25.157    58.09    -7.766122     19.56956     59.08171       503    11.065     8.462 -31.02   3
         9     79.0298   1012.5796 299.8844195 +22.7018697     2734.307     69.36353     20.380    70.94      13.2456     19.56956      72.4346      1033    18.903     7.388  43.71  27
        10    543.0122   1003.6617 300.0315849 +22.8386493     1144.165     69.32818      1.085     1.89    -12.88109     19.56956     225.3716        11     0.917     0.654  72.33   0
        11    236.0774    987.8331 299.9412733 +22.7419564     4098.984     69.34586      7.848    28.62     7.859409     19.56956     101.2355       311     7.779     3.748  58.28  18
        12    199.6231    995.6495 299.9273985 +22.7332468     1311.595     69.36353     10.152    16.73     16.35896     19.56956     57.91424        31     3.454     2.253 -13.36   3
        13    195.0092   1000.6956 299.9243217 +22.7333065      1446.43     69.27513      4.920     7.23     18.46487     19.56956     52.70837        18     1.666     0.973 -16.43   3
        14    629.5239    998.9838 300.0600392 +22.8632731      4016.38     69.36353      1.156     1.92     -12.7248     19.56956     651.2749        27     1.009     0.949  86.38   3
        15    635.0713    996.6475 300.0625272 +22.8642679     4581.955     69.34586      1.159     1.96     -12.7248     19.56956     750.9059        27     1.001     0.931 -80.38   3
        16    163.2224    987.3240 299.9187980 +22.7199281     861.1092     69.34586      5.167    10.02     14.80206     19.56956     39.80331        15     2.388     1.173  62.77   2
        17    729.5215    999.4484 300.0910299 +22.8934130     379.6569     69.36353      1.252     2.85    -13.61902     19.56956      51.0575         6     0.861     0.434  70.62   0
        18     58.8021    971.5422 299.8914981 +22.6840396     2452.046     69.32818     19.887    30.96    -1.806068     19.56956     55.43998       227     6.228     4.273  63.54   3
        19    922.3628    982.4897 300.1566470 +22.9463965     345.0818     69.34586      1.064     2.18    -13.51748     19.56956      75.4108         6     0.769     0.479  86.55   0
        20     76.8335    963.7341 299.8996404 +22.6872202     2860.178     69.36353     25.678    66.81    0.5485968     19.56956     60.52068       983    12.953     9.563  59.08  19
        21    226.1508   1013.0763 299.9299686 +22.7462070     610.5474     69.36353      1.999     6.57     21.18274     19.56956     50.57755        14     1.515     0.998  58.87   0
        22    537.2507   1006.1152 300.0289928 +22.8376233     1190.999     69.34586      0.542     0.74    -12.89515     19.56956      796.294         5     0.474     0.315   8.06   0
        23    647.8146    966.0110 300.0764708 +22.8593066     3341.885     69.27513      1.206     2.00     -12.7248     19.56956     602.9307        21     0.993     0.838  54.24   0
        24    351.1604   1010.4673 299.9696823 +22.7830021     292.0309     69.32818      1.059     1.57    -13.14008     19.56956      65.1264         5     0.638     0.461 -25.67   0
        25    239.1788    960.4073 299.9511663 +22.7350299     -106.542     69.34586      0.853     2.41    -1.661589     19.56956     42.37377         5     0.717     0.440  22.73   0
        26    206.4955   1005.9633 299.9261760 +22.7382656      1095.85     69.36353      9.108    10.03     19.86002     19.56956     44.13573        24     2.328     1.205 -43.33   3
        27    167.6276   1004.3135 299.9146350 +22.7261181      1148.59     69.36353      6.425    12.71     20.77852     19.56956     47.08609        22     2.875     1.563 -39.97   2
        28    556.3803    956.6534 300.0510519 +22.8291841     724.2467     69.34586      1.085     2.05    -12.74204     19.56956     124.5613        14     0.952     0.859  58.65   0
        29    450.2071    953.2663 300.0191147 +22.7963447     388.6836     69.36353      1.043     1.93    -12.56896     19.56956     97.67547         6     0.676     0.565 -68.23   0
        30    380.7942    951.3990 299.9981305 +22.7749713     3161.257     69.18662      1.162     1.92    -12.57192     19.56956     585.4653        23     1.008     0.861  84.70   0
        31    220.3545    998.8099 299.9328124 +22.7403789     1526.445     69.38119      6.082    12.04     16.57459     19.56956     38.71328        25     3.264     1.237 -70.13   3
        32    215.4400    999.1636 299.9311699 +22.7390042     1439.902     69.43416      8.937    12.46     16.80281     19.56956     47.08115        35     3.413     1.265 -68.38  19
        33    927.0702    929.8865 300.1752420 +22.9327134     1002.821     69.46945      1.235     2.04    -12.94414     19.56956     197.4655        14     0.953     0.767  42.83   0
        34    715.6304    918.6255 300.1130178 +22.8660631     448.5041     69.36353      1.584     3.70    -12.72077     19.56956     65.13864        10     1.156     0.812  78.66   0
        35    213.4825    993.7705 299.9323175 +22.7368712     1805.006     69.38119     12.102    15.61     14.99278     19.56956      45.4773        59     3.612     1.876 -64.82   3
        36     93.7691    912.5334 299.9215674 +22.6776415     836.6706     69.36353      3.871     4.42    -8.004831     19.56956     35.08327         5     1.644     0.338  26.10   0
        37    772.8648    906.6792 300.1347364 +22.8798053     5593.319     69.46945      1.092     1.70     -12.7663     19.56956     1135.373        31     0.998     0.905 -71.40   0
        38    818.3215    906.5265 300.1489500 +22.8933960      190.233     69.46945      1.091     3.16    -12.82668     19.56956     40.20465         6     0.866     0.465  86.83   0
        39    750.5482    912.9824 300.1257319 +22.8749193     566.2385     69.34586      1.158     1.90    -12.75265     19.56956     96.10078         6     0.716     0.496  85.55   0
        40    478.0098    895.1760 300.0466749 +22.7880360     233.3644     69.36353      1.163     1.88    -12.32526     19.56956     61.01996         5     0.729     0.452 -54.16   0
        41    781.5026    888.7787 300.1432544 +22.8772605     711.0479     69.29282      1.068     2.08    -12.59506     19.56956     114.3323         8     0.698     0.658  43.82   0
        42    819.7724    882.4375 300.1572433 +22.8869193     427.8638     69.38119      1.052     2.49    -12.54762     19.56956     78.92303         6     0.759     0.594  27.48   0
        43    867.5723    873.3163 300.1751094 +22.8986370     248.1035     69.36353      0.967     2.71     -12.4958     19.56956     56.63276         7     0.911     0.492 -86.30   0
        44    719.2357    872.6514 300.1291054 +22.8539562     299.9557     69.38119      1.206     3.01    -12.38208     19.56956     54.25174         6     0.702     0.648 -88.89   0
        45    431.9992    868.9959 300.0408804 +22.7667204     2022.519     69.18662      1.186     1.88    -12.29896     19.56956     411.3391        20     0.972     0.847  67.54   0
        46    156.8308    854.6687 299.9599907 +22.6800025     477.2981     69.34586      1.587     4.33    -11.49162     19.56956     53.70794         7     1.025     0.533 -27.61   0
        47    134.1957    851.8733 299.9538675 +22.6724042     702.3546      69.3105      1.199     2.46    -11.53764     19.56956     126.6879        14     0.954     0.825 -53.06   0
        48   1005.9210    840.6478 300.2288771 +22.9307408     1136.109     69.36353      1.188     2.04    -12.21417     19.56956     184.3816        15     0.967     0.780  51.51   0
        49    960.2131    839.0903 300.2151299 +22.9165910     1058.956      69.3105      1.053     1.84     -12.2319     19.56956     225.6585        12     0.800     0.731 -32.80   0
        50    743.5417    832.8447 300.1496318 +22.8498261     241.8163     69.39885      0.966     2.12    -12.03378     19.56956     73.41742         5     0.718     0.453 -68.21   0
        51    166.4116    833.1286 299.9699767 +22.6767071     221.0394     69.38119      0.974     1.79    -11.51041     19.56956     52.37822         5     0.667     0.445  65.04   0
        52    611.8577    827.0651 300.1105014 +22.8086667     2361.299     69.39885      1.130     1.68    -12.17874     19.56956     530.4211        16     0.944     0.727  72.38   0
        53    414.2429    824.5218 300.0498292 +22.7486396     419.4088     69.34586      1.309     2.41    -11.93143     19.56956      81.9632         8     0.940     0.501  69.01   0
        54    162.1487    820.9199 299.9726244 +22.6719285      614.126     69.36353      1.150     1.86    -11.53032     19.56956     125.6898         9     0.824     0.625 -76.52   0
        55    632.4429    819.2772 300.1194450 +22.8126083     358.9149     69.34586      1.043     2.63    -12.06509     19.56956     70.93387         6     0.829     0.534  29.23   0
        56    787.9431    806.6846 300.1719778 +22.8556359     2019.044     69.45181      1.054     1.69    -11.68776     19.56956     441.4227        16     0.852     0.776 -89.32   0
        57   1004.7819    806.7071 300.2395668 +22.9206552     481.2328     69.29282      1.065     2.10    -11.55285     19.56956     118.6255        10     0.865     0.641  57.26   0
        58    505.0963    799.2756 300.0863115 +22.7686642     287.3278     69.50472      1.004     3.24    -11.70444     19.56956     62.06294         5     0.940     0.378  16.07   0
        59    151.1136    797.1505 299.9769288 +22.6618033     429.1853     69.36353      1.194     2.87    -11.58356     19.56956     70.23704         8     0.857     0.644  78.09   0
        60    300.9783    789.4597 300.0260117 +22.7045910     26132.71     69.34586      1.150     1.85    -11.43204     19.56956     4580.285        59     1.134     1.017  77.37   0
        61    558.8849    788.3852 300.1065958 +22.7816792     657.1769     69.32818      0.998     1.87    -11.73821     19.56956     134.2599        10     0.810     0.672  47.77   0
        62    971.4805    787.4555 300.2354455 +22.9051456     340.8459     69.39885      1.051     2.22    -11.58907     19.56956     78.05346         6     0.722     0.534 -43.56   0
        63    598.7663    782.8516 300.1208113 +22.7920563     419.5291     69.38119      1.134     3.01    -11.87324     19.56956       79.399         9     0.939     0.765  65.58   0
        64    587.9981    784.4545 300.1169374 +22.7892858     472.9837     69.29282      1.201     1.41    -11.83689     19.56956     94.58807         6     0.632     0.498   2.99   0
        65    741.5892    769.1443 300.1697499 +22.8309619     292.6198     69.36353      0.941     1.81    -11.59809     19.56956     87.13721         6     0.714     0.489  83.97   0
        66    350.6824    766.7194 300.0488653 +22.7129900     15197.98     69.50472      1.145     1.91    -11.32883     19.56956     2554.162        42     1.070     0.977  74.53   0
        67    365.1124    767.1998 300.0531968 +22.7174586     926.4131     69.27513      1.155     1.74     -11.3342     19.56956      201.894        12     0.915     0.668 -86.24   0
        68    873.7587    762.4156 300.2131251 +22.8686617     1273.365     69.38119      0.998     1.92    -11.62521     19.56956     261.5197        12     0.811     0.697  71.70   0
        69    361.6299    760.8654 300.0541743 +22.7145971     263.9194     69.38119      1.002     2.62    -11.28377     19.56956     55.54534         5     0.739     0.428  68.28   0
        70    631.6927    758.5731 300.1389614 +22.7949681     488.9937      69.3105      1.238     2.57    -11.66198     19.56956     69.95689         8     0.809     0.717  33.66   0
        71    233.0829    758.3347 300.0150297 +22.6752875     417.1236     69.46945      1.208     2.73    -11.28914     19.56956     76.55759         7     0.862     0.663  31.36   0
        72    478.6086    753.5242 300.0929530 +22.7475948      424.483     69.34586      1.227     2.53     -11.2162     19.56956      66.3519         7     0.786     0.634  72.51   0
        73    336.7914    748.7775 300.0503817 +22.7036766     133.5085     69.36353      1.295     3.66    -11.20023     19.56956     36.40708         5     1.161     0.332 -77.84   0
        74    554.4258    733.4124 300.1230908 +22.7645721     240.0911     69.36353      1.026     3.75    -11.46588     19.56956     46.89067         6     0.960     0.421 -17.25   0
        75    523.8265    731.2267 300.1142777 +22.7547655     237.8477     69.32818      1.008     1.93    -11.30155     19.56956     73.98203         7     0.787     0.525  32.33   0
        76    940.0648    727.6232 300.2451145 +22.8785503     2372.024     69.34586      1.108     1.75    -11.33656     19.56956     444.3938        17     0.865     0.824  80.68   0
        77    545.6976    728.8613 300.1218543 +22.7606482     728.1819     69.45181      1.120     1.81    -11.42364     19.56956     139.9122         9     0.786     0.634 -44.17   0
        78    627.2333    723.7802 300.1488905 +22.7836479     285.5117     69.36353      1.053     3.61    -11.38235     19.56956     41.75457         5     0.904     0.416 -44.67   0
        79    928.6542    719.1410 300.2443159 +22.8726946     729.3792     69.41651      1.043     1.71    -11.29203     19.56956     166.2453        10     0.901     0.592 -85.89   0
        80    291.3622    713.1888 300.0478310 +22.6798379     403.1189     69.34586      1.376     2.53     -11.1252     19.56956     60.41788         8     0.843     0.617 -87.47   0
        81    754.7881    710.2847 300.1930083 +22.8180277     1166.842      69.3105      1.122     1.66    -11.19829     19.56956     227.1453        13     0.837     0.719  47.28   2
        82    959.5600    709.1686 300.2571962 +22.8790947     824.9149     69.38119      1.040     1.79    -11.24235     19.56956     172.6711        11     0.869     0.721 -28.74   0
        83    140.2931    696.8989 300.0061745 +22.6298216     309.2177     69.53998      1.318     4.47    -11.27048     19.56956      52.0424        10     1.066     0.799  80.85   0
        84    836.8199    695.8498 300.2232646 +22.8384789     336.3629     69.34586      1.296     2.54    -11.06828     19.56956     64.87923         6     0.984     0.506  65.52   0
        85    873.3285    687.3668 300.2374027 +22.8469878     71784.27     69.36353      1.060     1.67    -11.00445     19.56956      14056.2        97     1.148     1.064  83.41   0
        86   1020.2957    689.0257 300.2826892 +22.8915125     716.7667     68.02554      1.084     1.83     -11.1432     19.56956     135.0876        10     0.788     0.684 -85.27  16
        87    726.0029    687.7789 300.1913605 +22.8029370     382.2933      69.3105      1.182     3.02    -10.99219     19.56956     73.01261         7     0.949     0.503  40.11   0
        88    559.5037    676.2871 300.1432504 +22.7497063     862.6155     69.53998      1.152     2.12    -10.88644     19.56956     138.8608        16     1.099     0.928 -77.01   0
        89    740.8463    673.5150 300.2006233 +22.8032936     4579.331     69.34586      1.095     1.80    -10.85754     19.56956     786.2908        27     0.997     0.918  88.82   0
        90    242.3550    668.7872 300.0470346 +22.6523985     2434.955     69.38119      1.167     2.10    -11.05501     19.56956     387.2125        21     1.017     0.870 -88.60   0
        91    324.4006    666.9181 300.0731509 +22.6764848     505.4066     69.23974      1.135     1.93    -10.97157     19.56956     105.0471         7     0.693     0.608  84.03   0
        92    199.6412    664.8928 300.0350245 +22.6384617     369.3989     69.36353      1.500     4.37    -11.04612     19.56956     78.74987         6     1.092     0.499 -63.42   0
        93    532.6969    662.2181 300.1394813 +22.7376291     423.1545     69.27513      1.066     2.22    -10.74372     19.56956     64.84586         7     0.776     0.563  60.51   0
        94    524.2223    654.3730 300.1393946 +22.7328363     1488.756     69.34586      1.130     1.93    -10.67818     19.56956     264.7564        13     0.923     0.685  65.50   0
        95    514.4514    648.1967 300.1383618 +22.7281335     627.8925     69.36353      1.064     2.28    -10.62973     19.56956     121.5465        10     0.830     0.705  75.51   0
        96    908.2114    645.6174 300.2618538 +22.8454561     195.0661     69.32818      0.988     2.03    -10.90235     19.56956     48.33413         5     0.672     0.466 -16.66   0
        97    177.8771    644.2548 300.0349709 +22.6260123     376.0504     69.39885      1.189     2.87     -10.9252     19.56956     54.95036         7     0.767     0.692 -47.55   0
        98    192.1689    642.8192 300.0398792 +22.6298903     389.4516     69.36353      1.463     2.89     -10.9109     19.56956     47.38114         7     0.819     0.634 -54.74   0
        99    538.3331    638.3862 300.1489846 +22.7324819     248.1506     69.34586      1.005     3.14    -10.56518     19.56956     48.20063         5     0.957     0.346 -68.96   0
       100    217.7550    639.2329 300.0489974 +22.6365414     212.8352     69.41651      1.184     4.25    -10.86869     19.56956     35.64815         7     0.881     0.584  52.50   0
       101    439.2786    637.8797 300.1183246 +22.7026237      971.116     69.48709      1.177     1.99    -10.55141     19.56956      155.833         9     0.776     0.650  33.04   0
       102   1014.9507    635.0880 300.2985625 +22.8744194     385.0057     69.36353      1.109     2.25    -10.79273     19.56956      74.3646         8     0.776     0.606  66.15   0
       103     93.3621    633.0270 300.0123618 +22.5974243     9697.226     69.38119      1.230     2.21    -10.94737     19.56956     1420.544        41     1.122     1.006  73.57   0
       104     13.9205    635.0209 299.9870394 +22.5741459     235.1749     69.36353      1.332     4.99    -11.00048     19.56956     37.71296         8     1.091     0.646 -33.12   0
       105    524.3036    633.1624 300.1463165 +22.7267751      551.702     69.36353      1.218     2.18    -10.52543     19.56956     87.92591         9     0.828     0.647 -23.44   0
       106    942.1378    619.0573 300.2810676 +22.8479962     478.6391     69.41651      1.024     1.68    -10.79856     19.56956     125.1077         8     0.835     0.592  30.18   0
       107     39.3292    617.3678 300.0006692 +22.5767148     669.9973     69.36353      1.664     6.24    -10.84506     19.56956     61.20468        16     1.485     0.738  89.79   0
       108    882.4840    611.9071 300.2647942 +22.8280651     371.7651     69.53998      1.113     2.07    -10.78109     19.56956      72.8281         6     0.727     0.478 -74.60   0
       109    444.3526    606.1628 300.1302148 +22.6950470     397.7217     69.39885      1.139     2.63    -10.36902     19.56956     65.00851         7     0.904     0.468 -82.87   0
       110    610.0148    602.7330 300.1828911 +22.7437483     282.8517     69.34586      1.075     2.17    -10.29254     19.56956     50.81196         5     0.745     0.461  63.34   0
       111    488.4477    602.0294 300.1452792 +22.7070877     495.9545     69.38119      1.227     1.96    -10.35572     19.56956      86.6434         8     0.722     0.660  -3.15   0
       112    922.2466    597.3177 300.2819336 +22.8357918     1622.805     69.34586      1.026     1.70    -10.74341     19.56956     344.0545        12     0.786     0.716  83.40   0
       113    454.0864    597.4603 300.1360724 +22.6954701     786.2532     69.45181      1.191     2.14    -10.36393     19.56956     131.6199        11     0.827     0.764  78.43   0
       114   1020.2745    595.0482 300.3132414 +22.8645134     325.4215     68.09756      1.249     2.59    -10.59295     19.56956     76.55155         6     0.935     0.466 -39.43  16
       115     16.1096    591.1469 300.0019814 +22.5622282     2533.124     69.39885      1.299     2.35    -10.76542     19.56956      353.573        21     1.065     0.869  80.65   0
       116    962.0153    587.2147 300.2976183 +22.8448072     233.8938      69.3105      1.072     2.56    -10.66969     19.56956     38.27813         5     0.779     0.476  57.55   0
       117    317.5575    584.2352 300.0979038 +22.6507181     4464.553     69.41651      1.213     2.07    -10.50104     19.56956     673.9523        30     1.078     1.001  51.06   0
       118    439.9800    581.1979 300.1369697 +22.6865730     4304.043     69.29282      1.234     1.99    -10.35977     19.56956     735.5598        27     1.055     0.949  54.86   0
       119    851.6169    575.0775 300.2671459 +22.8082380      921.426     69.36353      1.151     2.21     -10.7022     19.56956     156.7644        11     0.878     0.669  81.84   0
       120    936.1980    572.4249 300.2943759 +22.8328232     6044.099      69.3105      1.058     1.80    -10.66713     19.56956     1166.844        28     0.955     0.889 -81.84   0
       121    500.5058    570.7883 300.1591871 +22.7017401     5598.351      69.3105      1.161     1.99    -10.24276     19.56956     870.2272        28     1.066     0.876  72.21   0
       122    669.9685    566.7045 300.2132725 +22.7513836     224.2154      69.3105      0.979     2.32    -10.06411     19.56956     59.78667         6     0.815     0.474 -41.78   0
       123    228.0454    566.2383 300.0759243 +22.6186982     685.0773     69.41651      1.207     2.28    -10.63842     19.56956     110.9087        10     0.817     0.708  57.22   0
       124    432.1298    558.9504 300.1417587 +22.6778353     2220.494     69.36353      1.285     2.14     -10.3559     19.56956     347.2442        20     1.017     0.867  80.45   0
       125    775.0269    558.7509 300.2485848 +22.7805941     381.0159     69.38119      1.139     1.76    -10.58442     19.56956     75.74237         7     0.658     0.617  -0.87   0
       126    410.4840    557.3240 300.1355533 +22.6708760     576.5043     69.46945      1.173     2.73    -10.36666     19.56956     101.2937        10     0.989     0.658 -57.06   0
       127    164.8591    556.8082 300.0593512 +22.5970323     334.1326     69.32818      1.187     2.68    -10.67216     19.56956     49.97778         6     0.721     0.572  51.31   0
       128    851.9562    554.3443 300.2739911 +22.8023857     698.3858     69.36353      1.186     2.00    -10.66702     19.56956     120.0898        10     0.833     0.644 -77.24   0
       129    548.7820    546.4623 300.1821194 +22.7092370     100894.7     69.32818      1.201     2.01    -9.827084     19.56956     15645.28       133     1.282     1.219  86.21   0
       130    732.2959    551.1862 300.2377306 +22.7656135     423.9831     69.29282      1.179     2.24     -10.4771     19.56956     71.26643         6     0.772     0.491  55.00   0
       131    235.0053    546.6355 300.0844588 +22.6151647     1759.662     69.38119      1.256     2.10     -10.6037     19.56956     266.2901        17     0.977     0.860  57.52   0
       132    800.6562    542.1926 300.2619529 +22.7835214     330.5575     69.34586      1.069     2.35    -10.55863     19.56956     50.48375         5     0.724     0.436 -70.93   0
       133    439.3598    526.7333 300.1544788 +22.6707600     1325.256     69.32818      1.228     2.23    -10.21941     19.56956     176.3676        14     0.946     0.744  74.06   0
       134    756.4095    515.3621 300.2568861 +22.7625554     251.8951     69.38119      1.186     3.88    -10.24588     19.56956     33.34476         5     0.981     0.440  75.54   0
       135    836.3484    512.9238 300.2825887 +22.7858128     790.0065     69.38119      1.144     1.83    -10.46032     19.56956     150.3707        14     0.915     0.764  85.43   0
       136    707.5063    510.6952 300.2431681 +22.7465572     1315.062     69.52235      1.117     2.06    -10.02652     19.56956     204.3237        15     0.902     0.767  69.52   0
       137    494.9862    506.5742 300.1783390 +22.6816575     416.2919     69.36353      1.236     2.44    -9.958662     19.56956     60.39334         9     0.865     0.631  63.67   0
       138    965.1159    504.3393 300.3255228 +22.8219299     621.2355     69.46945      1.106     2.07    -10.45092     19.56956     132.4647        12     0.929     0.792  -9.01   0
       139    950.4769    503.4557 300.3212450 +22.8172903     456.0619     69.39885      1.012     2.30     -10.4488     19.56956     62.00591         6     0.791     0.451  70.79   0
       140    836.5935    503.0554 300.2858721 +22.7830521       1136.3     69.34586      1.287     4.39    -10.41377     19.56956       161.23        13     1.183     0.694  73.73   0
       141    589.8233    499.6581 300.2101064 +22.7081091      390.868     69.36353      1.872     4.07    -9.751369     19.56956     42.46828         6     1.768     0.267  81.04   0
       142    874.6729    497.9774 300.2993915 +22.7930043     2029.182     69.41651      1.112     1.85    -10.58277     19.56956      396.121        19     0.935     0.819  66.92   0
       143    536.0004    494.9579 300.1948787 +22.6906222     277.1825     69.38119      1.509     3.02    -9.790051     19.56956     28.06806         5     0.628     0.595  89.98   0
       144    966.4072    488.2976 300.3311385 +22.8177081     395.8398     69.23974      1.153     2.94    -10.39613     19.56956     68.16432         7     0.887     0.550 -64.32   0
       145    106.9629    488.7010 300.0634939 +22.5601279     505.2242     69.36353      1.260     2.10    -10.52726     19.56956     76.48267         8     0.751     0.645 -46.28   0
       146    648.0842    468.6025 300.2383385 +22.7166597     306.1806     69.29282      1.086     2.13    -9.720083     19.56956     66.91423         7     0.683     0.654 -59.97   0
       147    962.5589    460.7300 300.3388962 +22.8086351     259.6648     69.32818      1.110     2.38    -10.25886     19.56956     47.33794         5     0.677     0.484  76.45   0
       148    708.8344    460.8770 300.2597697 +22.7326508     430.0308     69.32818      1.275     2.56    -9.836012     19.56956     86.48197        10     0.913     0.753  -7.81   0
       149    866.1434    456.7099 300.3101421 +22.7785948     486.8218     69.41651      1.063     2.26    -10.33777     19.56956     80.81411         9     0.855     0.616  69.18   0
       150    850.5409    453.3466 300.3063715 +22.7729538     356.3418     69.41651      1.338     2.83    -10.21605     19.56956      39.7163         5     0.695     0.474 -72.28   0
       151    594.7352    451.3951 300.2273173 +22.6957269     1596.876     69.34586      1.271     2.32    -9.714134     19.56956     234.5083        16     0.950     0.898 -78.50   0
       152    955.3157    450.2665 300.3400373 +22.8034590     183.5921     69.46945      0.875     1.79    -10.19321     19.56956     59.02911         5     0.676     0.441  73.36   0
       153   1006.0529    430.2742 300.3623560 +22.8129123      698.116     69.38119      1.200     2.05    -10.11248     19.56956     132.0257        13     0.910     0.788  37.66   0
       154    877.6783    430.4917 300.3222559 +22.7745193     164.6388     69.50472      1.115     2.87    -10.05839     19.56956      56.1104         5     0.882     0.499  -1.68   0
       155    964.3798    428.9572 300.3497870 +22.8000515     359.5446     69.39885      1.075     2.42    -10.07821     19.56956     71.29988         7     0.737     0.589 -78.02   0
       156    705.3196    425.2591 300.2702465 +22.7213692     485.1757     69.41651      1.098     2.36    -9.816072     19.56956      87.2327         8     0.822     0.607 -88.23   0
       157    209.6562    423.7890 300.1164936 +22.5723234     347.7359     69.34586      1.428     3.79    -9.882898     19.56956     62.33743         6     0.919     0.449  54.97   0
       158    271.7314    419.3635 300.1372281 +22.5896748     1717.957     69.34586      1.231     2.36    -9.698321     19.56956     259.3691        20     1.065     0.880  60.87   0
       159   1004.6786    417.5945 300.3660466 +22.8088571     2024.231     69.29282      1.092     1.91    -10.05053     19.56956     351.1695        17     0.861     0.839  79.10   0
       160    218.9811    414.1122 300.1225353 +22.5723448     3640.891      69.3105      1.261     2.20    -9.729711     19.56956     593.1888        24     1.080     0.877  72.43   0
       161    984.6512    408.5316 300.3627444 +22.8002542     801.3173     69.34586      1.048     2.06    -10.02897     19.56956     157.4691        10     0.930     0.568 -83.98   0
       162    359.6950    408.3807 300.1681494 +22.6129062     2376.968     69.27513      1.241     2.22     -9.59696     19.56956     344.2698        23     1.055     0.936 -89.08   0
       163    603.8746    404.9895 300.2452381 +22.6851434      8945.64     69.36353      1.272     2.11    -9.623866     19.56956     1426.346        37     1.117     1.011  68.96   0
       164    620.5870    405.2094 300.2503704 +22.6902160      513.038     69.25744      1.814     4.71    -9.623866     19.56956     42.48934         7     1.140     0.553 -53.43   2
       165    937.3804    387.2315 300.3549222 +22.7799748      400.351     69.36353      1.189     3.06    -10.00446     19.56956     50.30467         7     0.816     0.592 -68.99   0
       166    158.7096    385.3396 300.1131483 +22.5460100      1103.97     69.45181      1.297     2.49    -10.09546     19.56956     132.9166        13     0.969     0.720  59.06   0
       167    544.5540    374.4857 300.2366781 +22.6586036     3241.865     69.34586      1.207     2.16     -9.40515     19.56956     449.3271        25     1.087     0.919  75.48   0
       168    958.1807    374.4775 300.3655510 +22.7825401     574.5052     69.36353      1.081     1.92    -10.02063     19.56956     115.6997        10     0.830     0.644  82.61   0
       169    259.3183    373.8823 300.1481409 +22.5729024      367.041     69.48709      1.219     2.06    -9.580547     19.56956     66.79469         8     0.828     0.629  42.69   0
       170    116.7345    366.5964 300.1061925 +22.5280407     360.9244     69.38119      1.219     3.86    -10.06196     19.56956     45.26577         6     1.067     0.423  82.55   0
       171    748.7505    363.3744 300.3038776 +22.7166104     593.0728     69.38119      1.269     2.64    -9.563281     19.56956     73.20535        10     0.903     0.688  89.27   0
       172    451.1474    360.7422 300.2120717 +22.6266559     2986.033     69.41651      1.298     2.36    -9.446484     19.56956     409.4013        24     1.111     0.902  75.82   0
       173    843.2150    354.9353 300.3360557 +22.7424879      692.308     69.34586      1.181     2.33    -9.897501     19.56956     114.8596        10     0.849     0.728  76.79   0
       174    940.3953    354.9901 300.3663342 +22.7716132     273.4775     69.22204      1.039     1.88    -10.02346     19.56956     62.23491         6     0.727     0.489 -89.36   0
       175    435.6814    349.5219 300.2109033 +22.6187981      296.075     69.46945      1.248     4.82     -9.39879     19.56956     33.49741         6     0.988     0.666 -62.59   0
       176    519.2640    347.0529 300.2377153 +22.6431465     245.7172     69.39885      1.319     4.06    -9.323376     19.56956     37.87267         6     1.232     0.382  79.16   0
       177    815.9543    342.3784 300.3316374 +22.7307137     319.6659     69.41651      1.393     4.48    -9.808087     19.56956     37.39427         9     0.971     0.804  48.41   0
       178    338.8804    340.0010 300.1838833 +22.5870405     1265.694     69.25744      1.285     2.19     -9.41981     19.56956     188.8482        15     1.093     0.714  73.20   0
       179     57.1507    337.2977 300.0971962 +22.5017605      595.118     69.41651      1.227     2.62     -10.0941     19.56956     73.71896         9     0.820     0.687 -81.25   0
       180    308.0754    329.4431 300.1777318 +22.5747730      14714.9     69.34586      1.276     2.28    -9.427017     19.56956     2030.319        46     1.189     1.014  80.23   0
       181    842.7086    326.6840 300.3450725 +22.7342192     720.2598     69.52235      1.153     2.03    -9.832544     19.56956     140.7101        10     0.839     0.609  84.39   0
       182      4.4527    317.3679 300.0872999 +22.4802330     2516.342     67.44659      1.253     2.26    -10.16304     19.56956     311.1118        21     1.018     0.915  75.48  16
       183    758.2230    315.5042 300.3223745 +22.7056974     237.2542     69.27513      1.076     2.30     -9.42855     19.56956     50.19558         5     0.701     0.480 -16.07   0
       184    718.4974    308.9095 300.3121394 +22.6919009     904.3089     69.53998      1.170     2.37      -9.3141     19.56956     138.1657        16     1.055     0.774  73.73   0
       185    933.7143    301.7312 300.3815461 +22.7543067     329.6039     69.45181      1.305     4.37    -10.02205     19.56956     38.85201         7     1.036     0.525 -63.23   0
       186    380.3808    293.8295 300.2117828 +22.5862316     1066.737     69.36353      1.450     2.92    -9.348425     19.56956     121.6871        16     1.219     0.741  68.50   0
       187    819.0939    286.3688 300.3508029 +22.7155618     393.1041     69.29282      1.105     2.90    -9.539262     19.56956     73.19604         6     0.917     0.426  16.20   0
       188    456.0767    273.0586 300.2420761 +22.6029610     477.2794     69.39885      1.123     2.35     -9.32972     19.56956     80.78809         9     0.760     0.721 -61.03   0
       189    700.9327    264.8582 300.3209699 +22.6739839     1084.376     69.39885      1.321     2.39     -9.27177     19.56956     175.3268        13     0.937     0.775  77.98   0
       190    962.1826    259.1933 300.4042343 +22.7506056     1548.612     69.32818      1.187     1.87    -10.01635     19.56956     288.1093        16     0.977     0.746  80.06   0
       191    409.1744    248.4561 300.2354696 +22.5818380     381.9018     69.36353      1.492     3.37     -9.13236     19.56956     35.96357         5     0.763     0.430  23.50   0
       192     84.2789    242.9975 300.1362367 +22.4828478     753.9072     69.27513      1.565     3.68     -9.76712     19.56956     89.09305        11     1.143     0.672 -54.70   0
       193    114.6459    242.8204 300.1457287 +22.4919055      329.568     69.41651      1.278     3.38    -9.636006     19.56956     33.28107         5     0.772     0.430  70.86   0
       194    772.2802    226.0897 300.3557829 +22.6842188     306.8045     69.48709      1.198     2.89    -9.324597     19.56956     47.66948         8     0.782     0.691 -49.51   0
       195    363.4337    225.3319 300.2287466 +22.5614874     319.0783     69.36353      1.289     3.47    -9.041761     19.56956     36.61454         5     0.781     0.446  70.35   0
       196    870.8073    215.3189 300.3899863 +22.7106324     1112.855     69.29282      1.209     2.16    -9.560657     19.56956     166.7889        12     0.961     0.646  74.01   0
       197    289.3324    212.7883 300.2097727 +22.5356711     1028.036     69.36353      1.329     2.62    -8.937469     19.56956     119.0758        13     0.932     0.810  64.98   0
       198    367.1588    207.9460 300.2355480 +22.5576127     464.9586     69.34586      1.308     2.32    -9.007817     19.56956     75.29517         8     0.793     0.636  43.59   0
       199    768.9879    206.8910 300.3609885 +22.6777160     238.3759      69.3105      1.292     3.01    -9.186736     19.56956     39.25163         6     0.854     0.648 -51.39   0
       200    183.9598    200.0150 300.1811606 +22.5004098     391.5663     69.38119      1.236     2.67    -9.060962     19.56956     73.01347         7     0.929     0.517  56.19   0
       201    786.6290    196.5312 300.3698479 +22.6800227     225.0438     69.34586      1.161     3.18    -9.167418     19.56956     47.14513         7     0.931     0.516  55.09   0
       202    721.8534    196.7128 300.3496065 +22.6606729     754.6318     69.39885      1.201     2.09    -9.024579     19.56956     132.0366        11     0.871     0.714  77.63   0
       203    993.2532    189.0641 300.4366880 +22.7397480     441.5454     69.39885      1.132     2.36    -9.554121     19.56956     99.70845         8     0.894     0.588  83.51   0
       204    725.7267    188.2215 300.3535690 +22.6593933     276.9804     69.36353      1.228     3.20    -8.946254     19.56956     47.45174         7     0.835     0.597  52.07   0
       205    646.2287    187.3416 300.3290923 +22.6353259     558.3942     69.36353      1.136     2.29    -8.961473     19.56956     81.92802        11     0.819     0.775  52.14   0
       206    841.5995    178.8665 300.3927126 +22.6914088     767.2578     69.32818      1.233     3.02    -9.309305     19.56956     121.9035        12     1.032     0.685  71.84   0
       207    572.3236    179.1586 300.3087354 +22.6108328     481.6959     69.32818      1.183     2.65    -8.880932     19.56956     65.00685         9     0.917     0.621  59.02   0
       208    853.7784    178.1967 300.3967262 +22.6948633     434.7135     69.32818      1.376     3.27    -9.366772     19.56956     69.51973         9     0.997     0.711  85.96   0
       209   1014.5376    168.7647 300.4499148 +22.7402833     761.9777     69.38119      1.126     2.15    -9.235066     19.56956     130.1182        12     0.822     0.768 -14.02   0
       210    970.4219    168.1411 300.4363576 +22.7268974     661.1113     69.36353      1.227     2.16    -9.353174     19.56956     105.6612        12     0.959     0.702 -57.43   0
       211    204.6256    161.6398 300.2000365 +22.4955925     333.2635     69.39885      1.160     3.47    -8.799361     19.56956     50.80453         7     0.931     0.528  30.17   0
       212     66.4626    156.5199 300.1587653 +22.4526919     1000.027     69.46945      1.305     2.60    -8.934213     19.56956     125.6613        15     1.019     0.810  66.24   0
       213    889.6855    153.0119 300.4160924 +22.6983759     349.8751      69.3105      1.123     2.26    -9.325383     19.56956     71.75285         6     0.808     0.471  51.90   0
       214    223.8774    149.6965 300.2098960 +22.4979364      2811.99     69.48709      1.326     2.46    -8.777015     19.56956     401.6841        24     1.096     0.925  82.15   0
       215      8.0301    144.1911 300.1446159 +22.4316292     577.8961     69.36353      1.245     2.50    -8.749465     19.56956     81.42304        10     0.823     0.741 -88.26   0
       216    207.2912    140.3109 300.2077854 +22.4902695     185.0081     69.52235      1.103     3.33    -8.753306     19.56956     52.09135         8     1.047     0.548  39.79   0
       217   1022.5690    136.9173 300.4627545 +22.7335298     8744.258      59.6971      1.153     2.06     -9.12076     19.56956     1434.488        32     1.092     0.886  87.22  24
       218    867.8910    130.9749 300.4164486 +22.6855155      1711.22      69.3105      1.259     2.02     -9.07268     19.56956     296.8889        19     1.026     0.840  68.94   0
       219    971.5935    129.7144 300.4491921 +22.7161998     1358.814     69.29282      1.124     2.07    -9.214199     19.56956     222.9285        14     0.929     0.769  63.21   0
       220    417.5812    126.2132 300.2777551 +22.5492567     305.4148     69.32818      1.254     3.37    -8.632867     19.56956     43.41769         6     0.742     0.637  38.29   0
       221    341.9414    118.2153 300.2568204 +22.5242904     415.4053     69.34586      1.785     4.15    -8.873571     19.56956     41.85495         8     1.146     0.717 -13.07   0
       222    107.5715    115.6646 300.1847914 +22.4532957     381.1463     69.36353      1.162     2.73    -8.811125     19.56956     45.99962         5     0.693     0.470  72.21   0
       223    468.6723    113.6848 300.2977170 +22.5609687     841.4306     69.46945      1.341     2.43    -8.534242     19.56956     102.9282        11     0.839     0.775 -83.72   0
       224    242.8658     93.5946 300.2339995 +22.4875238     2884.704     69.36353      1.300     2.30    -8.660149     19.56956     438.4355        27     1.186     0.973  80.17   0
       225     93.5645     93.2359 300.1877151 +22.4426587     365.9025     69.43416      1.591     6.25    -8.742931     19.56956      44.4777         8     1.356     0.808 -24.27   0
       226    488.8741     78.9194 300.3152817 +22.5570357     3122.994     69.46945      1.327     2.48     -8.40134     19.56956     456.5885        24     1.124     0.930  65.02   0
       227    374.2829     78.4195 300.2797895 +22.5225552     452.7404      69.3105      1.610     3.97    -8.633102     19.56956     46.13593         6     1.056     0.428  53.48   0
       228    741.5068     68.3492 300.3973782 +22.6296702     242.3915     69.43416      1.094     3.00    -8.116618     19.56956      53.5649         6     0.836     0.514  49.07   0
       229    617.1853     58.9170 300.3617141 +22.5897267     3060.543     69.32818      1.299     2.41    -8.373457     19.56956     428.9853        24     1.121     0.931  69.72   0
       230    391.9996     58.0305 300.2919141 +22.5220087     739.8658     69.32818      1.419     3.01    -8.454442     19.56956      106.741        15     1.078     0.867  84.99   0
       231    728.4071     55.0339 300.3976159 +22.6219203     181.5482     69.36353      1.783     4.84    -8.031208     19.56956      24.3577         5     1.438     0.462 -82.93   0
       232    658.1956     56.2016 300.3753664 +22.6012293     399.3317     69.18662      1.302     2.28    -8.617597     19.56956     60.75447         8     0.744     0.675 -34.82   0
       233    140.5954     50.0446 300.2163373 +22.4443626     416.8157     69.36353      1.344     2.90    -8.628385     19.56956     47.31236         6     0.776     0.482  81.05   0
       234    712.7006     47.8203 300.3950625 +22.6151436     222.8961     69.29282      1.217     3.74    -8.164915     19.56956     36.84852         6     0.755     0.625 -46.42   0
       235    661.3934     43.7851 300.3803895 +22.5986188     1463.063     69.27513      1.269     2.37    -8.617631     19.56956     180.7524        17     1.005     0.821  73.53   0
       236    676.4308     42.6517 300.3854408 +22.6027964     477.4189     69.39885      1.480     5.95    -8.671131     19.56956     53.09931        12     1.451     0.687  40.06   0
       237    747.7604     35.2224 300.4100712 +22.6220209     629.3338     69.39885      1.183     2.14    -7.812828     19.56956     120.8261        11     0.819     0.761  65.21   0
       238    685.8612     28.1764 300.3930729 +22.6014602     406.5064     69.36353      1.405     3.68     -8.48731     19.56956     47.09591         7     0.893     0.633  70.03   0
       239     64.1840     28.7152 300.1995134 +22.4153310     273.6765     69.32818      1.164     3.63     -9.11276     19.56956     44.98066         5     0.842     0.494 -48.31   0
       240    491.5151     27.8494 300.3326677 +22.5431557     502.9502     69.34586      1.206     2.79     -8.38539     19.56956     78.22168         8     0.844     0.654  47.53   0
       241    395.1309     25.9481 300.3032931 +22.5137322     296.7072     69.34586      1.149     4.02    -8.337713     19.56956     50.38803         7     0.923     0.501  43.40   0
       242    170.2842   1019.5363 299.9105037 +22.7312766      525.882     69.45181      3.083     6.61     26.55793     19.56956      31.0753        10     1.753     0.699 -13.16  16
       243    734.7527     16.3485 300.4121395 +22.6127007     262.1018     69.39885      1.187     2.86     -7.48778     19.56956     46.01723         6     0.701     0.632  73.02   0
       244    192.2178   1012.5950 299.9195796 +22.7358768     369.3364     69.32818      9.607     8.98     23.08371     19.56956     32.64548         9     2.049     1.098  -1.31  18
       245    194.0488   1017.6727 299.9184952 +22.7378813      529.377     69.36353      2.265     5.33     24.87264     19.56956     29.50427         7     1.258     0.638  34.67  19
       246    194.2813   1014.8611 299.9194830 +22.7371457     715.6517     69.45181      2.383     3.61      23.7498     19.56956     34.69573         5     1.156     0.325  77.84   3
