#   1 NUMBER                 Running object number                                     
#   2 X_IMAGE                Object position along x                                    [pixel]
#   3 Y_IMAGE                Object position along y                                    [pixel]
#   4 ALPHA_J2000            Right ascension of barycenter (J2000)                      [deg]
#   5 DELTA_J2000            Declination of barycenter (J2000)                          [deg]
#   6 FLUX_APER              Flux vector within fixed circular aperture(s)              [count]
#   7 FLUXERR_APER           RMS error vector for aperture flux(es)                     [count]
#   8 FLUX_RADIUS            Fraction-of-light radii                                    [pixel]
#   9 FWHM_IMAGE             FWHM assuming a gaussian core                              [pixel]
#  10 BACKGROUND             Background at centroid position                            [count]
#  11 THRESHOLD              Detection threshold above background                       [count]
#  12 FLUX_MAX               Peak flux above background                                 [count]
#  13 ISOAREA_IMAGE          Isophotal area above Analysis threshold                    [pixel**2]
#  14 A_IMAGE                Profile RMS along major axis                               [pixel]
#  15 B_IMAGE                Profile RMS along minor axis                               [pixel]
#  16 THETA_IMAGE            Position angle (CCW/x)                                     [deg]
#  17 FLAGS                  Extraction flags                                          
         1    284.1729     12.6093 300.2740003 +22.4749012     548.8777     69.74622      1.184     3.00    -7.941255     19.67753     75.74291         9     0.898     0.650  71.84   0
         2    767.5297      7.6144 300.4260663 +22.6182683     338.4938     69.76399      1.336     3.10    -7.876322     19.67753     41.88424         5     0.714     0.473  72.75   0
         3    787.5266      3.9677 300.4334797 +22.6232074     1094.565     66.26626      1.256     2.32     -7.86704     19.67753     147.6801        16     1.043     0.887  70.08  24
         4    492.7432      2.2838 300.3422279 +22.5344347     233.3031     59.34138      1.146     2.93    -7.768749     19.67753     48.36485         6     0.739     0.628  34.81  24
         5    207.9593   1010.1024 299.9261923 +22.7381576     1240.658     69.74622      7.788     9.48      19.1198     19.67753     50.47998        23     2.213     1.132  62.64  25
         6    196.4339   1017.7521 299.9201200 +22.7368868      960.901     69.78175      7.556    10.19     22.09996     19.67753     37.80214        17     3.127     0.926  70.07  18
         7    128.6277   1023.1823 299.8972848 +22.7180714     517.5046     56.91128      2.004     6.09     23.41072     19.67753     41.63773        11     1.212     1.071 -10.18  27
         8    132.3661   1020.3010 299.8993844 +22.7183693     473.6187     68.40086      2.092     3.58     22.55158     19.67753     30.69909         5     0.794     0.464 -27.33  19
         9     76.7871   1014.0519 299.8841554 +22.6998802     2549.484     69.78175     23.777    69.69     11.28304     19.67753      63.6433       844    17.582     7.664  50.77  27
        10     82.0871    973.7507 299.8989224 +22.6899295     2853.265     69.74623     25.598    48.66     2.967085     19.67753     57.33598       529    10.118     6.493  32.17  27
        11     76.3461    924.9069 299.9130386 +22.6742134     1936.537      69.7995     16.177    30.11    -9.188104     19.67753     60.09199       161     8.918     2.822 -14.88   3
        12    162.2698    988.5671 299.9190069 +22.7182629     487.9948     69.72846      1.634     3.46     13.70252     19.67753     32.67527         5     1.034     0.334  21.96   1
        13    924.2999    986.9967 300.1566769 +22.9465584     316.9124     69.62176      1.093     2.13    -13.07834     19.67753     79.53806         6     0.778     0.458 -88.44   0
        14    163.6233    997.2156 299.9166117 +22.7211470     612.9178     69.74622      2.952     4.32     16.15315     19.67753     31.44492         5     1.201     0.443 -79.92   1
        15    161.1606    982.7546 299.9205547 +22.7162645     315.5053     69.81725      1.499     5.03     11.85584     19.67753     33.99679         5     1.207     0.610 -23.64   0
        16    144.4174    974.8205 299.9179359 +22.7089618     685.3259     69.72846      3.573     4.48     8.701182     19.67753     29.95329         7     1.024     0.557 -33.55   2
        17     74.8497    957.9880 299.9018060 +22.6832400     2628.264     69.78175     26.225    36.84    -2.406218     19.67753     59.79357       347     7.406     5.087  30.25   3
        18    216.7973   1002.2778 299.9314865 +22.7385707     2239.185     69.65734     11.417    23.49     16.12284     19.67753      68.2842       130     4.532     3.381  71.17  19
        19    226.9729    997.0870 299.9363389 +22.7401400     980.2999     69.74622      8.746    10.17      13.3127     19.67753     44.09351        18     2.415     1.193  22.24   3
        20    649.4736    970.2952 300.0764917 +22.8593122     3372.127     69.88821      1.142     1.99    -12.95663     19.67753     498.9573        23     1.036     0.885  65.45   0
        21    236.4079    990.6379 299.9413709 +22.7411263     3768.218     69.76399      7.985    29.47     7.900044     19.67753     95.82854       328     7.785     3.594  56.41  18
        22    195.9375   1002.6287 299.9248900 +22.7324051     1843.805     69.74623      7.236    15.66      17.0941     19.67753     49.87007        44     3.596     1.896 -11.69  19
        23    631.1556   1003.2820 300.0600477 +22.8632744     4202.838     69.71069      1.159     1.76    -13.35578     19.67753     790.4878        28     0.990     0.972 -86.43   3
        24    636.7285   1000.9310 300.0625483 +22.8642728     4623.309     69.81725      1.147     1.85    -13.33159     19.67753     855.5178        26     1.018     0.896 -71.63   3
        25     59.5244    974.6855 299.8916108 +22.6834183     2304.183     69.85274     20.298    28.25     -2.19941     19.67753     54.58229       194     5.315     4.168 -71.50   3
        26     95.1944    957.8117 299.9081822 +22.6893018     1360.105     69.62176     12.517    13.54     1.094073     19.67753     34.19759        22     3.355     1.520 -58.58   3
        27    731.4568   1003.9387 300.0910684 +22.8935637      345.165     69.81725      1.082     2.09    -13.05732     19.67753     63.98562         6     0.717     0.487  78.66   0
        28    557.9912    961.0901 300.0510097 +22.8292158     694.8624     69.67513      1.142     2.20    -12.79414     19.67753      151.636        12     0.864     0.821   6.99   0
        29    169.3201   1008.5720 299.9146842 +22.7261117     1102.609     69.76399      2.979     3.78     19.80995     19.67753     44.25329         5     1.128     0.364  58.36   3
        30    108.9840    955.6559 299.9131673 +22.6928270     1239.804     69.71069      6.473     6.58     1.282403     19.67753     46.61483        11     1.750     0.803 -36.40   2
        31    382.4451    955.5734 299.9981895 +22.7749342     3155.279     69.76399      1.056     1.93    -12.29597     19.67753     487.1515        20     0.908     0.851  89.61   0
        32    544.6006   1007.9060 300.0315992 +22.8386195     1169.185     69.62176      1.125     2.29    -13.25013     19.67753     202.6072        14     0.897     0.786  41.35   0
        33    452.0013    957.3680 300.0192407 +22.7963320     524.4839     69.71069      1.095     3.73    -12.46762     19.67753     98.13287         9     1.094     0.712 -20.12   0
        34    495.3118    992.2874 300.0213468 +22.8193451     319.4306     69.90593      1.152     2.41     -13.0721     19.67753     47.19757         5     0.713     0.445  76.74   0
        35    928.6677    934.2375 300.1752163 +22.9327279     937.5284     69.72846      1.090     2.09    -12.64285     19.67753     170.1637        12     0.817     0.751  -5.40   0
        36    426.7212    930.5364 300.0201111 +22.7810504     213.4949       69.835      1.153     3.46     -12.1967     19.67753      33.2275         5     0.730     0.474  16.30   0
        37    529.7914    918.3494 300.0561468 +22.8084958     210.6568     69.74623      1.261     3.71    -12.23035     19.67753     31.24901         5     0.992     0.398  84.91   0
        38    752.3513    917.3577 300.1257655 +22.8749965     545.4404     69.76399      1.039     2.06    -12.33607     19.67753     109.5028        10     0.813     0.711  65.06   0
        39    774.4865    911.0260 300.1347223 +22.8798205     5665.471     69.71069      1.062     1.79    -12.27398     19.67753     1020.891        29     0.964     0.897 -78.79   0
        40    820.1967    910.8805 300.1490117 +22.8934908     237.5319     69.65734      1.116     2.65    -12.28551     19.67753      50.5742         6     0.846     0.474 -55.09   0
        41    965.5449    910.1580 300.1945525 +22.9368760     189.7748     69.74622      0.995     2.83    -12.51121     19.67753     48.68644         7     0.806     0.640 -16.10   0
        42     73.9537    937.7784 299.9081061 +22.6771818     2054.858     69.78175     24.272    44.71    -7.092499     19.67753     54.85469       351    10.706     5.182   3.76  19
        43    783.0513    893.0582 300.1432391 +22.8772345      692.333      69.7995      1.137     1.74    -12.11037     19.67753     162.6778         9     0.712     0.678  78.35   0
        44    821.2299    886.5540 300.1572518 +22.8868202     360.7051     69.78175      1.080     2.24    -12.06575     19.67753      68.0328         7     0.845     0.473  12.64   0
        45    869.4398    877.7357 300.1751461 +22.8987492     346.1507     69.71069      0.978     2.12    -12.02477     19.67753     71.07216         5     0.701     0.421 -62.09   0
        46    720.8881    876.5882 300.1292350 +22.8538607     355.1967     69.69291      1.021     1.83    -12.06848     19.67753     83.94164         8     0.728     0.627 -80.14   0
        47    732.4417    874.0372 300.1336640 +22.8565949     370.4809       69.835      1.164     2.79     -11.9928     19.67753     62.27021         6     0.933     0.450  34.16   0
        48    433.5749    873.3295 300.0408624 +22.7667065     1963.057     69.74623      1.045     1.98     -11.8353     19.67753     337.7626        17     0.852     0.820  64.52   0
        49    158.5906    858.8804 299.9600747 +22.6800001     471.5932     69.69291      1.242     2.50    -11.70701     19.67753     55.21343         7     0.784     0.610  19.42   0
        50    136.1674    856.0357 299.9540338 +22.6724504      895.489     69.76399      1.280     2.43    -11.72263     19.67753     122.1403        11     0.881     0.732  15.24   0
        51    141.6141    848.1084 299.9583054 +22.6718147     1356.441     69.67513      0.626     0.58    -11.72424     19.67753     775.3818         5     0.557     0.310  -3.32   0
        52   1007.5345    844.9772 300.2288610 +22.9307549     1088.006     69.72846      1.143     1.96    -11.96824     19.67753     191.1077        15     0.880     0.808 -77.62   0
        53    164.8851    991.7980 299.9187676 +22.7199741     696.5327     69.67513      2.619     7.13     14.53845     19.67753     34.41247         8     1.738     0.820 -19.09   0
        54    961.8223    843.3360 300.2151406 +22.9165783     1186.849     69.72846      1.121     1.81    -11.95649     19.67753     213.2606        13     0.869     0.722  63.74   0
        55    167.4004    838.1830 299.9695466 +22.6767146     333.0558     69.63956      1.426     3.49    -11.69975     19.67753     48.30256         5     1.160     0.302 -53.91   0
        56    745.5364    836.9298 300.1498188 +22.8498759     279.0614     69.78175      0.949     1.93    -11.78133     19.67753     62.31193         5     0.677     0.464  68.16   0
        57    613.5194    831.3329 300.1105278 +22.8086649     2329.343     69.85274      1.083     1.93    -11.84629     19.67753     367.7793        18     0.868     0.845  54.70   0
        58    415.7698    828.4412 300.0499308 +22.7484911     311.6193     69.78175      0.878     1.64    -11.33468     19.67753     63.91903         5     0.624     0.475 -20.86   0
        59    163.9299    825.2000 299.9726924 +22.6719516     741.7933     69.65734      1.264     2.35    -11.71165     19.67753     126.2681        11     0.859     0.778  24.04   0
        60    789.5191    810.9783 300.1719655 +22.8556210     2051.822     69.71069      1.040     1.87    -11.68117     19.67753     376.7193        17     0.863     0.768  81.06   0
        61   1006.5795    810.9423 300.2396385 +22.9206968     459.3009     69.74622      1.075     2.92    -11.88754     19.67753       111.06         7     0.911     0.525 -65.95   0
        62    198.0652    805.3072 299.9897714 +22.6765007     214.1504     69.85274      1.037     3.38    -11.49164     19.67753     38.18498         5     0.807     0.474  52.57   0
        63    152.9169    801.8107 299.9768800 +22.6619412     560.9525     69.71069      1.161     2.10    -11.74474     19.67753     98.89513         9     0.741     0.712  64.70   0
        64    568.2429    797.0555 300.1075861 +22.7852471     365.2404     69.74622      1.148     2.02     -11.6923     19.67753     55.59942         5     0.725     0.465 -32.30   0
        65    302.6457    793.7781 300.0260290 +22.7045948     25992.17     69.78175      1.127     1.94      -11.257     19.67753     4492.627        56     1.079     1.014  75.91   0
        66    560.3243    792.5344 300.1065922 +22.7815742     781.7555       69.835      1.036     2.11    -11.62649     19.67753     137.8243        11     0.919     0.635 -89.73   0
        67    973.4472    791.7573 300.2355487 +22.9052557     403.0269     69.78175      0.939     2.08    -11.76743     19.67753     76.09454         6     0.706     0.495  85.21   0
        68    589.4583    788.6089 300.1169380 +22.7891894     397.3484     69.71069      0.977     2.12    -11.61051     19.67753     72.91513         7     0.725     0.599  15.51   0
        69    600.3055    787.0642 300.1208173 +22.7920007     257.7464     69.85274      1.113     3.01    -11.59457     19.67753     61.83881         5     0.761     0.400 -69.28   0
        70    920.4464    783.8226 300.2216055 +22.8870876     206.3285     69.76399      1.189     3.17    -11.67484     19.67753     31.12098         5     0.733     0.459 -70.49   0
        71    743.4240    773.8943 300.1696702 +22.8311534     353.1453     69.65734      1.203     3.61       -11.43     19.67753     61.88555         6     0.925     0.494 -89.00   0
        72    352.3279    770.9842 300.0488920 +22.7129731     15404.12     69.74622      1.130     1.85    -11.18845     19.67753     2913.093        47     1.037     0.992 -87.94   0
        73    366.4397    771.4610 300.0531254 +22.7173455     906.5617     69.74623      1.083     2.08    -11.15028     19.67753     159.2309        14     0.873     0.844  26.43   0
        74    875.2905    766.7646 300.2130790 +22.8686514     1349.846     69.72846      1.016     1.81    -11.50236     19.67753     263.8014        11     0.789     0.683 -75.82   0
        75    633.2752    762.8805 300.1389493 +22.7949533     475.9886     69.85274      1.148     1.94    -11.40087     19.67753      91.6531         7     0.684     0.604  60.00   0
        76    234.9469    762.8695 300.0150387 +22.6754097     530.7983     69.74622      1.365     2.70    -11.26441     19.67753     80.19388         9     0.898     0.716  53.09   0
        77     39.0910    758.5633 299.9555910 +22.6153638     272.6151     69.72846      1.081     4.37     -11.3987     19.67753     31.33419         7     0.917     0.592 -81.19   0
        78    480.3415    757.8044 300.0929993 +22.7476124     385.9793     69.71069      1.124     2.06    -10.89044     19.67753     78.84367         7     0.764     0.556  61.59   0
        79    881.6095    754.4059 300.2190690 +22.8669982     184.5914     69.60396      0.992     2.62    -11.39651     19.67753     47.25322         5     0.704     0.450 -21.31   0
        80    426.6554    752.6529 300.0779725 +22.7300242      205.178     69.78175      1.094     2.57    -10.98913     19.67753     54.21336         5     0.704     0.472   6.58   0
        81    859.3500    749.1574 300.2138385 +22.8588173     223.5997     69.78175      1.039     2.56    -11.33561     19.67753     37.27604         5     0.737     0.431  70.10   0
        82    232.4147    747.1737 300.0193569 +22.6701499     280.0284     69.76399      1.054     3.46    -11.25762     19.67753     40.04789         6     0.723     0.641 -40.59   0
        83    556.3350    738.3431 300.1229788 +22.7648312     159.2809      69.7995      1.184     3.76    -10.90378     19.67753      34.8053         5     1.063     0.383  73.82   0
        84    525.2652    735.2880 300.1143025 +22.7546330     271.6049       69.835      1.153     2.50    -10.86207     19.67753     55.66202         6     0.709     0.607 -41.83   0
        85    547.0348    733.1598 300.1217701 +22.7605539     553.1605     69.78175      1.165     1.94    -10.86196     19.67753     135.6748        10     0.895     0.687 -49.93   0
        86    941.6818    732.0339 300.2450733 +22.8785848     2225.429     69.71069      1.047     1.77    -11.25594     19.67753     469.9242        15     0.807     0.754 -69.41   0
        87    930.1705    723.3947 300.2442944 +22.8726533     791.4695     69.74622      1.029     1.65    -11.22868     19.67753     159.0894         9     0.733     0.631 -74.97   0
        88    293.2762    717.4869 300.0479310 +22.6799083     457.5399     69.87048      1.113     2.36    -11.01397     19.67753     77.53609        10     0.873     0.719   6.00   0
        89    756.3844    714.7829 300.1929355 +22.8180749     1353.255     69.71069      1.102     1.85     -11.0358     19.67753     226.1948        15     0.985     0.742 -89.00   0
        90    961.2560    713.3989 300.2572377 +22.8791014     933.3633     69.67513      1.168     1.67    -11.20467     19.67753     154.2003        14     1.004     0.710  76.37   0
        91    141.9705    701.2911 300.0061731 +22.6298429     192.0435     69.71069      1.198     2.27    -11.24066     19.67753     51.10152         7     0.698     0.651 -20.81   0
        92    838.2834    700.1888 300.2232005 +22.8384429     191.3482     69.71069      1.223     3.15    -11.05698     19.67753     40.15899         5     0.826     0.469  41.90   0
        93    874.9405    691.6248 300.2374105 +22.8469741     72573.14     69.74623      1.092     1.72    -11.05592     19.67753     14451.56        97     1.145     1.066  86.66   0
        94   1021.8796    693.2706 300.2826896 +22.8914914     543.1728     63.14495      0.962     1.66    -11.17068     19.67753     139.9057         7     0.659     0.597  -7.74  16
        95    908.2076    683.8815 300.2502985 +22.8547236     371.9247     69.67513      1.249     4.62    -11.07684     19.67753     66.88245         8     1.422     0.556 -31.06   0
        96    561.2028    680.7123 300.1432367 +22.7497566      738.373     69.67513      1.066     2.02    -10.34781     19.67753     144.3478        13     0.960     0.773  80.74   0
        97    742.4550    677.8557 300.2006055 +22.8032982     4488.872     69.78175      1.060     1.82    -10.84785     19.67753     812.5171        27     0.970     0.914 -87.35   0
        98    243.9920    673.1621 300.0470240 +22.6524054     2373.523     69.76399      1.236     2.04    -10.87438     19.67753     441.2172        20     0.982     0.909  51.70   0
        99    326.0764    671.1660 300.0731921 +22.6764696     538.7681     69.74622      1.152     2.35    -10.51471     19.67753     87.32272        10     0.857     0.692  65.39   0
       100    534.2429    666.5009 300.1394667 +22.7375914     325.4495     69.72846      0.936     2.02    -10.23475     19.67753     72.45336         6     0.659     0.605 -56.50   0
       101    525.9749    658.7170 300.1394245 +22.7328778     1606.342     69.72846      1.111     1.89    -10.16748     19.67753     304.0197        15     0.854     0.796  89.07   0
       102    516.1523    652.4850 300.1383939 +22.7281431     589.9101     69.72846      1.073     2.15    -10.10516     19.67753     112.4586        11     0.895     0.669  75.04   0
       103    179.3956    648.7913 300.0348720 +22.6260275     377.9732     69.58616      1.192     1.58    -10.87161     19.67753     69.04736         5     0.651     0.440 -63.47   0
       104    193.6964    647.0126 300.0398943 +22.6298103      393.555     69.63956      1.191     2.51      -10.845     19.67753      57.5984         5     0.741     0.410  70.38   0
       105    441.0138    642.2011 300.1183579 +22.7026505     904.6464     69.58616      1.167     2.20    -10.02728     19.67753     161.7286        12     0.940     0.721 -85.12   0
       106   1016.6166    639.2338 300.2986204 +22.8743932      386.955     69.72846      1.047     2.50    -10.92931     19.67753      64.9318         5     0.689     0.473 -77.11   0
       107     95.0416    637.3057 300.0123982 +22.5974111     9737.704     69.76399      1.208     2.04    -10.94189     19.67753     1672.216        38     1.086     0.955  76.49   0
       108     16.2144    639.1281 299.9873239 +22.5742655     355.8584     69.74622      1.765     3.64    -10.91215     19.67753     42.32664         7     1.053     0.650  31.69   0
       109    525.9330    637.5254 300.1463016 +22.7267847     436.0989     69.81725      1.317     1.95    -10.03434     19.67753     64.64357         6     0.711     0.499  -2.96   0
       110    943.8101    623.5974 300.2810005 +22.8480827     457.1262     69.56835      1.061     2.23     -10.7995     19.67753     82.91386         8     0.881     0.536 -66.35   0
       111     41.0233    621.6955 300.0006950 +22.5767180     722.3326     69.63956      1.771     5.83    -10.81107     19.67753     78.57947        14     1.504     0.690 -86.23   0
       112    884.0785    615.8154 300.2649093 +22.8279448     488.4436     69.76399      1.268     2.10    -10.73359     19.67753     88.10242         7     0.797     0.551 -79.73   0
       113    446.2495    610.4170 300.1303199 +22.6951027     443.2826     69.78175      1.271     2.42    -9.811774     19.67753     73.88467         8     0.876     0.654  64.02   0
       114    593.9667    608.4120 300.1769431 +22.7388362      202.115     69.72846      1.270     5.00    -9.866768     19.67753     35.64715         6     1.100     0.702 -70.86   0
       115    611.7385    607.1589 300.1828833 +22.7438064     269.9584     69.72846      1.174     2.77    -9.880222     19.67753     59.66765         6     0.924     0.526 -53.45   0
       116    641.0891    607.4042 300.1919421 +22.7526788     195.0512     69.65734      1.048     3.43    -10.03473     19.67753     40.87693         5     0.753     0.453  18.36   0
       117    490.3224    606.0278 300.1454596 +22.7070646     360.9378     69.76399      1.209     2.32    -9.806885     19.67753     59.96937         7     0.711     0.628 -68.20   0
       118    923.9033    601.6957 300.2819145 +22.8358261     1612.235     69.92365      1.124     1.84    -10.63862     19.67753     320.0284        16     0.922     0.756  43.95   0
       119    455.5816    601.5136 300.1361175 +22.6953478     709.3383     69.69291      1.105     2.26    -9.789226     19.67753      137.711        14     0.883     0.833  26.84   0
       120   1021.8076    599.6620 300.3131051 +22.8645814     428.5479      63.3213      1.063     1.80    -10.75071     19.67753     98.10365         7     0.716     0.563 -40.59  16
       121     17.7493    595.4543 300.0019971 +22.5622081     2536.315     69.78175      1.244     2.23    -10.67197     19.67753     332.2032        20     0.964     0.932  36.26   0
       122    319.1599    588.5714 300.0978928 +22.6507045     4420.001     69.76399      1.171     2.04    -10.27441     19.67753     681.8461        26     0.988     0.906  73.48   0
       123    441.5978    585.5806 300.1369460 +22.6865813     4312.859     69.67513      1.124     2.02    -9.753141     19.67753     664.6072        25     1.021     0.882  66.50   0
       124    853.2510    579.4703 300.2671160 +22.8082670     942.9385     69.74623      1.068     1.82    -10.43858     19.67753     167.9893        11     0.793     0.700  60.80   0
       125    937.7657    576.7178 300.2943562 +22.8328063     6131.594     69.71069      1.106     1.77    -10.44253     19.67753     1212.358        30     0.988     0.887 -79.20   0
       126    502.1411    575.1703 300.1591678 +22.7017552     5617.018     69.76399      1.208     2.05     -9.73641     19.67753     955.0483        28     1.015     0.927  79.40   0
       127    229.5033    570.5200 300.0758876 +22.6186224     573.3092     69.87048      1.203     2.69    -10.23641     19.67753     93.81635        11     0.930     0.762  16.64   0
       128    671.7499    570.4904 300.2134892 +22.7512767     254.3815     69.74623      1.248     2.95    -10.04287     19.67753     43.25518         5     0.724     0.465 -19.40   0
       129    476.7595    568.1011 300.1535674 +22.6921133     152.8267     69.72846      1.191     3.82    -9.710519     19.67753     42.33112         5     0.937     0.447 -41.11   0
       130    433.8694    563.3099 300.1417804 +22.6778728     2193.906     69.90593      1.222     2.07     -9.70157     19.67753     350.0412        19     0.963     0.898  34.45   0
       131    776.5688    563.1956 300.2485107 +22.7806077      405.203     69.72846      1.002     2.07     -10.2476     19.67753     82.16059         7     0.743     0.587  -8.47   0
       132    412.3689    561.9687 300.1355278 +22.6710381     565.1708     69.76399      1.152     2.32    -9.721698     19.67753     99.19675        10     0.833     0.745 -19.19   0
       133    166.4057    561.1383 300.0593275 +22.5969949     435.1151     69.72846      1.240     2.93    -10.56681     19.67753     64.09374         8     0.915     0.613  87.26   0
       134    853.5785    558.7999 300.2739370 +22.8024289     699.1121     69.67513      1.150     2.23    -10.26191     19.67753     106.4694        10     0.851     0.681  -9.37   0
       135    550.4352    550.8309 300.1821089 +22.7092547     100383.5     69.76399      1.197     2.05    -9.679901     19.67753     15136.51       125     1.256     1.206 -67.13   0
       136    733.9244    555.6722 300.2376707 +22.7656634     498.4637     69.81725      1.244     1.83    -10.02117     19.67753     72.16072         7     0.663     0.607 -10.73   0
       137    236.5184    550.9365 300.0844327 +22.6151110     1636.801     69.85274      1.161     2.15    -10.04969     19.67753     270.2035        17     0.966     0.821  73.79   0
       138    441.0195    531.2315 300.1544301 +22.6708130     1356.313     69.74623      1.396     4.28    -9.545962     19.67753     202.5207        20     1.237     0.921 -85.33   0
       139    838.0414    517.2446 300.2826003 +22.7858373     888.4241     69.81725      1.125     1.94    -10.09479     19.67753     176.9688        12     0.841     0.759  55.39   0
       140    709.0168    514.9369 300.2431510 +22.7465001     1202.112     69.72846      1.220     2.07    -9.886751     19.67753     236.9793        15     0.932     0.808  80.60   0
       141    496.3608    511.1548 300.1781735 +22.6816501     280.0904     69.81725      1.174     3.74    -9.371964     19.67753     39.38223         8     0.926     0.605  75.06   0
       142    613.7934    511.5461 300.2145992 +22.7169775     240.9575     69.74622      1.036     3.28    -9.639829     19.67753       37.673         5     0.736     0.450  21.54   0
       143    966.4375    508.9231 300.3253306 +22.8219226     661.7355     69.71069      1.095     1.73    -10.22156     19.67753     121.7029         9     0.754     0.682  49.81   0
       144    838.2278    507.6611 300.2857728 +22.7831406     864.2892     69.74623      1.063     1.88    -10.07339     19.67753     162.1879        11     0.822     0.670 -84.39   0
       145    591.4172    505.5900 300.2095682 +22.7085583     355.4539     69.71069      1.442     3.74    -9.529847     19.67753     40.93387         6     0.954     0.421 -72.54   0
       146    876.3527    502.3402 300.2993845 +22.7930378     2054.913      69.7995      1.076     1.88    -10.06685     19.67753     364.4473        16     0.884     0.777  68.37   0
       147    108.4304    493.0711 300.0634330 +22.5600752     529.6042     69.74622      1.166     2.51     -10.2212     19.67753     77.29313        10     0.884     0.694  58.90   0
       148    968.2168    492.6839 300.3311625 +22.8177901      269.425     69.71069      1.020     2.32    -10.16856     19.67753     59.05058         6     0.694     0.600  60.70   0
       149    708.5772    476.7249 300.2554306 +22.7353959     329.1702     69.78175      0.975     2.73    -9.822379     19.67753     39.06968         5     0.697     0.473  73.89   0
       150    649.8029    472.9858 300.2383410 +22.7167031      359.294     69.58616      1.184     2.55    -9.671899     19.67753      58.2512         7     0.721     0.642 -84.73   0
       151    710.4341    465.3864 300.2596929 +22.7326965     356.6689     69.72846      1.128     2.98    -9.813914     19.67753     68.50116         6     0.879     0.494 -56.12   0
       152    964.2281    465.2044 300.3388476 +22.8086997     211.9785     69.71069      0.938     2.13    -10.11574     19.67753     76.73928         5     0.756     0.443  43.97   0
       153    867.8123    461.1203 300.3101160 +22.7786378     459.8092     69.72846      1.117     2.37    -10.02557     19.67753     103.0666         9     0.906     0.609  34.07   0
       154    852.1993    457.6180 300.3063876 +22.7729532     241.4309     69.67513      1.308     3.04    -10.01209     19.67753     49.55569         5     0.934     0.490 -59.55   0
       155    596.3625    455.8186 300.2272791 +22.6957525     1447.895     69.74622      1.202     2.16    -9.378879     19.67753     221.7386        19     1.035     0.850 -80.20   0
       156    956.8425    454.2436 300.3401059 +22.8033377     235.4106       69.835      1.343     3.24    -10.10569     19.67753     46.87743         5     0.940     0.362  87.08   0
       157   1007.7498    434.5658 300.3623743 +22.8129336     576.4789     69.76399      1.013     2.02     -10.1398     19.67753     125.4697        10     0.852     0.696  69.11   0
       158    966.0359    433.3172 300.3497711 +22.8000789     428.0479     69.72846      0.995     2.03    -10.09987     19.67753      83.4763         7     0.680     0.641  28.57   0
       159    707.1346    429.5700 300.2703010 +22.7214218      437.853     69.76399      1.118     2.29    -9.778598     19.67753     90.79101         8     0.796     0.637 -68.12   0
       160    273.4718    423.7014 300.1372587 +22.5896989      1728.07     69.88821      1.176     2.19    -9.531309     19.67753     270.6783        18     0.975     0.861  78.42   0
       161   1006.3006    421.9133 300.3660326 +22.8088634     2085.555     69.90593      1.099     1.83    -10.14119     19.67753      405.531        18     0.918     0.819 -89.84   0
       162    220.5615    418.4195 300.1225271 +22.5723103      3613.53     69.76399      1.201     2.27    -9.991034     19.67753     499.9293        25     1.061     0.919  72.18   0
       163    361.3078    412.6741 300.1681530 +22.6128818     2359.507     69.88821      1.258     2.30    -9.037906     19.67753     311.5562        21     1.033     0.938 -87.64   0
       164    986.1723    412.9227 300.3626758 +22.8002504     897.5101     69.76399      1.186     2.30    -10.11674     19.67753     159.0084        12     0.843     0.817 -12.65   0
       165    605.5333    409.3180 300.2452399 +22.6851506     9031.292     69.85274      1.179     2.18    -9.258358     19.67753     1243.976        39     1.149     0.982  82.48   0
       166    622.8684    409.5333 300.2505673 +22.6904090     441.0864      69.7995      1.850     7.05    -9.352455     19.67753       37.915         9     1.534     0.923 -38.72   0
       167    938.9809    391.9714 300.3547658 +22.7800931     428.0241     69.74622      1.244     2.18    -10.04419     19.67753     82.93828         9     0.793     0.692  51.65   0
       168    160.4477    389.5038 300.1132365 +22.5459793     1097.509     69.78175      1.322     2.73    -9.958584     19.67753      127.155        17     1.100     0.827 -86.07   0
       169    959.8358    379.2163 300.3654113 +22.7826749     583.0833     69.74622      1.290     3.70    -10.07181     19.67753     93.05859         9     1.066     0.612  73.37   0
       170    546.1252    378.8022 300.2366574 +22.6585787     3145.759     69.65734      1.265     2.35    -8.964473     19.67753     458.6377        24     1.071     0.910  71.26   0
       171    260.9501    378.5873 300.1480184 +22.5729980     244.1547      69.7995      1.110     2.10    -9.340858     19.67753     52.58865         5     0.685     0.453  22.05   0
       172    118.6474    371.4096 300.1061248 +22.5282470     296.2695     69.76399      1.413     3.67    -9.966545     19.67753     42.82397         6     0.932     0.659 -36.83   0
       173    750.4158    367.9612 300.3037945 +22.7166977     575.5695     69.76399      1.288     3.55    -9.780299     19.67753       87.425        10     1.317     0.478 -84.34   0
       174    659.8482    368.8264 300.2753037 +22.6898036     204.4236     69.76399      1.141     2.48    -9.347144     19.67753     42.76603         6     0.732     0.551  50.37   0
       175    452.8460    364.9989 300.2121118 +22.6266488      2984.27     69.74622      1.270     2.16    -8.922528     19.67753     450.8356        22     1.001     0.935  82.34   0
       176    844.8400    359.2429 300.3360488 +22.7424858     621.1725       69.835      1.148     2.23    -9.926125     19.67753     108.2049        10     0.861     0.654  86.71   0
       177    942.1221    359.2288 300.3663795 +22.7716248     350.0105     69.74622      1.104     1.85    -10.03243     19.67753     69.91587         6     0.654     0.555  53.86   0
       178    817.3988    346.8059 300.3315357 +22.7306908     249.3356     69.56835      1.036     2.69    -9.777701     19.67753     40.48635         5     0.701     0.473 -75.85   0
       179    340.4406    344.2698 300.1838783 +22.5869915     1157.441     69.72846      1.221     2.46     -9.01162     19.67753      149.901        14     0.950     0.870  66.67   0
       180     58.9759    341.7457 300.0972207 +22.5018333     482.6564     69.76399      1.233     2.21    -9.864241     19.67753     83.27232        10     0.810     0.731  86.14   0
       181    309.7067    333.8065 300.1777186 +22.5747712     14683.08     69.63956      1.273     2.18    -9.013054     19.67753     2273.303        42     1.163     1.012  83.29   0
       182    844.2802    331.0520 300.3450290 +22.7342180     645.5399     69.74622      1.107     2.18    -9.747974     19.67753     119.0817        10     0.785     0.746 -82.48   0
       183      6.0978    321.7852 300.0872792 +22.4802409     2511.116     69.63956      1.325     2.41    -9.560008     19.67753      332.116        25     1.137     0.953  46.80  16
       184    759.7426    319.7054 300.3223705 +22.7056298     218.0324      69.7995      1.413     4.00    -9.530719     19.67753     43.31137         6     0.919     0.605  61.99   0
       185    408.2321    318.8292 300.2132240 +22.6000176     339.0683     69.74622      1.372     3.44    -8.871353     19.67753       30.329         5     0.989     0.347  45.12   0
       186    719.9977    313.3595 300.3120494 +22.6918975     906.5074     69.74622      1.179     2.15    -9.405128     19.67753     134.5394        12     0.859     0.753  64.50   0
       187    935.0700    305.7939 300.3815325 +22.7541555     406.3353     69.71069      1.271     2.93    -9.654786     19.67753     48.02233         8     0.934     0.584  65.31   0
       188    381.8721    297.8791 300.2118263 +22.5860995     1089.109     69.87048      1.527     4.50     -8.85186     19.67753     124.4307        18     1.474     0.808  66.08   0
       189    821.0324    290.6467 300.3509031 +22.7156431     319.8528     69.78175      1.229     3.14    -9.416985     19.67753     44.65239         9     0.857     0.708  59.61   0
       190    703.1671    288.2359 300.3149637 +22.6796369     180.1556     69.76399      0.997     2.53    -9.253419     19.67753     46.84449         5     0.691     0.670 -69.38   0
       191    457.5418    277.4228 300.2420077 +22.6029134     661.7586     69.74623      1.314     2.63    -8.792012     19.67753     94.32437        13     0.960     0.810 -68.88   0
       192    702.4056    269.1360 300.3209272 +22.6739216     1088.242     69.72846      1.182     2.30    -9.156893     19.67753     154.0405        11     0.863     0.691  21.78   0
       193    963.8677    263.4801 300.4042497 +22.7506177     1590.753     69.85274      1.172     1.95     -9.52628     19.67753     259.6301        15     0.860     0.813  45.17   0
       194     85.7631    247.4468 300.1361535 +22.4828180     633.1101     69.78175      1.568     4.36    -9.202437     19.67753     76.07837        16     1.270     0.965 -30.81   0
       195    116.5772    247.4751 300.1457171 +22.4920697     346.5671     69.78175      1.119     2.44    -9.236458     19.67753     65.32301         7     0.798     0.633  75.52   0
       196    169.9656    239.5573 300.1648759 +22.5058115     430.1023      69.7995      1.677     3.87    -9.244172     19.67753     43.24001         7     0.876     0.679 -74.10   0
       197    774.2350    230.4250 300.3558699 +22.6843190     306.9999     69.76399      1.406     4.31    -9.114437     19.67753     47.08558         8     1.000     0.745 -69.94   0
       198    872.2390    219.6196 300.3899195 +22.7105689     954.8827     69.78175      1.223     2.36    -9.100782     19.67753     132.8305        14     0.892     0.839 -86.18   0
       199    291.0700    217.2800 300.2097502 +22.5357355     1054.583     69.85274      1.310     2.54    -8.971775     19.67753     157.7745        16     1.060     0.823  60.19   0
       200    369.0128    212.3490 300.2355890 +22.5576889     537.2725     69.78175      1.421     2.35    -8.846822     19.67753     74.36354         9     0.848     0.654 -62.11   0
       201    185.7919    204.7001 300.1811067 +22.5005544     296.9804     69.65734      1.275     2.45    -9.039426     19.67753     48.23231         6     0.724     0.542  42.42   0
       202    723.4898    201.0734 300.3495868 +22.6606829     781.6801     69.90593      1.122     2.37    -8.935707     19.67753     124.2939        13     0.944     0.780 -68.14   0
       203    206.6355    198.0580 300.1897402 +22.5048989     353.3366     69.74623      1.314     3.40    -8.973391     19.67753     40.73286         5     0.794     0.422 -69.83   0
       204    994.9520    193.3392 300.4367102 +22.7397606     479.6326      69.7995      1.213     2.06    -9.328836     19.67753     86.31255         7     0.690     0.627  80.41   0
       205    788.2441    200.7963 300.3698512 +22.6800009     335.0968     69.76399      1.270     2.95    -9.073154     19.67753     40.63506         6     0.731     0.610  24.10   0
       206    647.8835    191.9799 300.3289895 +22.6354186      620.881     69.69291      1.364     2.64    -8.856582     19.67753     90.35523        11     0.853     0.827  44.02   0
       207    843.3923    183.1407 300.3927672 +22.6914442     726.7487     69.71069      1.208     2.05    -8.986799     19.67753     114.0461        14     0.967     0.787 -56.24   0
       208    574.3695    183.5582 300.3088331 +22.6109716     590.3939     69.78175      1.483     2.83    -8.797472     19.67753     78.65293        11     0.889     0.863 -62.31   0
       209   1016.3461    173.1817 300.4499245 +22.7403698     913.4371     69.72846      1.255     2.56    -9.292504     19.67753      125.544        12     0.931     0.747  38.91   0
       210    972.0960    172.7056 300.4362784 +22.7269847     502.7531     69.92365      1.038     1.94    -9.136571     19.67753     94.35886         8     0.735     0.631  44.22   0
       211    206.4981    166.5366 300.1999257 +22.4958100     405.3476     69.85274      1.520     3.40    -8.760818     19.67753     56.48693         6     0.964     0.436  36.21   0
       212     68.2403    160.7901 300.1588309 +22.4526967     1075.583     69.74622      1.300     2.59    -9.003312     19.67753     148.9375        15     0.967     0.847  69.44   0
       213    890.6081    158.0874 300.4156145 +22.6983822     367.4779     69.65734      1.344     4.25    -8.876832     19.67753     62.76567         8     1.148     0.613 -62.06   0
       214    225.5572    154.1462 300.2098699 +22.4979682     2804.681     69.74622      1.296     2.36     -8.70851     19.67753     371.6338        21     1.089     0.875  82.69   0
       215      9.8679    148.5128 300.1446844 +22.4316647     732.3209     69.85274      1.370     2.56    -9.156217     19.67753     93.29892        13     0.926     0.836  30.84   0
       216    208.9574    144.7018 300.2077743 +22.4902797     281.8174     69.74622      1.225     2.57    -8.644669     19.67753     47.28569         5     0.773     0.486 -60.62   0
       217   1023.6133    141.2108 300.4625655 +22.7333518     5714.127     54.44101      0.999     2.17    -9.075917     19.67753     1472.884        24     1.157     0.628  87.36  24
       218    869.3864    135.4019 300.4163599 +22.6855058     1554.134     69.58616      1.144     2.20     -8.73396     19.67753     220.3589        17     0.919     0.852 -21.07   0
       219    973.0803    134.1410 300.4490989 +22.7161908     1340.584      69.7995      1.220     1.96    -8.893763     19.67753      247.641        18     0.946     0.849 -70.27   0
       220    418.9866    130.7218 300.2776206 +22.5492289     290.7588     69.76399      1.257     4.13    -8.586456     19.67753     40.92156         6     0.918     0.530 -89.62   0
       221    342.9645    122.4716 300.2566503 +22.5240730     292.6779     69.74622      1.214     4.14    -8.645217     19.67753     34.00594         5     0.745     0.658  81.95   0
       222    109.5870    119.9319 300.1849306 +22.4533716      290.972     69.76399      1.434     4.15    -8.572485     19.67753     37.02428         5     0.822     0.598   7.29   0
       223    470.3799    118.0698 300.2977155 +22.5609975      911.422     69.74623      1.355     2.44    -8.614747     19.67753     117.6653        15     1.011     0.808  84.08   0
       224    399.0126    118.3292 300.2754272 +22.5396832     239.9056     69.76399      1.125     3.59    -8.579206     19.67753     37.48444         6     0.874     0.565 -89.46   0
       225    244.5012     98.0147 300.2339683 +22.4875334     2991.129     69.65734      1.339     2.47    -8.486846     19.67753     360.3182        27     1.159     0.987  78.09   0
       226     95.6441     97.4172 300.1879022 +22.4427282     401.2031     69.76399      1.573     2.96    -8.415215     19.67753     52.24219         8     0.896     0.634   1.21   0
       227    259.7314     89.5802 300.2414389 +22.4896776     148.4582     69.72846      0.979     4.24    -8.492656     19.67753     31.67612         5     0.897     0.570 -52.86   0
       228      6.2069     88.2701 300.1630894 +22.4132800      243.194     69.71069      1.522     4.76    -9.009043     19.67753     33.94795         6     1.152     0.556 -22.10  16
       229    490.5728     83.2855 300.3152829 +22.5570564      3075.49     69.74623      1.299     2.35    -8.417459     19.67753     381.8138        25     1.044     1.031  74.15   0
       230    375.8432     83.1240 300.2796401 +22.5226280      253.574     69.72846      1.083     3.10    -8.478259     19.67753     44.88219         8     0.849     0.613  50.34   0
       231    743.1253     72.5946 300.3973886 +22.6296401     469.3606     69.67513      1.533     3.14    -8.309753     19.67753     50.94464         9     0.918     0.654  68.17   0
       232    183.5292     66.2451 300.2253209 +22.4601325      215.515     69.71069      1.186     3.43    -8.288259     19.67753     37.87203         5     0.800     0.425 -67.25   0
       233    618.8615     63.3275 300.3616912 +22.5897572      3106.47     69.78175      1.323     2.34    -8.271138     19.67753     398.2193        25     1.068     0.977  85.39   0
       234    393.8109     62.3650 300.2919622 +22.5220506     714.1718     69.74622      1.180     2.06    -8.275594     19.67753     114.9967        11     0.917     0.709  86.44   0
       235    659.6829     60.7692 300.3752330 +22.6012497     419.1638     69.74623      1.293     2.74    -8.244143     19.67753     61.96191         7     0.853     0.563  33.31   0
       236    675.5261     56.2086 300.3816464 +22.6046844     301.7351     69.74622      1.158     3.67    -8.205605     19.67753     58.08473         5     0.773     0.598  27.82   0
       237    142.8878     55.2103 300.2162699 +22.4447793     261.8303     69.69291      1.174     4.44    -8.272063     19.67753      50.2092         9     1.034     0.618  51.86   0
       238    945.5829     53.8221 300.4665797 +22.6848621     210.9723     69.72846      1.047     2.67    -8.658792     19.67753     45.79325         5     0.703     0.476  75.68   0
       239    662.9383     48.1653 300.3803346 +22.5986024      1411.43     69.76399      1.337     2.37    -8.152977     19.67753     188.0842        15     0.979     0.859  66.91   0
       240    677.5638     46.4200 300.3854558 +22.6024813     499.0496     69.76399      1.775     4.46    -8.136701     19.67753     43.70832        10     1.137     0.733  78.39   0
       241    749.5248     39.6601 300.4100643 +22.6220894      793.015      69.7995      1.291     2.55    -8.079773     19.67753     105.2962        13     0.956     0.777  61.14   0
       242    687.3201     32.7882 300.3929154 +22.6014852     403.9958     69.72846      1.219     2.22    -8.045267     19.67753     59.88076         6     0.693     0.588   9.28   0
       243    493.1503     32.1680 300.3326639 +22.5431430     430.8789     69.78175      1.179     2.68     -8.00911     19.67753     74.23409         8     0.781     0.675 -44.79   0
       244     65.9679     31.5142 300.2000568 +22.4149130     359.4558     69.72846      1.647     3.43    -8.215364     19.67753     48.30373         5     0.949     0.530 -78.50   0
       245    396.8533     30.3439 300.3032933 +22.5137646     450.2768      69.7995      1.428     3.11    -8.015883     19.67753     57.35018         8     0.939     0.585  71.31   0
       246    168.4325     20.5436 300.2354499 +22.4424854     1780.847     69.76399      1.273     2.44    -8.141614     19.67753      224.419        19     1.070     0.844  65.15   0
       247    735.8550     21.1395 300.4118119 +22.6126718     426.7707     69.81725      1.846     5.24    -7.947803     19.67753     54.57841         8     1.099     0.707   7.16   0
       248    729.7603     13.0120 300.4125488 +22.6085103     515.3192     69.74623      1.311     2.06    -7.893097     19.67753     75.33276         7     0.710     0.612  81.18   0
       249    169.6746   1016.0911 299.9123461 +22.7283721     1611.668     69.88821      6.509    14.80     22.01733     19.67753      48.2001        50     3.414     1.785  24.77  26
       250    352.7214   1014.7975 299.9696638 +22.7829827     277.1362     69.65734      1.117     2.47    -12.29952     19.67753     56.87891         6     0.700     0.629 -22.30   0
       251    226.5745   1017.2241 299.9296585 +22.7457897     364.4026     69.71069      1.239     4.02     20.09199     19.67753     48.73557         8     0.974     0.611 -74.95  18
