#   1 NUMBER                 Running object number                                     
#   2 X_IMAGE                Object position along x                                    [pixel]
#   3 Y_IMAGE                Object position along y                                    [pixel]
#   4 ALPHA_J2000            Right ascension of barycenter (J2000)                      [deg]
#   5 DELTA_J2000            Declination of barycenter (J2000)                          [deg]
#   6 FLUX_APER              Flux vector within fixed circular aperture(s)              [count]
#   7 FLUXERR_APER           RMS error vector for aperture flux(es)                     [count]
#   8 FLUX_RADIUS            Fraction-of-light radii                                    [pixel]
#   9 FWHM_IMAGE             FWHM assuming a gaussian core                              [pixel]
#  10 BACKGROUND             Background at centroid position                            [count]
#  11 THRESHOLD              Detection threshold above background                       [count]
#  12 FLUX_MAX               Peak flux above background                                 [count]
#  13 ISOAREA_IMAGE          Isophotal area above Analysis threshold                    [pixel**2]
#  14 A_IMAGE                Profile RMS along major axis                               [pixel]
#  15 B_IMAGE                Profile RMS along minor axis                               [pixel]
#  16 THETA_IMAGE            Position angle (CCW/x)                                     [deg]
#  17 FLAGS                  Extraction flags                                          
         1    167.3042     17.7205 300.2354570 +22.4424035     1813.617     69.70129      1.346     2.55    -8.623608     19.63487     232.3495        23     1.135     0.927  54.53   0
         2    728.4532      9.8636 300.4126337 +22.6083014      386.923     69.63046      1.149     2.77    -8.433832     19.63487     72.84945         8     0.861     0.612  76.01   0
         3    283.2282      9.6573 300.2741126 +22.4748410     635.5218     69.59501      1.240     2.67    -8.293447     19.63487     93.77036        10     0.872     0.726  80.17   0
         4    766.6136      4.5053 300.4262627 +22.6181888      399.921     67.70813      1.554     4.85    -8.587111     19.63487      32.2771         9     1.044     0.637  80.56  16
         5    786.4406      1.6112 300.4333803 +22.6232939     851.4474     55.71322      1.055     2.20    -8.696872     19.63487     149.3137        11     0.847     0.697  -6.44  24
         6    635.6144    998.0370 300.0625219 +22.8642605     4663.827     69.59501      1.133     1.84    -13.02686     19.63487     862.8245        30     1.046     0.924  82.04   2
         7    128.0003   1020.4011 299.8973463 +22.7182204     876.0364     67.85374      2.833     7.36     24.17926     19.63487     41.04204        14     1.353     1.121 -22.56  18
         8     77.5594   1011.3376 299.8846281 +22.7004664     2420.921     69.57728     18.860    59.59     11.95804     19.63487     71.14079       826    12.857     7.664  40.48  27
         9     59.2371    977.8959 299.8898276 +22.6853800     1925.361     69.59501     24.783    40.71    -1.213852     19.63487     53.68663       353     8.015     5.739 -68.27  19
        10     71.2843    925.4761 299.9106377 +22.6739812      2023.69     69.70129     16.313    26.08    -8.872895     19.63487     50.36539       155     6.298     2.998 -33.49   3
        11     70.1657    938.3342 299.9061039 +22.6773293     1934.824     69.59501     20.878    34.40     -6.83753     19.63487     73.15788       235    10.281     3.194 -27.11   3
        12    226.0305   1013.6828 299.9299987 +22.7457491     361.1358     69.61273      1.538     5.77     21.20498     19.63487     53.66652        10     1.208     0.777  26.87   0
        13    215.5987    995.2798 299.9327498 +22.7373415     2033.778     69.48857     10.419    18.45     14.86224     19.63487      49.1798        83     3.138     3.057  60.25   3
        14    163.8857    990.8486 299.9181214 +22.7205353     894.7615     69.57728      7.682     8.82     15.56362     19.63487     40.78685        13     2.209     0.984  60.72   2
        15    103.3563    989.5344 299.8997425 +22.7019718     858.0499     69.57728      4.018     3.52      12.9947     19.63487     29.87792         5     1.082     0.330  70.30   0
        16    203.5498    996.2501 299.9286889 +22.7339997     963.9924     69.63046      6.405    12.43     15.72086     19.63487     34.82238        14     3.586     1.200  70.08   3
        17    194.7892   1001.7955 299.9241601 +22.7329569     1406.151     69.45305      4.394     6.50     18.28438     19.63487     47.86685        13     1.670     0.710  33.69   3
        18    923.0513    983.9834 300.1566627 +22.9464811      414.438     69.59501      1.248     2.08    -13.60652     19.63487     75.97874         6     0.690     0.550  31.93   0
        19    197.8572   1000.5051 299.9255339 +22.7335088     1754.424     69.66588      7.407    17.13     17.80378     19.63487     113.9048        38     3.583     2.275  73.21  19
        20    108.3104    983.2078 299.9033419 +22.7016478     995.2295     69.50632      5.461     5.33     10.87488     19.63487     31.59241         5     1.037     0.772 -13.49   0
        21    543.5461   1005.2003 300.0315249 +22.8386761     1161.727     69.54181      1.089     2.23    -13.20067     19.63487     202.3435        13     0.845     0.760  56.44   0
        22    224.5757    996.7820 299.9350509 +22.7404688     1297.467     69.59501      7.336    14.46     15.25827     19.63487     36.53099        25     3.462     1.680 -76.33   3
        23    225.8368    981.4880 299.9404236 +22.7364646     1646.019     69.57728      7.187    14.09     8.835217     19.63487     54.00522        47     3.292     1.678  60.93   3
        24    231.5075    975.5511 299.9441197 +22.7364666     1331.453     69.63046      4.387     9.92      5.16006     19.63487     44.23565        30     2.339     1.174 -23.90   3
        25    648.3337    967.4782 300.0764354 +22.8593125     3452.464     69.70129      1.124     2.08    -12.97464     19.63487     496.5023        20     0.969     0.819  60.06   0
        26    730.3279   1001.1536 300.0910064 +22.8935819      271.503     69.57728      1.043     3.71    -13.05834     19.63487     51.70521         5     0.938     0.422  75.84   0
        27    238.1415    990.2278 299.9414022 +22.7426658     4146.475     69.59501      6.489    25.26     7.603432     19.63487     105.9162       219     6.534     2.711  68.05  19
        28    556.9389    958.1750 300.0510090 +22.8292103       698.42     69.59501      1.110     2.17    -12.79994     19.63487     144.7959        10     0.805     0.709  85.78   0
        29    142.9979    971.1862 299.9180339 +22.7086255     810.4655     69.43529      6.559    10.94     8.062799     19.63487     36.55963        12     2.628     1.269  33.58   2
        30    450.6085    954.8542 300.0189985 +22.7963351      454.491     69.59501      1.022     1.88    -12.86429     19.63487      112.169         6     0.721     0.487  86.72   0
        31    106.9103    952.8919 299.9127786 +22.6925409     1371.008     69.75437      9.642    11.24    0.8968728     19.63487     41.60169        28     2.279     1.543 -49.63   3
        32    381.3249    952.6822 299.9981518 +22.7749083     3231.977     69.70129      1.121     2.00     -12.6103     19.63487     492.7668        22     1.009     0.875  52.21   0
        33    207.2997   1006.7255 299.9264427 +22.7381282     1086.475     69.71899     14.152    15.54     19.69822     19.63487     65.05241        35     3.244     2.070 -26.33  19
        34    108.4169    942.2648 299.9167069 +22.6899485     525.6443     69.57728      4.267     4.69    -2.725228     19.63487     33.86938         5     1.085     0.576 -17.26   2
        35    104.8991    940.5885 299.9161598 +22.6884112      682.125     69.50632      4.393     4.51    -3.123714     19.63487     31.39634         5     1.073     0.540  33.93   3
        36    927.6008    931.2999 300.1752388 +22.9327233     1009.289     69.43529      1.078     2.10      -12.979     19.63487     158.0235        11     0.884     0.690  35.27   0
        37    578.0368    928.5709 300.0672170 +22.8270521     200.7712     69.61273      1.033     4.21    -12.72985     19.63487     38.29652         6     1.024     0.494   2.21   0
        38    716.4160    919.7862 300.1131709 +22.8660616     303.7088     69.54181      1.414     3.56    -12.85537     19.63487     54.15219         6     1.201     0.425  77.17   0
        39    215.0202   1001.6282 299.9305025 +22.7389869       1801.1     69.59501      7.925    13.93     17.53635     19.63487     48.51387        50     2.897     1.863  40.69   3
        40     77.4295    965.0085 299.8996750 +22.6871545     2827.412     69.59501     26.756    65.92    0.3819231     19.63487     61.25711      1003    13.320     9.053  71.04  27
        41    751.2790    914.2258 300.1258425 +22.8749269     484.8092     69.59501      1.107     2.38    -12.77116     19.63487     84.50499         9     0.841     0.660  14.41   0
        42    773.4861    908.2029 300.1347227 +22.8798615      5627.43     69.52407      1.059     1.88    -12.65045     19.63487     1008.196        27     0.960     0.863 -88.26   0
        43    818.9506    908.0717 300.1489332 +22.8934638       246.07     69.59501      1.143     2.21    -12.60626     19.63487     47.22145         5     0.622     0.555  87.43   0
        44    964.3488    907.3203 300.1945061 +22.9368610     144.0854     69.59501      1.103     2.82    -12.91032     19.63487     44.31171         5     0.712     0.468  80.52   0
        45     84.8703    899.6395 299.9232692 +22.6706598     322.4778     69.55955      1.279     4.00    -9.369648     19.63487     47.43625         6     0.753     0.629 -45.91   0
        46    478.5074    896.6814 300.0466207 +22.7880285     157.0401     69.73668      1.012     3.47    -12.56313     19.63487     39.94934         5     0.743     0.468 -72.21   0
        47    825.1703    895.6569 300.1549137 +22.8917665     385.6857     69.61273      1.524     1.82    -12.55726     19.63487     51.09573         5     0.692     0.430 -21.77   0
        48    781.9277    890.1318 300.1432367 +22.8772079     727.2658     69.66588      1.111     1.90    -12.49764     19.63487     145.9937        10     0.790     0.677  78.12   0
        49    964.9756    889.4366 300.2005243 +22.9319145     248.3367     69.61273      1.147     3.07    -12.76546     19.63487     58.19399         7     0.997     0.577 -71.03   0
        50    634.4026    887.7641 300.0980531 +22.8322626     307.0622     69.59501      1.184     3.43    -12.55936     19.63487     31.67215         5     0.743     0.457 -72.27   0
        51    820.0844    883.9105 300.1571529 +22.8868693     370.3959     69.73668      1.095     2.14    -12.48164     19.63487     76.85902         7     0.820     0.502 -51.61   0
        52    719.6826    873.9235 300.1291203 +22.8538812     350.1925     69.70129      1.066     1.90     -12.3816     19.63487      87.6676         5     0.705     0.419  69.07   0
        53    730.8835    871.1469 300.1335136 +22.8564451     336.6629     69.63046      1.020     1.86    -12.37185     19.63487     71.12642         6     0.702     0.528 -48.40   0
        54    432.4477    870.4382 300.0408321 +22.7666746      2015.48     69.61273      1.056     1.92    -11.89749     19.63487     312.2905        15     0.833     0.811 -76.93   0
        55    229.7942    988.2341 299.9394568 +22.7395868     1639.792     69.59501      7.115     9.84     9.971771     19.63487     56.54113        31     1.823     1.484  84.09   3
        56    157.6833    856.2518 299.9600151 +22.6800983     477.6964     69.63046      1.205     2.64    -10.80999     19.63487     75.04099        10     0.829     0.791 -13.67   0
        57    134.9212    853.2990 299.9539032 +22.6724149     809.9889     69.71899      1.107     1.88    -10.92534     19.63487     155.7508         9     0.774     0.633  65.69   0
        58    630.0788   1000.3528 300.0600439 +22.8632631     4304.996     69.59501      1.138     1.80    -13.03765     19.63487     801.2791        24     0.943     0.885  62.60   3
        59   1006.4734    841.9533 300.2289250 +22.9307240     1152.636     69.59501      1.195     1.90    -12.48953     19.63487     189.8718        14     0.934     0.786  61.30   0
        60     10.0860    842.9933 299.9184793 +22.6319596      274.408     69.52407      1.210     2.92    -12.80696     19.63487     44.63985         5     0.793     0.460 -19.69   0
        61    960.7637    840.4396 300.2151617 +22.9165830     1117.843     69.66588      1.013     1.67    -12.45137     19.63487     197.2158        12     0.791     0.715 -65.36   0
        62    666.9053    840.8123 300.1234594 +22.8285439     195.0135     69.52407      1.326     4.37    -12.03383     19.63487     33.28946         5     1.019     0.533  33.93   0
        63    167.0658    834.9265 299.9698715 +22.6768037     273.7616     69.63046      1.180     3.73    -11.20942     19.63487     36.60564         5     0.675     0.593   2.65   0
        64    744.3668    834.2586 300.1497220 +22.8499035     296.1949     69.61273      0.996     2.46     -12.0405     19.63487     65.39525         5     0.709     0.452  72.12   0
        65    612.4717    828.5547 300.1104978 +22.8086930     2275.895     69.55955      0.994     1.91    -11.99406     19.63487     388.0305        17     0.901     0.755  47.53   0
        66    162.7593    822.4265 299.9726013 +22.6719271     657.1954     69.64817      1.091     2.14    -11.42363     19.63487      110.324        10     0.814     0.686  43.49   0
        67    633.1680    820.8494 300.1194503 +22.8126923     438.7318     69.63046      1.305     3.25    -11.89189     19.63487     82.19904        10     1.046     0.774  56.67   0
        68    788.4526    808.1611 300.1719527 +22.8556374     2033.186     69.59501      1.025     1.85     -11.8038     19.63487     381.0182        15     0.854     0.720  81.73   0
        69   1005.4006    808.1812 300.2395830 +22.9207036     541.8643     69.52407      1.016     1.97    -12.31141     19.63487     96.60024         8     0.707     0.644 -22.71   0
        70    505.3837    800.7320 300.0862160 +22.7685732     277.4749     69.59501      1.078     2.18    -11.65205     19.63487     52.35319         5     0.675     0.469 -74.77   0
        71    151.9650    798.9478 299.9768874 +22.6619548     515.5895     69.61273      1.221     2.21    -11.80834     19.63487     86.43765         9     0.766     0.705  62.17   0
        72    566.8071    793.8547 300.1075735 +22.7850334      208.204     69.59501      0.999     2.14    -11.63898     19.63487     67.64993         5     0.716     0.603 -60.21   0
        73    301.5924    790.9540 300.0260002 +22.7045940     26164.74     69.61273      1.137     1.90    -11.29998     19.63487     4487.499        57     1.094     1.017  65.91   0
        74    559.4307    789.9619 300.1065440 +22.7817029     651.3142     69.59501      1.018     1.90    -11.63389     19.63487     148.9392        10     0.872     0.608  56.19   0
        75    972.4050    789.0034 300.2355336 +22.9053029     440.5121     69.41752      1.038     1.81     -12.1847     19.63487     108.3068         6     0.720     0.486  82.56   0
        76    588.2797    785.8909 300.1168501 +22.7891917     418.7923     69.70129      1.039     2.31    -11.61554     19.63487     84.36348         7     0.700     0.644  74.06   0
        77    599.4700    784.0554 300.1209316 +22.7920228     240.0663     69.61273      0.944     2.53    -11.60563     19.63487     57.76825         6     0.749     0.496  84.38   0
        78    704.6058    780.1797 300.1549355 +22.8224537     244.6749     69.57728      1.015     2.46    -11.67707     19.63487     55.45589         5     0.714     0.448 -69.50   0
        79    351.2755    768.2031 300.0488539 +22.7129851     15458.46     69.50632      1.141     1.86      -11.234     19.63487     2877.733        47     1.063     0.987  63.17   0
        80    365.5450    768.5807 300.0531693 +22.7173770      1075.13     69.57728      1.180     1.95    -11.26594     19.63487     144.8487        15     1.047     0.776  86.97   0
        81    874.2693    763.8671 300.2131145 +22.8686584      1435.41     69.64817      1.086     1.68    -11.85635     19.63487     308.5765        16     0.898     0.798  44.73   0
        82    632.3361    759.9007 300.1390255 +22.7949521     487.0732     69.68359      1.037     2.10    -11.56584     19.63487      100.648         7     0.746     0.612  32.00   0
        83    233.6176    760.0310 300.0149281 +22.6753172     329.7853     69.57728      1.083     2.00    -11.36045     19.63487     60.76617         5     0.682     0.441 -66.81   0
        84     38.7457    755.5297 299.9558405 +22.6155034     236.5155     69.63046      0.997     2.51    -11.60249     19.63487     48.03657         6     0.665     0.638 -83.61   0
        85    479.5340    754.9382 300.0930725 +22.7476773     371.2302     69.63046      1.002     2.06    -11.53213     19.63487     88.58504         7     0.704     0.617 -83.96   0
        86    381.1314    750.8936 300.0637723 +22.7169825     127.2882     69.71899      0.988     2.54    -11.17314     19.63487     44.78434         5     0.747     0.505  48.80   0
        87    633.3870    749.1799 300.1428411 +22.7921906     115.0948     69.55955      0.996     3.46     -11.5359     19.63487     30.95098         5     0.746     0.465  75.50   0
        88    230.8703    744.2111 300.0192210 +22.6699560     241.8442     69.61273      1.102     2.59    -11.34691     19.63487      46.3962         6     0.719     0.556 -31.60   0
        89    554.6306    734.7139 300.1230264 +22.7644095     275.6992     69.57728      1.029     2.44    -11.53666     19.63487     45.38706         5     0.701     0.457  73.05   0
        90    524.5265    732.8586 300.1142592 +22.7548440     326.2024     69.63046      1.020     1.73    -11.51319     19.63487     65.67482         5     0.653     0.455  63.99   0
        91    433.3561    732.1544 300.0861162 +22.7272820     88.85113     69.63046      0.907     3.38    -11.20411     19.63487     35.59261         5     0.771     0.429  70.60   0
        92    546.1838    730.4722 300.1217770 +22.7606578     591.7688     69.59501      1.049     1.98    -11.51162     19.63487     116.6041         9     0.783     0.633  67.21   0
        93    940.5475    729.1517 300.2450747 +22.8785622     2272.896     69.63046      1.010     1.74    -11.72199     19.63487     443.3499        17     0.834     0.812  57.89   0
        94    929.0162    720.5001 300.2442938 +22.8726202      730.386     69.50632      1.005     1.56    -11.61869     19.63487     170.0288         9     0.739     0.592  66.28   0
        95    292.3119    714.4667 300.0479998 +22.6798723       419.53     69.70129      1.025     2.46    -11.11462     19.63487     73.93831         8     0.843     0.594 -10.91   0
        96    755.2616    711.7343 300.1929871 +22.8179999     1238.836     69.63046      1.066     1.85    -11.30189     19.63487     254.0186        13     0.869     0.744 -83.97   0
        97    960.2585    710.6122 300.2572533 +22.8791467     869.6323     69.55955      1.052     1.74    -11.64088     19.63487      173.665        12     0.890     0.680 -62.63   0
        98    141.1525    698.8025 300.0061084 +22.6299965     261.3277     69.59501      1.080     3.05    -11.54764     19.63487     54.84623         8     0.847     0.675  16.24   0
        99    873.8701    688.7961 300.2374146 +22.8469808     71253.88     69.54181      1.096     1.70    -11.05712     19.63487     15870.15        89     1.120     1.024  84.97   0
       100   1020.7122    690.5460 300.2826367 +22.8915044     661.1994     67.17765      0.992     2.66    -11.98171     19.63487      137.843         9     0.840     0.612 -45.18  16
       101    726.2822    689.1362 300.1913097 +22.8028206     398.1898     69.70129      1.113     2.27    -11.12645     19.63487     69.78416         7     0.719     0.610 -80.00   0
       102    560.1695    677.7407 300.1432845 +22.7497211     667.9705     69.61273      1.109     1.98    -11.04722     19.63487     140.5057        11     0.803     0.750  49.35   0
       103    741.3672    674.9702 300.2006174 +22.8032776     4479.753     69.61273      1.083     1.82    -10.99925     19.63487     884.5358        25     0.964     0.853  79.15   0
       104    243.0677    670.2889 300.0470588 +22.6524186     2450.737     69.73668      1.171     1.98    -11.15126     19.63487     440.6221        20     0.935     0.875  69.29   0
       105    324.9806    668.1907 300.0732109 +22.6764050     547.2668     69.57728      1.142     2.10    -11.07267     19.63487     94.12486         8     0.724     0.657  58.65   0
       106    200.3777    666.1168 300.0351454 +22.6384061     234.4547     69.55955      1.203     4.53    -11.23143     19.63487     51.63828         7     0.939     0.734 -19.78   0
       107    533.0588    663.7658 300.1393905 +22.7375766     366.9364     69.61273      1.218     2.50    -10.99752     19.63487     57.05411         8     0.797     0.638 -38.95   0
       108    524.8532    655.9924 300.1393646 +22.7328838     1576.369     69.59501      1.173     2.00    -10.95353     19.63487     298.9842        15     0.891     0.769  59.11   0
       109    515.1976    649.6481 300.1384225 +22.7281662     683.1475     69.59501      1.170     2.14    -10.91269     19.63487      116.228        11     0.897     0.706 -64.89   0
       110    178.3163    645.9778 300.0348381 +22.6260073     430.7564     69.55955      1.191     3.36    -11.24285     19.63487       47.674         7     0.764     0.613 -63.79   0
       111    192.5395    644.2424 300.0398230 +22.6297796      263.474     69.57728      1.184     3.63     -11.2064     19.63487     46.43659         8     0.917     0.621 -79.29   0
       112    218.2391    640.8863 300.0489027 +22.6365322     266.4449     69.57728      1.181     4.09    -11.15001     19.63487     52.88079         6     1.049     0.456  60.98   0
       113    439.8460    639.3572 300.1183197 +22.7026042     881.9939     69.63046      1.151     2.07    -10.90456     19.63487     161.9965        12     0.863     0.746  53.28   0
       114   1015.6917    636.6554 300.2985999 +22.8745170      504.743     69.64817      1.106     2.08    -11.73425     19.63487     69.37025         6     0.682     0.535  44.30   0
       115     93.9840    634.5282 300.0123563 +22.5974038     9685.093     69.59501      1.209     2.06    -11.29834     19.63487      1452.76        37     1.059     0.994  60.98   0
       116     14.6272    636.2643 299.9871415 +22.5740717     218.7088     69.59501      1.039     2.17    -11.22765     19.63487     64.08229         6     0.769     0.512  42.43   0
       117    524.5585    634.5950 300.1462317 +22.7266543      632.165     69.61273      1.161     2.39    -10.86674     19.63487     90.91289         7     0.796     0.580  70.93   0
       118    942.7374    620.7746 300.2810112 +22.8480882     486.6316     69.59501      1.065     1.95    -10.85232     19.63487     91.69163         8     0.719     0.619 -70.68   0
       119     40.0712    618.6304 300.0007780 +22.5766568     816.9866     69.59501      1.753     4.14    -11.24662     19.63487     91.72945        18     1.497     0.890 -64.71   0
       120    809.8096    619.1573 300.2400972 +22.8077739     155.0124     69.59501      1.041     2.65    -10.64808     19.63487     43.48698         6     0.743     0.548 -41.27   0
       121    882.9180    613.3023 300.2647897 +22.8280102     483.9862     69.73668      1.119     2.59    -10.60232     19.63487     70.29612         9     0.904     0.608  65.22   0
       122    444.9846    607.6143 300.1302410 +22.6950370     300.7157     69.54181      1.121     2.44    -10.77055     19.63487     67.19473         5     0.777     0.476 -52.08   0
       123    592.8017    606.2352 300.1766992 +22.7389855     305.9648     69.55955      1.487     2.61    -10.75765     19.63487     56.54788         5     0.850     0.395 -46.06   0
       124    639.9103    604.6575 300.1918816 +22.7526621     134.3301     69.64817      1.010     3.28     -10.7549     19.63487     38.74494         5     0.749     0.436  17.94   0
       125    610.6435    603.9443 300.1829996 +22.7436794     379.4324     69.59501      1.175     2.26    -10.73246     19.63487     57.85932         7     0.763     0.599 -65.80   0
       126    489.1707    603.3034 300.1453931 +22.7070568     447.6305     69.54181      1.095     2.12    -10.63449     19.63487     89.96924         8     0.771     0.643   6.57   0
       127    922.8148    598.8041 300.2819436 +22.8358048     1620.704     69.45305      1.061     1.72    -10.58902     19.63487     345.2552        15     0.861     0.792 -83.51   0
       128    454.6075    598.9756 300.1360443 +22.6954451     655.7645     69.59501      1.062     1.89    -10.66923     19.63487     150.2048        10     0.809     0.664 -25.65   0
       129   1021.0320    596.4268 300.3133485 +22.8645586     353.6328     66.10392      1.193     2.24    -11.55397     19.63487     78.56001         7     0.797     0.593 -31.73  16
       130     16.7347    592.6080 300.0019907 +22.5621882     2393.213     69.57728      1.208     2.25    -11.20169     19.63487      344.235        19     0.978     0.884  74.77   0
       131    318.1458    585.7599 300.0978905 +22.6507054     4348.439     69.59501      1.185     1.99    -10.77161     19.63487     773.9367        24     1.007     0.871  65.37   0
       132    440.4927    582.6901 300.1369474 +22.6865365      4374.65     69.75437      1.153     2.12     -10.5805     19.63487     691.7675        25     1.068     0.884  55.10   0
       133    852.0550    576.4514 300.2671514 +22.8081728     798.4556     69.63046      1.000     1.94    -10.50661     19.63487     160.9696        11     0.899     0.621  65.65   0
       134    936.7639    573.9028 300.2943902 +22.8328318     5985.571     69.59501      1.085     1.73    -10.62147     19.63487     1311.583        24     0.893     0.857  61.43   0
       135    501.1167    572.3016 300.1591910 +22.7017423     5819.807     69.75437      1.164     1.97    -10.41425     19.63487     986.8098        30     1.048     0.910  62.85   0
       136    670.7213    568.0090 300.2133939 +22.7513797     241.1691     69.55955      1.084     4.32    -10.61118     19.63487     42.93653         7     1.007     0.649 -67.10   0
       137    228.5460    568.0915 300.0757756 +22.6187456     639.2634     69.64817      1.144     2.50    -10.82025     19.63487     111.3534        11     1.033     0.699 -89.15   0
       138    475.5299    565.1645 300.1535482 +22.6920180     167.8681     69.59501      1.026     2.41    -10.38291     19.63487     39.93657         5     0.709     0.462 -69.48   0
       139    432.8149    560.5723 300.1417492 +22.6778853     2009.935     69.61273      1.139     2.05    -10.40694     19.63487     325.7986        17     0.947     0.817  47.53   0
       140    775.5635    560.2530 300.2485783 +22.7805886     341.8416     69.61273      1.073     2.54    -10.59061     19.63487     63.02063         8     0.829     0.631  44.20   0
       141    411.1269    558.8814 300.1355511 +22.6708931      520.878     69.71899      1.128     1.92    -10.40715     19.63487     114.0952         8     0.735     0.643  49.84   0
       142    165.3347    558.3347 300.0592998 +22.5969735     396.2774     69.64817      1.573     2.68    -10.76812     19.63487     57.63198         8     0.903     0.580 -74.99   0
       143    852.5186    556.0073 300.2739430 +22.8024391     698.1324     69.52407      1.107     2.14    -10.46176     19.63487     122.5577         9     0.808     0.660 -57.53   0
       144    732.8790    552.6688 300.2377442 +22.7656128     391.4675     69.70129      1.066     1.99    -10.58835     19.63487     79.73132         5     0.695     0.440  18.00   0
       145    549.3948    548.0103 300.1821159 +22.7092509     100002.4     69.45305      1.183     2.01    -10.13618     19.63487     16071.92       134     1.244     1.203  85.07   0
       146    235.5840    548.0601 300.0844754 +22.6151115     1765.154     69.55955      1.190     2.04    -10.68612     19.63487     293.6031        17     0.976     0.816 -87.01   0
       147    440.1275    528.3840 300.1544883 +22.6708407     1289.891     69.59501      1.270     2.12    -10.11835     19.63487     203.9963        14     0.925     0.768  39.24   0
       148    836.9697    514.2528 300.2826702 +22.7857832     855.8962     69.63046      1.158     1.92    -10.44381     19.63487     167.3325        10     0.845     0.660  55.48   0
       149    708.1980    512.1258 300.2432347 +22.7465689     1233.456     69.50632      1.191     1.85    -10.28426     19.63487     235.6466        15     0.901     0.827 -32.59   0
       150    613.4786    509.0495 300.2147333 +22.7172840     261.6601     69.59501      0.855     2.16    -9.895381     19.63487     56.38678         5     0.703     0.545  -6.97   0
       151    495.5524    508.0671 300.1783403 +22.6816345     375.2721     69.59501      1.251     3.06    -9.920276     19.63487     55.29831         8     0.855     0.655 -37.80   0
       152    965.5087    506.0058 300.3254278 +22.8219369     522.6208     69.50632      0.941     1.98    -10.71538     19.63487     121.2727         7     0.765     0.533  60.67   0
       153    951.1796    504.9126 300.3213144 +22.8173289     305.3323     69.52407      1.065     1.91    -10.63813     19.63487     70.74202         5     0.655     0.620 -80.43   0
       154    837.2828    504.8825 300.2858137 +22.7831851     998.5126     69.71899      1.172     1.85    -10.43438     19.63487     169.2782        12     0.865     0.706  48.57   2
       155    590.8268    502.3126 300.2098697 +22.7085567     303.9443     69.57728      1.256     3.59    -9.836349     19.63487     43.03862         6     0.883     0.505 -35.34   0
       156    875.2352    499.5647 300.2993730 +22.7930325      1985.16     69.66588      1.032     1.79    -10.42938     19.63487      372.291        16     0.866     0.778  73.60   0
       157    107.3848    490.0817 300.0634767 +22.5600012     581.7821     69.57728      1.248     2.62    -10.52426     19.63487      82.5069         9     0.952     0.586  72.97   0
       158    967.2304    490.0147 300.3311626 +22.8178574     391.9102     69.59501      1.034     2.27    -10.65513     19.63487     83.25915         7     0.812     0.577  18.88   0
       159    707.7737    473.6676 300.2556024 +22.7353958      242.297     69.57728      1.205     2.33    -10.01574     19.63487     41.81489         5     0.729     0.429  19.31   0
       160    648.6574    469.9019 300.2384123 +22.7165904     359.0358     69.68359      1.132     2.21    -9.711086     19.63487     63.38987         7     0.772     0.587 -62.05   0
       161    709.5220    462.0606 300.2599192 +22.7325860     452.8091     69.64817      1.075     2.09    -9.989979     19.63487     76.03208         6     0.730     0.500  89.95   0
       162    866.8011    458.2764 300.3101630 +22.7786415     561.8381     69.48857      1.178     2.42    -10.25208     19.63487     74.87627        10     0.863     0.691  85.00   0
       163    595.3324    452.9295 300.2273220 +22.6957272     1569.476     69.63046      1.167     2.17    -9.493316     19.63487     248.6315        16     0.935     0.805  76.27   0
       164    955.9061    451.2764 300.3402211 +22.8033311     213.7916     69.71899      1.065     3.02    -10.42469     19.63487     44.80804         7     0.839     0.583  30.56   0
       165   1006.5883    431.6853 300.3623954 +22.8128851     586.1292     69.54181      0.992     2.04     -10.6234     19.63487     123.0112         9     0.898     0.557  78.10   0
       166    878.4557    431.7932 300.3224025 +22.7745242     215.2677     69.57728      1.045     2.31    -10.08258     19.63487      50.2434         5     0.702     0.445 -65.70   0
       167    964.9763    430.4822 300.3498073 +22.8000723     406.8258     69.55955      1.033     1.85     -10.3563     19.63487     88.02728         8     0.741     0.612  89.09   0
       168    706.0200    426.8301 300.2702767 +22.7214163      493.575     69.59501      1.090     1.90    -9.860731     19.63487     97.13422         7     0.669     0.610  -1.74   0
       169    209.9140    425.0716 300.1164652 +22.5721207     220.1412     69.70129      1.000     2.76     -9.94908     19.63487     64.13456         6     0.737     0.554  61.57   0
       170    272.3611    420.9393 300.1372223 +22.5896718     1702.374     69.59501      1.227     2.14    -9.816055     19.63487     251.9709        19     0.983     0.895 -89.77   0
       171   1005.3790    419.0359 300.3661285 +22.8088867     2216.337     69.61273      1.134     1.88     -10.5956     19.63487     421.0838        19     0.964     0.812  87.03   0
       172    219.5512    415.7786 300.1224803 +22.5723458     3725.687     69.59501      1.180     2.06    -9.882992     19.63487     587.3604        25     1.052     0.929  77.83   0
       173    985.1595    410.0601 300.3627382 +22.8002492     788.3138     69.59501      1.112     2.03    -10.38923     19.63487       156.47        11     0.875     0.674  87.17   0
       174    360.3543    409.9495 300.1681585 +22.6129150     2454.643     69.61273      1.205     2.17    -9.680182     19.63487     349.7914        23     1.052     0.895  59.88   0
       175    604.4802    406.5236 300.2452493 +22.6851427     9119.574     69.70129      1.192     2.19    -9.226938     19.63487     1278.387        35     1.103     0.973  67.95   0
       176    938.0255    388.8484 300.3549302 +22.7800311      449.207     69.61273      1.182     2.29     -10.0519     19.63487     72.26877         6     0.714     0.543 -29.77   0
       177    159.1204    386.8354 300.1130996 +22.5459076     970.7101     69.54181      1.200     2.33    -10.08572     19.63487     139.7868        12     0.878     0.759  20.64   0
       178    545.1356    375.9878 300.2366927 +22.6585798     3255.936     69.54181      1.270     2.20    -9.644152     19.63487      493.216        24     1.060     0.929  74.48   0
       179    958.7302    376.0814 300.3655349 +22.7825643      455.865     69.70129      1.123     2.04    -10.08012     19.63487     117.4602        10     0.808     0.744  56.13   0
       180    259.9173    375.3529 300.1481627 +22.5728551     379.3345     69.59501      1.324     3.10    -9.778186     19.63487     47.93596         6     0.751     0.601  50.17   0
       181    749.4239    364.9871 300.3038919 +22.7166589     676.4972     69.59501      1.395     2.17     -9.89516     19.63487     105.7742        10     0.905     0.639  26.89   0
       182    451.7359    362.2136 300.2120967 +22.6266177     2929.643     69.55955      1.208     2.23    -9.250981     19.63487     440.9336        21     1.093     0.871  70.79   0
       183    843.6563    356.4426 300.3360354 +22.7424424     752.3652     69.57728      1.290     2.64    -9.955342     19.63487     100.3329        11     1.092     0.573  81.24   0
       184    941.1516    356.4781 300.3664212 +22.7716632     290.8871     69.59501      1.092     2.07     -10.0104     19.63487     59.07174         6     0.669     0.602 -74.70   0
       185    816.6057    344.1238 300.3316053 +22.7307966     321.7634     69.50632      1.208     2.44    -9.946769     19.63487     57.57016         6     0.775     0.475  79.10   0
       186    339.4740    341.5802 300.1838731 +22.5870253     1203.384     69.59501      1.189     2.14    -9.552779     19.63487     175.0184        15     0.937     0.828 -85.13   0
       187     57.7817    339.0392 300.0971367 +22.5017835     544.7776     69.61273      1.285     2.72    -10.35597     19.63487     83.66195        11     0.919     0.772  58.66   0
       188    308.7237    331.0082 300.1777430 +22.5747671     14385.83     69.55955      1.262     2.15    -9.620506     19.63487     2185.615        46     1.194     1.019  68.20   0
       189    843.0653    328.3033 300.3449915 +22.7341781     604.5056     69.70129      1.198     3.32    -9.953881     19.63487     102.5196        12     1.098     0.716  12.74   0
       190      5.1192    318.9367 300.0873075 +22.4802117     2416.253     69.25739      1.265     2.24    -10.21721     19.63487     369.2625        22     1.022     0.946  35.09  16
       191    758.4918    317.3390 300.3221944 +22.7056850     407.4148     69.68359      1.129     1.92     -9.64115     19.63487     72.10773         5     0.688     0.466   9.67   0
       192    407.1527    316.2819 300.2131430 +22.6000592       103.68     69.61273      0.924     3.61    -9.283499     19.63487       37.823         6     0.937     0.573 -66.78   0
       193    718.9916    310.5984 300.3120763 +22.6919108     892.2914     69.41752      1.191     2.31    -9.361706     19.63487     157.3987        11     0.919     0.663  65.19   0
       194    380.8861    295.4850 300.2117251 +22.5862107     972.8699     69.71899      1.262     2.89    -9.402902     19.63487     122.8782        12     1.021     0.719  61.30   0
       195    819.8733    287.9979 300.3508528 +22.7156450     310.7827     69.50632      1.227     2.74    -9.938945     19.63487     57.97161         6     0.897     0.434  55.45   0
       196    456.6675    274.2445 300.2422013 +22.6028343     522.4746     69.57728      1.307     2.90    -9.272614     19.63487     83.32725        10     0.985     0.763 -18.41   0
       197    701.5391    266.3833 300.3209978 +22.6739754     992.1742     69.54181      1.164     2.39    -9.190228     19.63487     154.5877        13     0.936     0.769  88.78   0
       198    962.7297    260.6409 300.4042771 +22.7505744     1579.188     69.55955      1.139     2.13    -9.859542     19.63487     235.3895        15     0.916     0.786  28.77   0
       199    409.9126    250.2234 300.2354524 +22.5819171     247.6094     69.54181      1.155     2.84    -9.305521     19.63487     49.29861         8     0.802     0.672  51.66   0
       200    115.3379    244.5669 300.1456955 +22.4919440     248.2906     69.59501      1.078     3.36    -9.593531     19.63487     38.84222         7     0.903     0.544 -59.55   0
       201     84.3999    244.7910 300.1360099 +22.4827264     553.9139     69.41752      1.334     3.76    -9.578776     19.63487     64.58646         9     0.965     0.747  26.70   0
       202    978.6211    241.1185 300.4155726 +22.7497204     254.9814     69.55955      1.290     2.44     -9.78908     19.63487     41.32033         5     0.707     0.455 -71.86   0
       203    772.9766    227.9378 300.3557390 +22.6843316      285.141     69.57728      1.207     3.77    -9.333438     19.63487     39.19255         5     0.670     0.610  -1.10   0
       204    871.1237    216.8209 300.3899401 +22.7105377     902.5006     69.59501      1.130     2.01    -9.476159     19.63487     186.6085        11     0.860     0.676 -77.38   0
       205    289.9285    214.3668 300.2097717 +22.5356420     1099.618     69.59501      1.326     2.25    -9.440913     19.63487     144.1797        13     0.878     0.793  72.19   0
       206    367.6656    209.2270 300.2356185 +22.5574763     447.2841     69.57728      1.292     2.73    -9.263808     19.63487     66.09122         8     0.906     0.616 -28.23   0
       207    769.5557    208.3876 300.3610200 +22.6776873     184.4366     69.59501      1.129     2.70    -9.259941     19.63487     48.99744         6     0.834     0.493  44.40   0
       208    184.5461    201.5877 300.1811563 +22.5003677     397.8368     69.61273      1.264     3.27    -9.426619     19.63487     57.92491         8     0.893     0.695 -47.57   0
       209    722.3385    198.3542 300.3495646 +22.6606570     757.8226     69.61273      1.126     2.40    -9.173701     19.63487     107.4595        13     0.888     0.824 -84.91   0
       210    787.1909    197.6539 300.3700003 +22.6798851     286.2552     69.59501      1.132     2.41     -9.25664     19.63487     51.81792         6     0.699     0.608  66.52   0
       211    205.9632    195.0116 300.1899483 +22.5049034     390.0477     69.57728      1.404     1.86    -9.370494     19.63487     60.33018         5     0.587     0.564  89.05   0
       212    993.9686    190.5286 300.4367841 +22.7397682      480.674     69.59501      1.143     1.92    -9.526966     19.63487     81.04845         8     0.709     0.659 -78.18   0
       213    726.2840    189.5524 300.3536511 +22.6593092     400.6164     69.59501      1.238     3.84     -9.17131     19.63487     43.21058         8     0.818     0.786 -22.97   0
       214    647.0442    188.9438 300.3291645 +22.6353916     514.4803     69.59501      1.186     2.74    -9.121938     19.63487     78.25949         8     0.802     0.661  55.85   0
       215    842.1348    180.3532 300.3927415 +22.6913700     756.4976     69.61273      1.184     2.14    -9.201432     19.63487     121.9597        11     0.917     0.711  58.15   0
       216    573.4800    180.8198 300.3088930 +22.6110119     411.9892     69.59501      1.093     2.43    -8.942244     19.63487     68.82143         6     0.705     0.599 -54.63   0
       217    854.1769    179.5291 300.3967629 +22.6947400     277.7062     69.63046      1.174     2.71    -9.206414     19.63487     59.36311         9     0.842     0.726  30.20   0
       218   1015.1448    170.3758 300.4499317 +22.7403129     754.7365     69.63046      1.115     1.98    -9.399388     19.63487     135.4291        11     0.835     0.682  71.28   0
       219    971.0583    169.5716 300.4364409 +22.7268807     505.8317     69.59501      1.307     2.95    -9.399388     19.63487     76.22161         9     0.876     0.708 -89.90   0
       220    205.2148    163.2335 300.2000298 +22.4955554     397.9637     69.57728      1.250     2.57    -9.189058     19.63487     47.41322         6     0.712     0.571  41.10   0
       221     67.0861    158.0640 300.1587816 +22.4526410     974.1709     69.68359      1.298     2.67    -8.856606     19.63487     130.4843        14     1.023     0.842 -77.42   0
       222     16.6396    154.7648 300.1441816 +22.4365605     152.2394     69.64817      1.115     3.48     -8.47784     19.63487     35.38487         5     0.759     0.461  77.21   0
       223    890.0298    154.5852 300.4160370 +22.6983059     313.4818     69.59501      1.332     2.16    -9.164687     19.63487     67.22058         6     0.738     0.478  12.23   0
       224    224.5307    151.2685 300.2099178 +22.4979126     2794.793     69.64817      1.236     2.31    -9.153349     19.63487     354.8431        24     1.177     0.873  86.71   0
       225      8.6211    145.7356 300.1446212 +22.4315635     475.6551     69.55955      1.270     2.48    -8.440284     19.63487     68.15857        10     0.848     0.725 -53.42   0
       226    207.9621    142.0559 300.2077567 +22.4902988     272.6018     69.59501      1.291     2.59    -9.109529     19.63487     46.46441         7     0.854     0.515 -46.65   0
       227   1023.0988    138.4368 300.4627796 +22.7335076     8200.621     57.22073      1.104     2.14    -9.247018     19.63487     1352.699        25     1.064     0.777  82.61  24
       228    868.4426    132.5618 300.4164545 +22.6855081     1768.366     69.68359      1.183     2.10    -9.018545     19.63487     261.1821        19     0.966     0.912  61.94   0
       229    972.1135    131.1667 300.4492350 +22.7161512     1438.738     69.55955      1.229     2.13    -9.200519     19.63487     231.9528        14     0.953     0.774  75.98   0
       230    418.0804    128.2883 300.2775732 +22.5493425     215.2412     69.71899      1.262     2.51    -8.967016     19.63487     56.02717         6     0.732     0.616 -63.72   0
       231    108.3620    117.0576 300.1849130 +22.4532508     423.3066     69.59501      1.364     3.46    -8.833124     19.63487     50.64296         7     0.837     0.631  15.33   0
       232    469.4922    115.2643 300.2977981 +22.5610107     895.7839     69.70129      1.304     2.81    -8.677637     19.63487     113.7349        14     0.970     0.881 -58.09   0
       233    397.2969    115.5049 300.2752548 +22.5394402       294.37     69.77205      1.189     3.44    -8.998748     19.63487     40.54544         5     0.761     0.448  21.09   0
       234    243.3476     95.1842 300.2339670 +22.4874501     3063.406     69.59501      1.282     2.29    -9.028133     19.63487     374.8164        25     1.205     0.923  65.61   0
       235     94.5790     94.4507 300.1879654 +22.4426268     383.1857     69.59501      1.128     3.13     -8.67648     19.63487     47.98286         6     0.833     0.493 -87.83   0
       236    258.9037     86.2766 300.2416939 +22.4895561     202.8532     69.73668      1.188     3.72     -8.99505     19.63487     35.78475         5     0.829     0.480 -56.91   0
       237      5.0259     85.3030 300.1631132 +22.4131397     184.2028      68.9539      1.121     3.13    -8.550775     19.63487     40.41989         5     0.809     0.491  61.96  16
       238    489.4203     80.4373 300.3153009 +22.5569763     3122.906     69.61273      1.250     2.32    -8.472177     19.63487     417.7755        21     1.010     0.917  74.93   0
       239    375.2804     80.0193 300.2799192 +22.5226468     286.5453     69.59501      1.197     2.49    -8.845263     19.63487     49.12211         7     0.738     0.623 -73.65   0
       240    742.0941     70.1620 300.3973229 +22.6297244      377.062     69.57728      1.170     2.89    -8.754517     19.63487     49.13939         7     0.717     0.665  77.27   0
       241    834.6375     68.6854 300.4266436 +22.6570159     367.0155     69.57728      1.745     4.49    -8.794188     19.63487     43.09924         8     1.076     0.637  35.63   0
       242    540.2100     62.8558 300.3368152 +22.5671436     267.5188     69.59501      1.220     3.50    -8.506774     19.63487     37.21667         5     0.887     0.431 -42.97   0
       243    617.7775     60.4634 300.3617437 +22.5896964      3010.26     69.57728      1.229     2.25     -8.54804     19.63487     446.7357        23     1.047     0.894  72.16   0
       244    392.7660     59.4614 300.2920287 +22.5219818       866.55     69.61273      1.415     3.31    -8.685688     19.63487     85.18056        15     1.098     0.874  35.76   0
       245    658.8939     57.9096 300.3753781 +22.6012798     432.0588     69.75437      1.237     2.41     -8.62891     19.63487     62.79991         7     0.818     0.536  44.67   0
       246    674.7142     53.5097 300.3817334 +22.6047541     255.7372     69.75437      1.131     3.80    -8.640997     19.63487     38.73481         6     0.915     0.452 -89.86   0
       247    141.5849     52.0829 300.2163173 +22.4445592     391.4177     69.55955      1.507     5.05     -8.70961     19.63487     42.40219         8     1.170     0.616  72.18   0
       248    944.7467     51.3177 300.4666096 +22.6849902      260.497     69.63046      1.405     3.24    -8.549073     19.63487     38.16235         5     0.895     0.423  82.50   0
       249    713.4183     49.2521 300.3951721 +22.6151234     416.8935     69.57728      1.428     2.66    -8.629251     19.63487     36.26584         5     0.706     0.460  70.61   0
       250    676.6531     43.5748 300.3855604 +22.6024788     431.8046     69.61273      1.621     3.32    -8.598639     19.63487     40.31492         6     0.909     0.669  15.05   2
       251    661.9926     45.3989 300.3804020 +22.5986116     1319.247     69.41752      1.219     2.33    -8.587996     19.63487     198.0793        15     0.972     0.829  69.07   0
       252    302.8799     46.3572 300.2683198 +22.4912742     208.4827     69.57728      1.024     2.00    -8.639384     19.63487     47.67924         5     0.692     0.443 -20.00   0
       253    748.4231     36.7925 300.4101209 +22.6220254     634.5245     69.59501      1.183     2.18    -8.616031     19.63487     107.0623        10     0.788     0.747  57.48   0
       254    686.8190     30.1147 300.3930936 +22.6016541     371.1797     69.52407      1.283     2.98    -8.537936     19.63487     54.71944         5     0.624     0.589  52.30   0
       255    492.0353     29.5026 300.3326388 +22.5431231      652.586     69.59501      1.485     3.37    -8.474212     19.63487     77.24625        11     1.025     0.794 -40.78   0
       256    395.8297     27.7296 300.3032755 +22.5137832     357.1089     69.59501      1.228     3.86    -8.459333     19.63487     49.06075         7     0.855     0.591  75.91   0
       257    197.0006   1018.2986 299.9194725 +22.7383503     1014.775     69.47081      3.656     8.55     24.09646     19.63487     38.38004         9     2.090     0.977   6.04  18
       258    735.4333     18.0287 300.4121601 +22.6127397     347.7222     69.61273      1.221     2.87    -8.473037     19.63487     54.47247        10     0.986     0.633  22.89   0
       259    493.0706     14.5388 300.3378149 +22.5391330     205.2556     69.63046      1.079     4.26     -8.47489     19.63487      33.3048         5     0.801     0.645 -80.13   0
       260    173.0139   1013.6211 299.9135415 +22.7298031     1082.086     69.55955      6.468     8.21     23.38985     19.63487      34.6943        18     2.240     0.840  75.91  19
       261    169.1828   1011.6445 299.9129947 +22.7280857     1044.432     69.61273      6.983     9.12     22.80727     19.63487     43.65616        21     2.178     1.066  89.93  19
       262    165.0632   1010.8154 299.9119846 +22.7266104     1006.077     69.55955      7.357    10.36     22.58527     19.63487     46.91377        22     2.428     1.231 -60.00  19
