#   1 NUMBER                 Running object number                                     
#   2 X_IMAGE                Object position along x                                    [pixel]
#   3 Y_IMAGE                Object position along y                                    [pixel]
#   4 ALPHA_J2000            Right ascension of barycenter (J2000)                      [deg]
#   5 DELTA_J2000            Declination of barycenter (J2000)                          [deg]
#   6 FLUX_APER              Flux vector within fixed circular aperture(s)              [count]
#   7 FLUXERR_APER           RMS error vector for aperture flux(es)                     [count]
#   8 FLUX_RADIUS            Fraction-of-light radii                                    [pixel]
#   9 FWHM_IMAGE             FWHM assuming a gaussian core                              [pixel]
#  10 BACKGROUND             Background at centroid position                            [count]
#  11 THRESHOLD              Detection threshold above background                       [count]
#  12 FLUX_MAX               Peak flux above background                                 [count]
#  13 ISOAREA_IMAGE          Isophotal area above Analysis threshold                    [pixel**2]
#  14 A_IMAGE                Profile RMS along major axis                               [pixel]
#  15 B_IMAGE                Profile RMS along minor axis                               [pixel]
#  16 THETA_IMAGE            Position angle (CCW/x)                                     [deg]
#  17 FLAGS                  Extraction flags                                          
         1    788.7874     12.5814 300.4334519 +22.6231789     1053.975     69.52512      1.205     2.03     -8.25493     19.62515     176.0449        14     0.939     0.782 -86.52   0
         2    494.7047     10.6439 300.3425017 +22.5345439     237.1729     69.57829      1.010     3.63    -8.499849     19.62515     45.05038         5     0.984     0.385  74.31   0
         3    172.3677      8.1388 300.2430711 +22.4372251     490.4854       69.596      1.328     2.26    -8.614481     19.62515      57.6903         7     0.695     0.636  55.75   0
         4    963.5818      6.0122 300.4900692 +22.6736160      407.618     69.52512      1.274     2.02    -8.468672     19.62515     60.86654         6     0.729     0.491  85.02   0
         5    737.3356      4.9861 300.4198842 +22.6055894      430.907     68.84821      1.181     2.89    -7.415156     19.62515     70.70566         8     0.864     0.636 -81.95  16
         6    638.1246   1009.5129 300.0625592 +22.8642546     4814.869     69.68449      1.087     1.77    -13.04398     19.62515     812.9292        34     1.113     0.917 -67.96   2
         7    354.1419   1023.5848 299.9696164 +22.7830309     221.8734     54.61295      0.903     1.94    -12.50009     19.62515     44.94027         5     0.667     0.465 -20.08  24
         8    199.1940   1012.0734 299.9251999 +22.7331938     2302.601     69.50739     10.854    19.21     13.00829     19.62515     81.11134       119     4.039     3.136 -13.86  19
         9    237.7154    999.6522 299.9412154 +22.7412064     4014.837     69.57829      9.323    36.11     3.823873     19.62515     110.6974       466     9.521     4.687  65.13  18
        10    219.1179   1009.5712 299.9322060 +22.7384619     2715.212     69.57829     11.095    25.01     11.02763     19.62515     63.58649       192     4.756     4.076  50.06  19
        11    175.3671   1022.6977 299.9143369 +22.7290794     998.7672     59.18341      6.929     9.35     17.82484     19.62515     43.07707        14     1.714     1.422 -84.82  27
        12    167.6892   1021.9602 299.9121915 +22.7265616     1313.958     62.58423      6.182     9.43     18.05101     19.62515     47.26901        22     2.108     1.248 -30.83  26
        13     67.1246   1018.8958 299.8819513 +22.6954695     1624.248     69.70217     14.153    19.64     6.367326     19.62515     44.78411        71     3.993     2.685 -87.18  27
        14     73.0914   1006.4391 299.8878602 +22.6936949     1249.807     69.56057     12.011    11.02     6.042154     19.62515     56.43653        24     2.252     1.502 -37.94   3
        15     84.7284   1022.0934 299.8863773 +22.7016747     1416.646      62.0701      8.965    14.53     13.95615     19.62515     51.54223        35     2.987     1.965  28.97  27
        16     80.3675   1009.6878 299.8890622 +22.6968115     1607.231     69.52512     12.014    15.75     9.285012     19.62515     41.38681        48     3.990     1.728  47.45  19
        17     77.3263   1022.2870 299.8840154 +22.6995061     1455.557      61.2506      8.107    11.65     10.82229     19.62515     57.83103        40     2.850     1.327   6.90  27
        18     76.3889   1015.9515 299.8857871 +22.6974100     2183.796     69.57829     11.748    15.62     9.160768     19.62515     63.07518        69     3.289     2.064  45.04  19
        19    107.9800   1011.5865 299.8970203 +22.7056517     501.0276     69.52512      3.589     4.59     15.77321     19.62515     29.39903         5     1.060     0.566 -74.50   0
        20     75.3561    944.3981 299.9087610 +22.6766060     1868.052     69.54285     28.766    52.82    -6.187467     19.62515     64.30785       381    10.963     7.061 -58.01   3
        21    108.0627    991.4656 299.9035971 +22.6999135     881.7065       69.596      9.826    10.09     9.752604     19.62515      30.7357        14     2.310     1.229  -9.61   1
        22     82.1957    932.7456 299.9146781 +22.6753230     1699.415     69.54285     11.022    17.13    -7.977721     19.62515      46.3932        66     3.777     2.158 -15.44   3
        23     77.2107    967.0689 299.9019571 +22.6836567     2316.288     69.54285     24.026    47.21    -1.015549     19.62515     54.64632       262    17.077     3.622  73.36  19
        24    107.2306    985.5541 299.9052633 +22.6979703     650.0057       69.596      4.787     4.67      8.31876     19.62515     27.26254         5     1.049     0.591 -73.92   3
        25    145.6644    982.6889 299.9181352 +22.7086959     806.2413     69.68449      4.208     7.07     7.479022     19.62515     30.99804        10     1.504     0.932 -46.89   2
        26    213.7143   1018.2196 299.9277108 +22.7393163     1662.952     69.48966     11.566    15.91     13.60143     19.62515     47.96651        61     4.316     1.630  -0.32  19
        27    815.8989    979.7004 300.1276374 +22.9090482     10354.18     69.79053      1.153     4.52    -13.52159     19.62515     2434.418        16     1.131     0.514 -69.52   0
        28    113.9261    999.1640 299.9029120 +22.7038801     853.1031     69.50739      4.639     5.55     12.04428     19.62515     28.20901         5     1.496     0.579  20.06   1
        29    650.8913    978.8485 300.0765190 +22.8592928     3514.655     69.57829      1.210     1.95    -12.98565     19.62515      653.996        25     1.021     0.889  45.15   0
        30    165.5554   1002.6306 299.9178224 +22.7203837     956.6688       69.596      4.265     5.67     12.81388     19.62515     40.13154        10     1.117     0.996   6.23   3
        31    163.5314    996.0724 299.9193288 +22.7178971     595.8274     69.63141      3.858     3.97     10.96962     19.62515     34.64309         5     0.904     0.499 -88.75   0
        32    530.3671    973.1379 300.0408615 +22.8214815     291.7676     69.56057      1.233     2.53    -12.98952     19.62515     42.33981         5     0.711     0.454  72.87   0
        33    559.4135    969.6331 300.0510424 +22.8291953     723.3269     69.54285      1.031     2.52    -12.98235     19.62515     132.5195        12     0.936     0.676 -88.20   0
        34     96.9140    971.5337 299.9066233 +22.6908551     935.0817     69.66679      3.224     3.56     4.293246     19.62515     32.25285         5     1.229     0.298 -35.44   3
        35    104.4816    968.4384 299.9099815 +22.6922420     947.1158     69.52512     10.095    10.48     3.153352     19.62515     40.89651        19     2.610     1.172 -26.47   3
        36    453.2495    966.2137 300.0191211 +22.7963463      414.096       69.596      1.005     2.24    -12.88232     19.62515     96.04233         9     0.849     0.653  88.17   0
        37    383.8817    964.2736 299.9981763 +22.7749635     3278.842     69.66679      1.107     1.78    -12.56278     19.62515     662.1342        19     0.897     0.842  44.19   0
        38     59.7081    984.9166 299.8907111 +22.6835098     2041.073     69.71985     19.428    20.49    -1.535127     19.62515     47.89919        94     4.431     2.631 -82.28   3
        39    925.3527    995.6172 300.1565672 +22.9464479     403.5782       69.596      1.140     2.92    -13.68132     19.62515     59.35831         8     0.868     0.692  66.53   0
        40     70.2166    989.0847 299.8926177 +22.6878609     1812.675     69.52512     19.020    24.38     1.809526     19.62515     46.60082       117     8.448     1.954  89.13  19
        41    416.4090    951.1379 300.0125692 +22.7809645     272.4245     69.50739      1.003     2.26    -12.62368     19.62515     38.89775         5     0.700     0.452  68.84   0
        42    930.0158    942.8080 300.1752156 +22.9326929     1101.373     69.48966      1.037     1.75    -13.17652     19.62515     232.5202        11     0.796     0.678  -0.34   0
        43    718.7588    931.2932 300.1131360 +22.8660184     406.4672     69.57829      1.351     3.95    -12.96822     19.62515     73.69238         7     1.400     0.347  62.32   0
        44     60.6516    995.6497 299.8875098 +22.6868672     2007.833       69.596     19.698    31.15    0.4569427     19.62515     50.25126       182     6.049     4.452  -5.37  19
        45    753.5831    926.0039 300.1257050 +22.8749491     646.7877     69.48966      1.340     3.34    -12.96439     19.62515     90.93524        10     1.023     0.783  76.80   0
        46    164.9411   1006.0588 299.9165153 +22.7211812     690.8886     69.63141      4.440     5.06     13.73434     19.62515     36.19332         5     1.191     0.608 -58.17   3
        47    775.8978    919.5602 300.1347541 +22.8797948     5477.839     69.56057      1.015     1.60    -12.94673     19.62515     1109.427        27     0.924     0.846 -76.41   0
        48    966.7316    918.8030 300.1944773 +22.9368144     224.6213     69.54285      0.833     2.90    -13.01798     19.62515     60.02488         5     0.937     0.374  73.98   0
        49    821.2560    919.3550 300.1489531 +22.8933423     156.7753       69.596      0.890     2.30    -12.99143     19.62515     40.31179         5     0.676     0.472   9.66   0
        50     80.2765    982.3230 299.8979434 +22.6889468     2772.624      69.6491     25.464    45.23     2.955907     19.62515     62.91898       382     8.860     6.408  34.68  19
        51    481.3194    907.8890 300.0468403 +22.7880517      228.444     69.68449      1.113     4.10    -12.74579     19.62515     46.41803         5     1.033     0.466  30.37   0
        52    784.4768    901.7173 300.1432349 +22.8772493     658.7668     69.66679      1.007     2.50    -12.89579     19.62515     122.8664        10     0.861     0.635  47.87   0
        53    967.4753    900.7018 300.2006016 +22.9318421     263.0034     69.68449      0.982     2.40    -12.99553     19.62515     45.61435         5     0.697     0.472  71.33   0
        54    822.6797    895.1636 300.1572713 +22.8868282     464.4315     69.50739      1.125     2.22     -12.9507     19.62515     80.30403         8     0.821     0.596  87.16   0
        55    870.7711    886.2780 300.1751504 +22.8987024     259.1021     69.56057      1.124     2.58    -12.95183     19.62515      63.3741         5     0.788     0.454 -46.67   0
        56    722.1031    885.2686 300.1291589 +22.8538190     299.1294     69.68449      0.949     1.70    -12.59955     19.62515     85.01121         7     0.650     0.582 -20.69   0
        57    733.5734    882.6326 300.1335895 +22.8565038     349.6003     69.56057      0.953     2.18     -12.5881     19.62515     56.96967         5     0.649     0.484  76.07   0
        58    435.0344    881.8806 300.0409058 +22.7667016     1969.206     69.50739      1.102     1.74    -12.40949     19.62515     445.3847        16     0.849     0.775 -79.14   0
        59    108.3331    999.7371 299.9009881 +22.7023639     941.4618      69.6137      6.269     7.38     12.33286     19.62515     39.02937        13     1.824     0.837 -66.08   1
        60    160.2215    867.5959 299.9601192 +22.6800947     352.1819     69.52512      1.226     2.75     -11.5642     19.62515     61.56725         9     0.841     0.738 -25.82   0
        61    137.3905    864.8424 299.9539220 +22.6724488     651.6456     69.56057      1.073     2.02    -11.74699     19.62515     143.7536        10     0.822     0.664  25.73   0
        62   1008.7927    853.3989 300.2288817 +22.9306520     1091.725     69.38316      1.113     1.94    -12.94662     19.62515     202.8639        12     0.815     0.749  44.00   0
        63    963.1386    851.8257 300.2151574 +22.9165125     1146.874     69.56057      1.083     1.71    -12.85787     19.62515     258.4242        12     0.840     0.704  60.23   0
        64    746.8316    845.7825 300.1497121 +22.8499084     248.3828     69.54285      0.909     2.11    -12.36783     19.62515     65.81345         6     0.705     0.576 -80.42   0
        65    614.8754    839.8952 300.1105351 +22.8086327      2360.37     69.70217      1.102     1.67     -12.1761     19.62515     542.0136        19     0.912     0.859  88.90   0
        66    165.2473    833.8267 299.9726688 +22.6719274     588.2503     69.57829      1.103     2.28    -11.76595     19.62515     145.4406        10     0.868     0.674 -23.13   0
        67    635.5317    832.3625 300.1194173 +22.8126694     326.8747     69.54285      0.964     2.30    -12.20403     19.62515     57.02676         5     0.658     0.480 -72.40   0
        68   1007.7544    819.8381 300.2394794 +22.9207057     649.0651      69.6137      1.118     1.87    -12.80878     19.62515     117.2675         9     0.753     0.662 -19.68   0
        69    790.9695    819.6245 300.1719744 +22.8556413     2026.141     69.56057      1.022     1.58    -12.27173     19.62515     441.1744        16     0.882     0.761 -22.21   0
        70    199.3231    814.2850 299.9896152 +22.6765595     354.2825     69.66679      1.207     3.89    -11.76051     19.62515     55.04188         6     1.040     0.417 -77.20   0
        71    507.9362    812.2789 300.0862362 +22.7686234     336.7522      69.6491      1.285     1.92    -11.79096     19.62515     62.66534         7     0.675     0.616  23.39   0
        72    154.2148    810.3899 299.9768662 +22.6618980     531.5554     69.47192      1.246     2.48    -11.79243     19.62515      87.1927         7     0.775     0.629  46.51   0
        73    304.0360    802.4529 300.0260122 +22.7046067     26209.01     69.57829      1.124     1.83    -11.82877     19.62515     4703.966        56     1.070     1.018 -81.24   0
        74    569.4743    804.9337 300.1077779 +22.7849821     338.4166      69.6137      1.005     4.17    -11.86966     19.62515     48.00285         6     1.006     0.493 -84.74   0
        75    561.8275    801.1911 300.1066154 +22.7816142     840.7448     69.56057      1.143     2.03    -11.78856     19.62515     157.3717        12     0.863     0.773 -79.40   0
        76    974.4745    800.3632 300.2354384 +22.9051376     484.9147      69.5074      0.995     3.08    -12.55801     19.62515     92.22598         8     1.068     0.555 -39.97   0
        77    590.9167    797.1258 300.1169927 +22.7891759     371.1783      69.6491      1.124     1.65    -11.96433     19.62515     85.12435         5     0.568     0.532  73.77   0
        78    601.8478    795.5282 300.1209153 +22.7919972     301.2523     69.54285      1.085     2.67    -12.02938     19.62515     49.78312         6     0.757     0.498   3.46   0
        79   1022.9948    788.5865 300.2544011 +22.9163015     1382.964     57.66456      0.660     0.70    -12.72566     19.62515     652.3298         7     0.528     0.453 -82.57  24
        80    744.4745    782.3756 300.1696090 +22.8310074     403.9598       69.596      0.969     2.86    -11.89936     19.62515      79.8167         6     0.888     0.449 -54.60   0
        81    353.7543    779.6815 300.0488793 +22.7130026     15397.74     69.54285      1.120     1.82    -11.69359     19.62515     2792.944        43     1.022     0.976  83.54   0
        82    367.8647    780.2144 300.0530940 +22.7173907     939.7018     69.52512      1.180     1.95    -11.67296     19.62515     183.6578        12     0.838     0.785 -59.62   0
        83    876.7598    775.3354 300.2131187 +22.8686565     1358.987     69.52512      1.020     1.55    -12.05794     19.62515     296.1338        13     0.848     0.694 -87.29   0
        84    634.6945    771.6624 300.1389057 +22.7950046     505.2515      69.6491      1.038     2.61    -11.85287     19.62515     84.11577         7     0.802     0.506  45.17   0
        85    236.1547    771.0443 300.0151286 +22.6752242     272.0781       69.596      1.113     2.32    -11.68155     19.62515     68.79453         8     0.790     0.635  43.25   0
        86     40.6836    767.0813 299.9556898 +22.6153928     319.7425     69.68449      1.323     3.18    -12.15257     19.62515     37.46278         7     0.838     0.597  59.65   0
        87    481.7388    766.3932 300.0930125 +22.7476021     437.7139     69.52512      1.062     2.15    -11.56718     19.62515     79.03262         8     0.803     0.599 -14.61   0
        88    882.8674    762.8816 300.2190739 +22.8669128    -195.9035     69.66679      0.000     2.61    -11.96201     19.62515     55.37523         5     0.735     0.638 -46.27   0
        89    427.4806    761.0942 300.0778560 +22.7298002     186.8709     69.68449      0.891     4.05    -11.51032     19.62515     51.05732         5     0.929     0.506 -41.20   0
        90     69.4122    760.7992 299.9666551 +22.6222206     285.2408     69.38316      1.169     3.42    -11.97922     19.62515     43.90438         6     0.719     0.649  28.47   0
        91    233.7839    756.0712 300.0192621 +22.6702203     342.9886     69.56057      1.213     2.45    -11.65362     19.62515     53.60584         5     0.687     0.656  86.36   0
        92    548.6384    741.7518 300.1218464 +22.7606069     779.8849     69.57829      1.219     2.00    -11.50283     19.62515     126.3072        12     0.854     0.728  41.65   0
        93    943.1306    740.5602 300.2451212 +22.8785716     2288.616     69.52512      1.013     1.64    -12.03443     19.62515     476.3655        16     0.851     0.736  80.66   0
        94    931.4821    731.7837 300.2443444 +22.8725597     841.5046     69.52512      1.073     1.78    -11.92542     19.62515      158.886        13     1.035     0.681  59.68   0
        95    294.4301    726.2061 300.0478275 +22.6798635     412.3574     69.56057      1.011     2.03    -11.23529     19.62515     79.41608         6     0.752     0.498 -46.45   0
        96    757.7207    723.3234 300.1929448 +22.8180328     1158.153     69.66679      1.059     1.88    -11.53475     19.62515     219.2659        13     0.789     0.758  77.76   0
        97    962.7480    722.1647 300.2572213 +22.8791703     800.5665     69.57829      0.990     1.69    -12.00731     19.62515     187.7825        10     0.837     0.577  84.92   0
        98    143.4583    710.0403 300.0061645 +22.6299077      343.525     69.56057      1.127     2.96    -11.62752     19.62515     59.72591         6     0.792     0.606 -58.47   0
        99    840.5172    709.2049 300.2233347 +22.8388065     252.5649     69.48966      1.194     1.90    -11.52869     19.62515     55.54821         5     0.660     0.494 -80.33   0
       100    876.3312    700.2557 300.2374071 +22.8469745     72463.02     69.57829      1.063     1.67    -11.58826     19.62515     14783.02        99     1.132     1.059 -86.19   0
       101   1023.2532    701.9126 300.2826767 +22.8914895      642.601      56.4113      1.053     1.78    -12.09517     19.62515     136.4319         8     0.702     0.641  48.88  24
       102    728.6080    700.4713 300.1913084 +22.8027437       386.54     69.54285      1.074     3.39    -11.49084     19.62515     60.59085         7     0.890     0.661  46.46   0
       103    562.6043    689.2679 300.1432628 +22.7497395     839.9451     69.54285      1.208     2.23    -11.32577     19.62515     124.2802        12     0.900     0.746  57.15   0
       104    743.8362    686.4316 300.2006179 +22.8032806     4545.554     69.57829      1.118     1.81     -11.4685     19.62515     802.4148        27     0.994     0.901  84.60   0
       105    245.4500    681.9107 300.0470063 +22.6524614     2280.763     69.56057      1.187     2.14    -11.26649     19.62515     340.9254        19     1.035     0.817 -85.05   0
       106    327.2265    679.7115 300.0731443 +22.6763749     390.0669     69.52512      1.049     2.68    -11.07977     19.62515     93.98309         9     0.858     0.728  47.01   0
       107    535.5363    674.9414 300.1394968 +22.7375093     519.8177       69.596      1.433     2.70    -11.24272     19.62515     65.40063         8     0.840     0.638  40.06   0
       108    527.3571    667.4263 300.1393950 +22.7328996     1675.074     69.57829      1.144     2.12    -11.10855     19.62515     235.9035        18     1.010     0.834 -66.56   0
       109    517.5973    661.1299 300.1384050 +22.7281654     829.2972     69.50739      1.367     2.16    -10.99551     19.62515     119.8542        10     0.780     0.744  85.83   0
       110    911.4924    659.0026 300.2617829 +22.8456699     287.4322     69.47192      1.407     3.47    -11.38997     19.62515     50.98792         6     0.989     0.427  73.07   0
       111    180.8680    657.3673 300.0349155 +22.6260390     310.8829     69.56057      1.102     2.20    -11.17877     19.62515      61.7988         7     0.805     0.556 -79.93   0
       112    195.2070    655.4333 300.0400001 +22.6297888       226.45     69.56057      1.045     2.75    -11.12798     19.62515     47.82257         5     0.712     0.465  18.64   0
       113    220.5222    652.7101 300.0487529 +22.6366068     192.1219     69.70217      0.986     2.91     -11.0545     19.62515     42.81321         5     0.725     0.448 -67.15   0
       114    964.3797    651.8422 300.2806002 +22.8594653     213.4642       69.596      1.047     1.91    -11.32778     19.62515     42.51165         5     0.679     0.449 -68.94   0
       115    442.4604    650.8834 300.1183578 +22.7026844     834.8301     69.66679      1.129     2.27    -10.82426     19.62515      134.846        13     0.884     0.806 -12.75   0
       116   1018.0624    647.7393 300.2986751 +22.8743750     474.7557       69.596      1.060     2.36    -11.27047     19.62515     104.6401         7     0.859     0.532  71.06  16
       117     96.3966    645.9996 300.0123674 +22.5974216     9591.821     69.34763      1.207     2.09    -11.55676     19.62515     1475.718        35     1.037     0.977  77.19   0
       118    527.2831    646.1019 300.1463056 +22.7267592     483.4167     69.71985      1.140     1.86    -10.78526     19.62515     84.22892         7     0.671     0.627  78.05   0
       119    945.3369    632.2234 300.2810419 +22.8481238     504.7571     69.54285      1.013     2.08    -11.00343     19.62515     106.9912         7     0.822     0.469 -85.03   0
       120     42.3228    629.8921 300.0008091 +22.5765697     689.8788     69.70217      1.484     3.67    -11.51538     19.62515     63.04451        12     1.185     0.644  88.02   0
       121    885.4066    624.9174 300.2647344 +22.8280633     447.2729     69.48966      1.053     3.37     -10.9814     19.62515      71.5706         8     1.087     0.493 -66.02   0
       122    447.4903    618.7669 300.1303642 +22.6949801     289.2033     69.52512      1.074     2.38    -10.52589     19.62515     67.97811         7     0.791     0.641 -19.75   0
       123    595.1284    617.9857 300.1765644 +22.7390409     314.4814     69.56057      1.382     3.14    -10.29986     19.62515     45.55361         6     0.898     0.458 -56.20   0
       124    642.5587    615.8743 300.1920178 +22.7526591     208.8575     69.54285      1.117     3.53     -10.2779     19.62515     42.66952         5     0.865     0.549  44.97   0
       125    612.8202    615.6640 300.1828270 +22.7436804     249.7417     69.54285      1.069     2.75    -10.26618     19.62515      49.7613         5     0.731     0.444  16.09   0
       126    491.4893    614.7903 300.1453467 +22.7070383     429.3099     69.48966      1.187     2.88    -10.43002     19.62515     69.09763         9     0.859     0.718  69.03   0
       127    925.3138    610.2154 300.2819546 +22.8358024     1579.746     69.50739      1.059     1.73    -10.72406     19.62515     340.7068        15     0.918     0.752  87.78   0
       128    457.1778    610.3444 300.1361162 +22.6954700     906.1238       69.596      1.159     2.01    -10.43443     19.62515     163.6672        14     0.962     0.777 -84.06   0
       129   1023.1606    608.3056 300.3130866 +22.8645759    -462.4487     56.93324      0.000     2.11    -10.36617     19.62515     91.38824         6     0.722     0.579  31.68  24
       130     19.1409    604.1775 300.0019692 +22.5622390     2546.734     69.56057      1.242     2.05    -11.42165     19.62515     410.9681        20     0.988     0.910  56.29   0
       131    320.5516    597.2049 300.0978928 +22.6507094     4617.259     69.54285      1.152     1.94    -10.52857     19.62515     746.5629        27     0.993     0.939 -89.98   0
       132    442.9770    594.2122 300.1369423 +22.6865816     4363.785     69.56057      1.214     1.97    -10.35385     19.62515     767.2627        26     1.004     0.935 -80.93   0
       133    854.4495    587.8262 300.2671439 +22.8081334     856.2611     69.57829      1.066     2.09    -10.74794     19.62515     162.9164        11     0.885     0.797  70.51   0
       134    939.1691    585.3624 300.2943538 +22.8328169     6129.916     69.56057      1.057     1.71    -10.59679     19.62515     1220.676        27     0.962     0.859 -81.14   0
       135    503.5027    583.7089 300.1591887 +22.7017237     5718.559     69.73753      1.122     2.09    -10.12504     19.62515     871.3009        29     1.026     0.946  88.50   0
       136    673.1614    579.8588 300.2132553 +22.7514980     187.7209     69.57829      1.083     2.40    -10.03841     19.62515      45.2226         5     0.739     0.491  42.46   0
       137    231.0014    579.2977 300.0758745 +22.6187011     630.2531     69.47192      1.162     2.12    -10.52111     19.62515     112.2273         9     0.776     0.666  60.33   0
       138    435.2576    572.0151 300.1417559 +22.6778975     2106.871     69.52512      1.201     1.94    -10.25686     19.62515     376.1279        21     0.981     0.886  61.60   0
       139    777.9153    571.5938 300.2485715 +22.7805311     463.0465     69.48966      1.190     2.13    -10.45348     19.62515     74.71289         7     0.768     0.578  65.33   0
       140    413.4083    570.3183 300.1355105 +22.6708562     593.0266      69.5074      1.168     2.46     -10.3129     19.62515     85.67877         9     0.838     0.657  85.04   0
       141    167.5481    569.7421 300.0592607 +22.5969173     152.4771      69.6137      0.959     1.86    -10.58521     19.62515      70.8612         5     0.672     0.487 -77.33   0
       142    855.0396    567.2597 300.2740132 +22.8024042      908.684     69.56057      1.236     2.78    -10.68041     19.62515     116.9139        12     1.005     0.679 -64.16   0
       143    551.8155    559.4716 300.1821026 +22.7092585     100181.4     69.56057      1.219     2.02    -9.797742     19.62515     15457.83       136     1.287     1.246 -64.32   0
       144    735.3662    564.1371 300.2377399 +22.7656347     448.9298     69.56057      1.290     2.15    -10.25259     19.62515     71.90582         7     0.702     0.650 -70.17   0
       145    237.9111    559.5519 300.0844398 +22.6151119     1739.938     69.56057      1.172     2.19    -10.49316     19.62515     284.4996        16     0.921     0.832 -62.63   0
       146    442.4601    540.0397 300.1543888 +22.6708836     1437.991     69.56057      1.358     2.59    -10.05971     19.62515     190.1307        22     1.450     0.880  89.25   0
       147    286.5623    542.2206 300.1051960 +22.6247397     284.3987     69.57829      1.164     2.80    -10.41374     19.62515     40.11591         5     0.710     0.469 -72.37   0
       148    839.2489    525.8199 300.2825607 +22.7857707      788.597     69.56057      1.068     1.95    -10.38089     19.62515     152.8391         9     0.797     0.624  70.97   0
       149    710.5001    523.5557 300.2431837 +22.7465290     1165.841     69.57829      1.172     2.15    -9.948531     19.62515     169.9887        15     0.969     0.839  55.88   0
       150    497.8399    519.4719 300.1783039 +22.6815916     381.8286     69.54285      1.354     4.50    -9.679346     19.62515     40.35565         8     0.881     0.694  54.76   0
       151    967.8604    517.1248 300.3254791 +22.8218132     573.4485      69.6137      1.062     1.78    -10.25482     19.62515     131.2274         9     0.806     0.627  76.13   0
       152    839.8897    516.4456 300.2858069 +22.7832705     958.8302     69.54285      1.132     2.07     -10.2982     19.62515     175.0231        14     1.068     0.731  35.89   0
       153    953.7088    516.2857 300.3213391 +22.8173320     322.0806     69.71985      1.114     2.55    -10.25817     19.62515     57.23344         7     0.810     0.576  59.38   0
       154    593.1192    513.9665 300.2097484 +22.7085836     279.5623     69.52512      1.123     3.66    -9.480483     19.62515      47.2049         5     0.809     0.503  40.33   0
       155    431.3526    512.8175 300.1597796 +22.6597408     236.5742       69.596      1.219     3.51    -9.958871     19.62515     26.43656         5     0.800     0.444 -74.57   0
       156    877.6942    510.9970 300.2993602 +22.7930351     2110.284     69.47192      1.133     1.89    -10.30234     19.62515     371.2633        15     0.846     0.783  76.15   0
       157    969.6503    501.4299 300.3311376 +22.8178406     411.4802     69.57829      1.164     2.50    -10.12852     19.62515     66.35183         7     0.828     0.554  66.24   0
       158    109.7571    501.5734 300.0634577 +22.5600254     567.8113     69.57829      1.209     3.13    -10.62113     19.62515     75.88455        10     0.893     0.812  69.38   0
       159    909.3574    498.2658 300.3133675 +22.7988663     114.1018     69.54285      0.788     3.17    -10.16255     19.62515     36.03932         5     0.718     0.468  78.96   0
       160    102.7791    491.6758 300.0645058 +22.5550930      222.067     69.56057      1.039     3.47     -10.6355     19.62515     36.91731         5     0.796     0.438  14.45   0
       161    710.0891    485.3721 300.2554635 +22.7354423     169.6633     69.54285      0.906     2.50    -9.830956     19.62515     41.06194         5     0.728     0.433  21.56   0
       162    651.0914    481.6982 300.2382835 +22.7167014     420.8834     69.73753      1.175     2.24    -9.566167     19.62515     63.89157         7     0.690     0.652 -40.24   0
       163    712.1354    473.7516 300.2598766 +22.7327190     417.3057     69.57829      1.361     2.50    -9.801614     19.62515      80.1439         7     0.926     0.516 -74.03   0
       164    869.1548    470.0370 300.3100082 +22.7787109     410.9794       69.596      1.104     2.67    -10.01519     19.62515      97.0368         8     0.991     0.514  73.32   0
       165    853.8501    466.2906 300.3064553 +22.7730487     290.7393     69.56057      1.152     2.53    -9.998024     19.62515     49.87532         7     0.812     0.581  23.75   0
       166    597.8171    464.4694 300.2272939 +22.6957834         1610       69.596      1.200     2.19    -9.232033     19.62515     239.0827        15     0.934     0.817  56.20   0
       167    958.6331    462.8413 300.3402411 +22.8034533     195.2542      69.6137      0.974     2.53    -9.966515     19.62515      52.7509         5     0.718     0.629 -17.82   0
       168   1014.7331    451.4491 300.3614373 +22.8169859     1745.956     69.56057      0.764     1.19    -9.879561     19.62515     862.8753         6     0.694     0.367  65.16   0
       169   1009.1289    443.1012 300.3624015 +22.8129084     649.2576     69.70217      1.149     1.77    -9.878609     19.62515     138.4655         9     0.822     0.630 -69.06   0
       170    967.3434    441.9604 300.3497413 +22.8000634     522.6487     69.54285      1.143     1.74    -9.931881     19.62515     81.95904         7     0.643     0.625 -44.64   0
       171    708.2671    438.2353 300.2702106 +22.7213607     472.4745     69.56057      1.224     2.85    -9.652973     19.62515     72.06538        11     1.015     0.675  82.60   0
       172    504.2767    438.7096 300.2065472 +22.6603423     342.7441     69.70217      1.583     4.24    -9.276171     19.62515     35.26335         8     0.913     0.863  49.88   0
       173    212.1697    436.1410 300.1165372 +22.5719907     326.9505     69.57829      1.313     4.00    -10.04515     19.62515     51.62666         7     0.956     0.479  44.14   0
       174    274.7234    432.2987 300.1372295 +22.5896549     1829.493     69.70217      1.203     2.06    -9.839058     19.62515     305.7155        18     0.991     0.884  87.01   0
       175   1007.7684    430.5717 300.3660478 +22.8089004      2045.96     69.56057      1.030     1.75    -9.866716     19.62515     378.1173        13     0.802     0.734  82.78   0
       176    221.9785    427.0690 300.1225326 +22.5723312     3697.531     69.56057      1.249     2.06    -9.953478     19.62515     620.1885        26     1.049     0.987 -77.86   0
       177    362.7261    421.3065 300.1681640 +22.6128979     2321.167     69.70217      1.236     2.11    -9.645392     19.62515     357.7025        22     1.017     0.934  70.09   0
       178    987.6412    421.6569 300.3626669 +22.8003097     882.0353     69.54285      1.108     2.01     -9.88225     19.62515     146.4186        13     0.851     0.753  60.49   0
       179    606.9113    417.9406 300.2452406 +22.6851514     8922.455     69.63141      1.274     2.20    -9.176217     19.62515     1428.399        36     1.079     1.024 -83.77   0
       180    940.9232    400.6731 300.3549155 +22.7802855     428.7559     69.63141      1.396     3.49    -9.936026     19.62515     48.21555         7     0.765     0.628  36.31   0
       181    161.6762    398.2508 300.1131525 +22.5459723     900.4178     69.56057      1.173     2.30    -10.15729     19.62515     156.9193        13     0.899     0.788 -57.31   0
       182    547.5090    387.2878 300.2367050 +22.6585427     3072.253     69.71985      1.265     2.28    -9.188538     19.62515     406.8787        24     1.076     0.935 -89.72   0
       183    961.1765    387.3549 300.3655565 +22.7825255     510.7271       69.596      1.090     2.11    -9.910705     19.62515     102.2379         8     0.803     0.596  -5.72   0
       184    262.2667    386.8381 300.1481226 +22.5728752     429.6982     69.54285      1.677     2.26    -9.719685     19.62515     44.16776         6     0.716     0.548 -34.28   0
       185    119.3609    379.3919 300.1061296 +22.5278666     309.0686     69.57829      1.605     5.34    -10.17955     19.62515     30.74776         6     1.125     0.715  -8.49   0
       186    751.7425    376.3651 300.3038502 +22.7166210     603.4589     69.57829      1.287     3.27    -9.547534     19.62515     81.75899        12     0.991     0.829 -22.26   0
       187    661.2023    377.6247 300.2752401 +22.6898485     205.1609     69.50739      1.197     3.43    -9.199284     19.62515     29.43024         5     0.737     0.461 -14.93   0
       188    454.1434    373.7097 300.2120600 +22.6266521     3024.469      69.6137      1.283     2.25    -9.227262     19.62515     446.1224        24     1.024     0.966  85.36   0
       189    943.6177    368.0636 300.3663472 +22.7717223     354.3186     69.54285      1.177     3.19    -9.932067     19.62515     61.33344         8     1.043     0.665  -5.91   0
       190    845.9565    367.6172 300.3360483 +22.7423376     735.9409     69.57829      1.411     2.95     -9.91813     19.62515     106.8174        12     0.986     0.804  60.41   0
       191    438.7486    362.4829 300.2109163 +22.6188134     227.7578     69.57829      1.168     4.04    -9.239351     19.62515      35.2875         6     1.069     0.437 -55.20   0
       192    818.9318    355.4258 300.3315855 +22.7307383     230.3128     69.54285      1.082     2.88     -9.85989     19.62515     48.64228         7     0.849     0.581 -76.19   0
       193    341.7843    352.9110 300.1838643 +22.5869893     1402.516     69.48966      1.329     2.19    -9.393064     19.62515     224.1732        17     1.000     0.853 -79.60   0
       194     60.1656    350.3863 300.0971603 +22.5017854     597.7629     69.54285      1.428     2.90     -10.2304     19.62515     72.78358        10     0.905     0.781  25.34   0
       195    311.0997    342.4115 300.1777320 +22.5747737      14708.5     69.47192      1.302     2.32    -9.484823     19.62515     1840.988        50     1.207     1.083  76.37   0
       196    845.7073    339.6787 300.3450438 +22.7342360     547.3889     69.68449      1.139     2.41     -9.80877     19.62515     91.58493         9     0.894     0.618  85.02   0
       197      7.4533    330.3088 300.0873089 +22.4802097     2472.504      69.6137      1.269     2.26    -10.22102     19.62515     303.9377        24     1.052     1.006  62.73   0
       198    760.8699    328.4429 300.3222564 +22.7055902      178.243     69.52512      1.034     2.13    -9.373873     19.62515     54.61812         6     0.684     0.597  64.03   0
       199    409.5302    327.4345 300.2132076 +22.5999919     316.0357     69.56057      1.094     3.65    -9.280384     19.62515     36.85789         6     0.924     0.415  70.38   0
       200    721.3323    321.9423 300.3120504 +22.6918758      870.312       69.596      1.155     2.35    -9.238381     19.62515     127.6464        11     0.829     0.740 -64.25   0
       201    936.3794    314.5245 300.3814768 +22.7541684     267.1136     69.56057      1.032     3.34    -9.919978     19.62515     48.89692         7     0.899     0.533 -61.30   0
       202    383.3688    306.8797 300.2117437 +22.5862473      1051.81     69.56057      1.414     2.83    -9.287561     19.62515     119.7094        18     1.277     0.765  64.04   0
       203    822.3212    299.2180 300.3508934 +22.7156047     257.9366     69.56057      1.202     2.50    -9.411563     19.62515     43.65073         6     0.698     0.617 -28.25   0
       204    458.9093    286.1427 300.2419760 +22.6029423     662.1793      69.6137      1.469     2.91    -9.292772     19.62515     89.08298        13     1.033     0.826 -73.80   0
       205    703.8539    277.8588 300.3209189 +22.6739751     1043.299      69.6137      1.247     2.15    -9.255629     19.62515     172.9138        12     0.896     0.766  22.36   0
       206    965.1522    272.1096 300.4042195 +22.7505950     1531.099     69.56057      1.203     2.06    -9.755436     19.62515     262.6833        18     0.982     0.839   1.56   0
       207     87.2125    255.9375 300.1362237 +22.4828070     709.2993     69.54285      1.524     3.81    -9.707654     19.62515     66.16873        13     1.160     0.805 -19.99   0
       208    171.3812    248.2431 300.1648720 +22.5058463     283.8017     69.57829      1.296     2.68    -9.579752     19.62515     45.74878         5     0.756     0.407  65.37   0
       209    775.4097    239.4010 300.3556944 +22.6843640     328.4774     69.38316      1.381     3.37      -9.2281     19.62515     53.63045         5     0.912     0.492 -90.00   0
       210    366.1974    238.6773 300.2285427 +22.5615204     211.2589     69.47192      1.214     1.99     -9.21784     19.62515     47.13029         5     0.702     0.435 -18.01   0
       211    873.6497    228.2248 300.3899377 +22.7105782        979.7     69.57829      1.196     2.17    -9.384796     19.62515     147.6773        13     0.883     0.768 -81.38   0
       212    292.1077    225.7520 300.2096981 +22.5355959     1042.571     69.57829      1.315     2.55    -9.174115     19.62515     133.1852        14     0.993     0.805  79.13   0
       213    370.2033    220.9612 300.2355386 +22.5576353     506.5645       69.596      1.379     2.27    -9.189976     19.62515     74.42001         8     0.766     0.698 -79.32   0
       214    772.2150    219.8707 300.3610382 +22.6777951     276.9427     69.56057      1.082     3.20    -9.183763     19.62515     52.96029         8     0.918     0.648  29.79   0
       215    186.9842    212.7764 300.1812317 +22.5003480     446.5989     69.56057      1.375     3.19    -9.410157     19.62515     58.86498         8     0.982     0.579  65.97   0
       216    724.8138    209.5665 300.3496152 +22.6606346     902.2402     69.54285      1.302     2.36    -9.123383     19.62515      140.484        13     0.895     0.823 -82.42   0
       217    208.5279    205.9893 300.1901299 +22.5048610     176.7948     69.56057      1.037     3.76    -9.303062     19.62515     35.08955         6     0.814     0.499  87.75   0
       218    996.2094    201.7729 300.4367361 +22.7396750     356.8569     69.56057      1.111     2.06    -9.317135     19.62515     89.25636         9     0.802     0.678 -85.06   0
       219    728.5596    201.1153 300.3535248 +22.6593285     296.5869     69.52512      1.230     2.05    -9.066481     19.62515     58.22332         6     0.723     0.492  82.70   0
       220    649.4047    200.4502 300.3290871 +22.6354232     714.4205     69.54285      1.354     3.03    -9.079842     19.62515     87.96948        12     1.023     0.788  24.10   0
       221    575.4778    192.2382 300.3087346 +22.6109130      468.735     69.54285      1.329     3.37     -9.08037     19.62515     62.20765        12     1.090     0.711  32.08   0
       222    844.5326    191.7488 300.3927008 +22.6913742     714.5241     69.54285      1.292     2.45    -9.103345     19.62515     95.30489        11     0.861     0.751  37.03   0
       223    856.9528    190.8435 300.3968657 +22.6948337     367.4731       69.596      1.130     2.22    -9.131671     19.62515     65.17269         7     0.697     0.653  17.81   0
       224   1017.5377    181.7008 300.4499024 +22.7402895     874.2939      69.6491      1.161     2.10    -9.296195     19.62515     128.5154        12     0.863     0.728 -62.91   0
       225    973.6979    181.1540 300.4364073 +22.7270070     424.0088       69.596      1.094     1.97     -9.20556     19.62515     86.69554         8     0.741     0.619  49.96   0
       226    207.5916    174.4984 300.2000576 +22.4955419     334.3666     69.43643      1.189     2.45    -9.084138     19.62515     66.50414         8     0.940     0.492 -89.90   0
       227     69.6236    169.4125 300.1588391 +22.4527055     1051.457     69.56057      1.276     2.76    -9.047146     19.62515     124.4643        14     0.988     0.835  69.40   0
       228    892.5373    166.1101 300.4159841 +22.6983806     354.0444      69.6491      1.089     2.55    -9.005114     19.62515      67.5019         8     0.837     0.629  42.68   0
       229     19.0099    166.1707 300.1441710 +22.4365936     294.5497     69.56057      1.133     1.92    -8.671187     19.62515     54.49438         5     0.732     0.456 -60.16   0
       230    226.8713    162.6747 300.2098865 +22.4979292     2817.089     69.63141      1.321     2.20    -8.876563     19.62515      423.888        25     1.128     0.958  70.54   0
       231     11.2356    157.0906 300.1447027 +22.4316564     648.4578     69.54285      1.313     3.28    -8.616766     19.62515      78.6045        13     1.022     0.849  62.50   0
       232    210.1931    153.5693 300.2076568 +22.4903147      317.649     69.56057      1.397     2.33    -8.938025     19.62515     40.51224         5     0.695     0.462 -20.11   0
       233   1023.8207    149.8185 300.4622080 +22.7330029     972.2504     53.21854      0.885     1.80    -9.123223     19.62515     316.2739        11     1.108     0.443 -87.84  24
       234    870.8068    143.9515 300.4164004 +22.6855038     1732.908     69.56057      1.207     2.15    -8.875381     19.62515     306.5049        16     0.965     0.768  74.79   0
       235    974.5097    142.6167 300.4491657 +22.7161700      1333.69     69.48966      1.120     2.19     -8.95821     19.62515     197.3903        15     0.933     0.783  83.00   0
       236    420.5370    139.3873 300.2776658 +22.5493002     375.8587     69.54285      1.213     3.69     -8.66998     19.62515     40.46717         7     0.958     0.487  82.60   0
       237    344.5599    130.9902 300.2567576 +22.5241159     331.7381     69.56057      1.240     3.73    -8.690886     19.62515      42.1428         6     0.813     0.493  84.50   0
       238    110.7276    128.2048 300.1849773 +22.4532081     300.8825     69.50739      1.170     3.15    -8.983225     19.62515      42.6984         7     0.843     0.580  53.14   0
       239    471.7887    126.4823 300.2977987 +22.5609537     831.7403     69.52512      1.311     2.39    -8.691806     19.62515      135.075        14     0.942     0.850 -28.71   0
       240    245.8229    106.6154 300.2339646 +22.4875185     2983.491     69.56057      1.334     2.38    -8.634282     19.62515     416.9068        23     1.112     0.936 -89.97   0
       241    261.4696     97.7747 300.2416965 +22.4896711      152.293     69.56057      1.301     4.34    -8.605966     19.62515     30.75149         5     1.153     0.466  31.17   0
       242    491.8039     91.8283 300.3152689 +22.5569976     3001.903     69.52512      1.340     2.32    -8.501402     19.62515     432.9532        24     1.058     0.968 -87.11   0
       243    377.2194     91.4916 300.2797286 +22.5225626      337.569     69.48966      1.378     3.30    -8.509383     19.62515     47.84066         5     0.742     0.452  21.31   0
       244    744.3082     81.1313 300.3973607 +22.6295649      478.458     69.68449      1.732     2.30    -8.349423     19.62515     53.38133         7     0.702     0.644  62.58   0
       245    836.9222     80.0998 300.4265540 +22.6570021     344.6967     69.68449      1.173     2.64    -8.581795     19.62515     47.51414         6     0.744     0.556 -44.97   0
       246     56.2829     77.5518 300.1844947 +22.4223438     127.0524     69.57829      1.046     5.66    -8.730377     19.62515     27.80218         6     0.988     0.914  84.87   0
       247    185.1376     75.4442 300.2252130 +22.4603761     391.7494     69.57829      1.741     2.47    -8.611299     19.62515     48.83812         6     0.747     0.606 -58.16   0
       248    620.2161     71.8705 300.3617154 +22.5897356     2949.638     69.57829      1.297     2.36     -8.38203     19.62515     410.2791        24     1.115     0.947  44.39   0
       249    395.2084     70.9179 300.2919974 +22.5220452     759.5038     69.50739      1.358     2.70    -8.509383     19.62515     93.74327        13     0.991     0.787  76.75   0
       250    661.3521     68.8193 300.3755148 +22.6011807     336.0636       69.596      1.237     4.16    -8.469973     19.62515     60.96233        11     1.025     0.925 -50.25   0
       251    143.1855     63.2507 300.2161309 +22.4442976     275.2007     69.56057      1.372     4.62    -8.649581     19.62515     36.07542         6     0.898     0.674  68.39   0
       252    946.9599     62.6232 300.4665259 +22.6849210     319.3772       69.596      1.208     2.65    -8.541616     19.62515     51.05954         7     0.836     0.573  77.93   0
       253    715.8262     60.6583 300.3951286 +22.6151506     227.5147     69.56057      1.332     3.49    -8.217045     19.62515     30.56817         5     0.799     0.439  15.54   0
       254    664.3929     56.6307 300.3804152 +22.5985887     1293.095     69.56057      1.281     2.27    -8.470177     19.62515     174.1228        21     1.111     0.950  35.84   0
       255    305.0135     57.4609 300.2683108 +22.4911483     239.6281     69.52512      1.347     3.76    -8.584838     19.62515     27.15722         6     0.813     0.498   2.12   0
       256    679.2120     55.0211 300.3855525 +22.6025646     416.4863     69.54285      1.629     3.80    -8.442724     19.62515     38.52028         5     0.828     0.501  36.29   0
       257    750.8792     48.1470 300.4101065 +22.6220519     688.2279       69.596      1.221     2.39    -8.053771     19.62515      101.202         8     0.750     0.669  62.08   0
       258    688.8159     41.5336 300.3929181 +22.6015646     393.6294     69.54285      1.260     2.72    -8.323721     19.62515     60.63144         7     0.905     0.502  58.20   0
       259    494.3898     40.7162 300.3326516 +22.5430893     601.1992     69.52512      1.415     2.85    -8.500366     19.62515     67.31678        10     0.910     0.734  89.10   0
       260     67.3847     40.3033 300.2000233 +22.4149824     364.7622     69.47192      1.612     4.14    -8.720788     19.62515     34.93653         6     0.726     0.679 -30.22   0
       261    398.3286     38.9657 300.3033309 +22.5138030     375.7934     69.56057      1.173     3.27    -8.509383     19.62515     52.56699        10     0.919     0.795  67.05   0
       262    169.6677     29.0503 300.2354512 +22.4424194     1821.081     69.54285      1.322     2.20    -8.613889     19.62515     271.8135        19     1.020     0.890 -82.63   0
       263    737.5197     29.1164 300.4121164 +22.6125810     229.2005     69.70217      1.070     3.71    -7.713365     19.62515     38.94087         6     0.792     0.500 -89.60   0
       264    285.6139     21.0632 300.2740824 +22.4748817     522.0066     69.52512      1.359     3.14    -8.615705     19.62515     89.41074        12     1.048     0.849  89.86   0
       265    730.9346     20.9414 300.4127161 +22.6082592      515.216       69.596      1.398     3.17    -7.686733     19.62515     60.85609        10     0.931     0.713 -87.10   0
       266    768.7610     16.2639 300.4260178 +22.6182413     380.9304     69.54285      1.565     3.05    -7.989787     19.62515     50.47243         7     0.936     0.629  78.77   0
       267    228.0184   1023.4018 299.9304686 +22.7450976     408.8444     55.53051      2.641     4.62     12.96405     19.62515     42.07059         5     0.880     0.690 -59.74  24
       268    650.6942   1021.1022 300.0626987 +22.8713502     3574.014     65.99655      0.583     0.94    -13.06434     19.62515     2020.611         7     0.489     0.400  -9.67  16
       269    546.1388   1016.6648 300.0315970 +22.8386946     1160.441       69.596      1.064     1.66    -13.03846     19.62515     227.1396        12     0.836     0.744  -5.53   0
       270    632.4868   1011.7612 300.0600718 +22.8632071     4158.515     69.54285      1.046     1.73    -13.04785     19.62515     727.3894        21     0.924     0.831  64.45   3
