#   1 NUMBER                 Running object number                                     
#   2 X_IMAGE                Object position along x                                    [pixel]
#   3 Y_IMAGE                Object position along y                                    [pixel]
#   4 ALPHA_J2000            Right ascension of barycenter (J2000)                      [deg]
#   5 DELTA_J2000            Declination of barycenter (J2000)                          [deg]
#   6 FLUX_APER              Flux vector within fixed circular aperture(s)              [count]
#   7 FLUXERR_APER           RMS error vector for aperture flux(es)                     [count]
#   8 FLUX_RADIUS            Fraction-of-light radii                                    [pixel]
#   9 FWHM_IMAGE             FWHM assuming a gaussian core                              [pixel]
#  10 BACKGROUND             Background at centroid position                            [count]
#  11 THRESHOLD              Detection threshold above background                       [count]
#  12 FLUX_MAX               Peak flux above background                                 [count]
#  13 ISOAREA_IMAGE          Isophotal area above Analysis threshold                    [pixel**2]
#  14 A_IMAGE                Profile RMS along major axis                               [pixel]
#  15 B_IMAGE                Profile RMS along minor axis                               [pixel]
#  16 THETA_IMAGE            Position angle (CCW/x)                                     [deg]
#  17 FLAGS                  Extraction flags                                          
         1    284.3376     13.6783 300.2739055 +22.4749485     507.2383     69.56384      1.277     3.32    -7.820313     19.60611     66.07903        12     1.048     0.811 -85.97   0
         2    767.7027      8.9277 300.4258998 +22.6183653     376.2141     69.61686      1.259     3.69    -7.800753     19.60611     61.34842         8     1.112     0.607  79.46   0
         3    691.1298      8.4044 300.4022141 +22.5952885      302.305     69.43994      1.654     4.86    -7.692885     19.60611     32.70174         7     1.040     0.643  23.72   0
         4    787.5842      4.7733 300.4334422 +22.6231226      1148.15     68.33283      1.234     2.47    -7.777977     19.60611     173.7246        16     0.981     0.869 -56.99  16
         5    170.9001      1.3109 300.2426524 +22.4373984     253.8804     54.06168      1.001     2.35    -7.814939     19.60611     56.13062         5     0.735     0.423 -18.27  24
         6    172.1614   1007.9135 299.9159802 +22.7265465     955.4893     69.47536      6.000     9.86     19.62876     19.60611      39.0785        22     2.119     1.280 -53.07   3
         7    202.5530   1022.7382 299.9205970 +22.7399230     603.1295     58.98017      3.189     4.51     24.14927     19.60611     28.80188         5     1.351     0.429  60.92  25
         8    175.8325   1021.0840 299.9128324 +22.7314231     912.8618     65.82047      5.389     9.44     24.01493     19.60611     42.32576        19     2.050     1.214  83.08  25
         9    129.7498   1023.2966 299.8977945 +22.7182144     405.4378     56.15977      2.084     4.46      23.8497     19.60611      45.7725         8     1.162     0.581 -27.94  24
        10     97.1257    960.8832 299.9079803 +22.6905318     1435.762     69.58151     32.056    35.95     1.909734     19.60611     61.16534       133     7.000     5.123 -41.07   3
        11     76.9728   1012.4897 299.8849195 +22.6992633      2432.76     69.47536     20.264    61.46     10.49951     19.60611     65.55959       761    14.222     7.371  44.63  27
        12     59.0172    979.1957 299.8901826 +22.6843308     2167.455     69.42223     22.964    35.63    -2.304291     19.60611     54.34249       273     8.629     4.084 -76.58  19
        13     78.5170    966.9860 299.9002137 +22.6866905     2753.398     69.47536     27.555    74.05   0.07010957     19.60611     59.81968      1126    18.519     8.215  76.95  27
        14    544.8145   1008.6970 300.0316108 +22.8386628     1141.255      69.4045      1.059     1.74    -13.40466     19.60611     242.3126        12     0.768     0.747  76.42   0
        15    226.6397    985.4011 299.9402394 +22.7364574     1625.703     69.51077     10.447    13.73     8.954432     19.60611       48.141        45     2.836     1.848  70.15   3
        16    238.9756    992.6954 299.9416986 +22.7422526     3856.522     69.38678      7.829    25.29     7.200553     19.60611     92.76791       238     8.159     2.177  68.34  18
        17    231.8680    991.6150 299.9398413 +22.7398085     1920.903     69.49306      9.427    13.69     9.567058     19.60611     57.64706        53     3.788     1.376  85.65   3
        18    631.2957   1003.9716 300.0600703 +22.8632620     4143.572     69.42223      1.084     1.72    -13.29355     19.60611     843.1522        22     0.944     0.847 -40.95   3
        19     74.3137    938.2754 299.9082540 +22.6772017     2131.312     69.61686     24.767    38.64    -7.590885     19.60611     62.08806       258     8.619     4.808 -31.63   3
        20    731.4382   1004.6123 300.0910479 +22.8934945     295.6611     69.49306      1.077     2.56    -13.03869     19.60611     55.65965         5     0.678     0.485 -77.18   0
        21    164.5134    994.8630 299.9178530 +22.7205098     796.4351     69.59919      3.791     6.05     15.39689     19.60611     41.36066        10     1.801     0.571  66.49   2
        22    168.2554    996.0568 299.9186270 +22.7219758     502.8504     69.54615      4.554     4.28     15.63576     19.60611     30.63803         5     0.930     0.720   4.24   3
        23    197.3563   1004.0804 299.9250572 +22.7330156     1656.611     69.47536      7.029    17.38     17.50288     19.60611     91.16221        64     3.167     2.651  -2.86  19
        24    103.7154    984.4576 299.9023527 +22.6992659     1166.896     69.59919     11.254    11.81     9.830839     19.60611     37.12871        27     2.214     1.755 -76.63   1
        25    144.7821    975.2880 299.9180955 +22.7089741     709.9451     69.43994      4.164     6.11     8.216935     19.60611     35.98602         7     1.241     0.858  15.43   0
        26    495.6578    992.6146 300.0215501 +22.8192962     237.9366     69.45766      0.963     3.36    -13.21074     19.60611     44.24811         6     0.893     0.472  86.38   0
        27    125.4240    972.1162 299.9131141 +22.7022506     949.4836     69.45766      6.321     7.66     6.528463     19.60611      35.2687        11     1.559     1.053  20.21   3
        28    924.2563    987.3104 300.1567678 +22.9463679     358.7805     69.52846      1.019     1.65    -13.64982     19.60611     88.48798         5     0.658     0.427  79.56   0
        29    649.5869    971.0385 300.0764887 +22.8593038     3221.333     69.51077      1.117     1.85    -12.74669     19.60611     629.5762        22     0.925     0.880  55.45   0
        30    636.8430   1001.6959 300.0625385 +22.8642739     4684.637     69.51077      1.098     1.70    -13.24274     19.60611     915.1123        25     1.060     0.846 -61.16   2
        31    558.1468    961.8387 300.0510173 +22.8292253     781.3322     69.49306      1.082     1.83    -12.80211     19.60611     173.0909         9     0.701     0.688 -49.06   0
        32    452.0392    958.2199 300.0191769 +22.7963405     395.1199     69.52846      1.008     1.82     -12.7888     19.60611      102.582         7     0.670     0.619  44.95   0
        33    382.6180    956.4166 299.9981698 +22.7749839     3194.705     69.47536      1.020     1.85    -12.67762     19.60611     553.4218        20     0.911     0.823   1.81   0
        34    224.3610   1002.6996 299.9338991 +22.7407306     1437.755     69.51077      8.944    23.34     16.32366     19.60611     47.18323        58     5.454     2.773  20.21  19
        35    216.9917   1009.5317 299.9293843 +22.7404752     962.5381     69.47536      9.545     9.09     19.10008     19.60611       39.758        17     2.109     1.095 -30.45   3
        36    415.0664    943.1356 300.0125859 +22.7809168     210.4298     69.54615      0.947     2.75    -12.62229     19.60611     44.95993         5     0.619     0.585 -13.03   0
        37    217.0075   1005.2314 299.9307894 +22.7392476      1063.26     69.49306      5.076     7.35     17.26931     19.60611      48.5163        19     2.113     0.716 -49.62   3
        38    928.8038    934.9459 300.1752348 +22.9327007     1009.207     69.47536      1.056     1.75    -13.03463     19.60611     237.0099        12     0.829     0.701  64.74   0
        39    717.9050    924.4562 300.1129298 +22.8664361     326.7209     69.54615      1.544     5.11    -12.27539     19.60611     68.50741         8     1.503     0.492  63.54   0
        40    529.9349    918.8574 300.0562287 +22.8084309      234.659     69.54615      1.052     2.32     -12.3789     19.60611      45.9351         5     0.615     0.566 -80.75   0
        41    752.5011    918.0192 300.1258018 +22.8749670      450.478     69.42223      0.932     1.48    -12.32381     19.60611     115.1719         6     0.643     0.500  87.59   0
        42    774.6738    911.6957 300.1347678 +22.8798031     5584.128     69.63453      1.024     1.67    -12.31502     19.60611     1177.026        22     0.890     0.802 -55.66   0
        43    965.4857    911.1517 300.1944176 +22.9368686     184.8428     69.47536      1.084     2.53    -12.83805     19.60611     46.95902         5     0.725     0.458  69.13   0
        44    215.7634   1000.1781 299.9320481 +22.7374258     1991.938     69.51077      8.016    13.66     15.47049     19.60611     62.63508        50     3.121     1.664 -71.08   3
        45    479.8460    899.6469 300.0468947 +22.7878889     200.6373     69.51077      1.035     3.04    -12.42168     19.60611     37.64514         5     0.751     0.432  19.44   0
        46    783.1612    893.7707 300.1432467 +22.8772043     678.9834     69.49306      0.970     1.55    -12.25662     19.60611     169.5751         8     0.679     0.599  50.55   0
        47    208.6260   1010.0474 299.9266165 +22.7381104     1105.662     69.52846      8.169     9.28      19.3164     19.60611     42.23817        22     1.783     1.517 -13.82   1
        48    966.4944    892.6699 300.2007482 +22.9318646     335.3859     69.59919      1.146     2.76    -12.76725     19.60611     52.63303         6     0.818     0.522 -47.52   0
        49    635.3146    891.1616 300.0980470 +22.8321057     296.4591     69.47536      0.787     1.85    -12.09078     19.60611     61.60421         5     0.706     0.420  69.58   0
        50    821.5594    887.2238 300.1573421 +22.8868414     377.4316     69.52846      1.029     2.07    -12.33961     19.60611      87.4847         9     0.768     0.693  71.88   0
        51    721.0748    877.4876 300.1292050 +22.8539090     227.8743     69.61686      0.821     1.78    -12.15952     19.60611     78.92938         5     0.660     0.501  77.68   0
        52    433.6697    874.0438 300.0408611 +22.7666874     2196.629     69.45766      1.038     1.61    -12.43018     19.60611     508.3929        18     0.892     0.798 -88.56   0
        53    732.4088    874.6625 300.1336549 +22.8564979     219.0967     69.43994      0.965     2.72    -12.16492     19.60611     53.23764         5     0.690     0.480 -77.48   0
        54    158.6978    859.8170 299.9600021 +22.6800602     363.2696     69.42223      1.062     2.52     -11.1918     19.60611     95.18736         7     0.936     0.522 -60.75   0
        55    136.0637    856.8284 299.9539422 +22.6724069     776.1845     69.49306      1.147     1.95    -11.23523     19.60611      155.662         9     0.726     0.678  44.91   0
        56    792.7778    852.5391 300.1596621 +22.8682542      4046.79     69.47536      1.033     3.44     -12.0443     19.60611     1185.665        11     1.136     0.371 -77.05   0
        57   1007.6926    845.5311 300.2289377 +22.9306796     1214.081     69.61686      1.076     1.98    -12.75787     19.60611     214.2919        13     0.833     0.730 -64.25   0
        58    961.9106    844.0072 300.2151568 +22.9165178     1059.537      69.4045      1.067     1.68    -12.54088     19.60611     249.8889        11     0.804     0.692 -87.53   0
        59    745.3613    837.6794 300.1497253 +22.8497686     280.2567     69.47536      0.853     2.53    -11.88787     19.60611     71.20097         6     0.823     0.478  85.70   0
        60    167.8602    838.1960 299.9698841 +22.6766139     245.1373     69.47536      1.233     2.73    -11.44746     19.60611      41.5976         6     0.716     0.575 -38.15   0
        61    613.6906    832.1086 300.1105322 +22.8086747     2292.383     69.65219      1.045     1.63    -11.82642     19.60611     543.1121        19     0.898     0.792 -78.09   0
        62    415.6797    829.1844 300.0498623 +22.7484222     348.4742     69.51077      1.087     2.57    -12.09019     19.60611     61.98404         6     0.705     0.628  32.71   0
        63    163.9146    826.1143 299.9725890 +22.6719659     637.9924     69.61686      1.093     2.01    -11.55057     19.60611     144.8923         8     0.777     0.611  49.02   0
        64    634.5513    824.5086 300.1195001 +22.8127517     336.0898     69.52846      0.989     2.28     -11.7707     19.60611     73.76131         5     0.659     0.486  15.41   0
        65    789.7666    811.7927 300.1719829 +22.8556550     2091.791     69.49306      0.995     1.70    -11.64895     19.60611     461.2844        16     0.881     0.759  37.98   0
        66   1006.7258    811.8541 300.2395950 +22.9207182      669.798     69.51077      1.091     1.91    -12.61935     19.60611     132.9123         8     0.707     0.646 -52.77   0
        67    197.8282    805.7155 299.9897641 +22.6763003     274.9912     69.49306      1.204     4.34    -11.71982     19.60611     32.84396         6     0.939     0.570  64.58   0
        68    506.7566    804.2914 300.0862983 +22.7686115      427.782     69.49306      1.248     2.42     -11.7285     19.60611      53.9481         6     0.699     0.592  75.02   0
        69    153.2654    802.3881 299.9769992 +22.6619669      490.668     69.43994      1.213     2.46    -11.79348     19.60611     86.53738        10     0.846     0.754  51.65   0
        70    302.8035    794.5754 300.0260190 +22.7046187      26289.9     69.45766      1.056     1.75    -11.85353     19.60611     4901.291        51     1.030     0.941 -83.14   0
        71    560.5620    793.3995 300.1065877 +22.7816293     746.3494     69.49306      0.977     1.89     -11.6088     19.60611      149.389        10     0.796     0.616  79.29   0
        72    973.6197    792.5507 300.2355516 +22.9052511     495.4055     69.47536      0.969     2.11    -12.32029     19.60611     76.97374         7     0.738     0.591 -73.78   0
        73    231.0240    792.6705 300.0043249 +22.6825259      257.368     69.51077      1.118     2.40    -11.66922     19.60611     54.22644         5     0.758     0.523 -86.95   0
        74    589.3646    789.4631 300.1168342 +22.7891403     487.8529     69.49306      1.029     2.13    -11.60479     19.60611     83.75148         6     0.702     0.498   1.71   0
        75    600.4127    787.8571 300.1207962 +22.7919936      337.911     69.45766      1.024     2.70    -11.60394     19.60611      58.7164         6     0.782     0.572 -51.98   0
        76    705.6593    784.1662 300.1547701 +22.8225020     63.18324     69.52846      1.010     2.53    -11.53529     19.60611     38.71307         5     0.733     0.435 -71.32   0
        77    352.5172    771.7953 300.0488879 +22.7130063     15267.31     69.42223      1.060     1.90    -11.59103     19.60611     2622.573        44     0.998     0.953 -87.06   0
        78    743.4318    774.2369 300.1697662 +22.8309796     343.0396     69.51077      0.988     1.97    -11.52911     19.60611     79.71719         5     0.668     0.460  67.76   0
        79    366.7505    772.3002 300.0531501 +22.7174227     1100.703     69.58151      0.998     1.78    -11.62233     19.60611     208.8771        11     0.775     0.688 -88.69   0
        80    875.5027    767.4481 300.2131291 +22.8686299     1304.353     69.52846      0.946     1.77    -11.71196     19.60611     233.4968        12     0.728     0.691  83.48   0
        81    235.0385    763.6155 300.0150241 +22.6753999     372.3765     69.51077      0.990     2.59    -11.48612     19.60611     85.52394         9     0.926     0.627 -75.26   0
        82    633.5147    763.3896 300.1390620 +22.7949011     519.6716     69.43994      1.013     2.08    -11.54463     19.60611     75.60764         5     0.633     0.488 -74.55   0
        83     39.4440    759.5981 299.9555617 +22.6155242     237.0557     69.47536      1.067     2.94    -12.09406     19.60611     52.31661         5     0.713     0.458 -69.41   0
        84    480.4941    758.4300 300.0930455 +22.7475744     418.9339     69.40451      1.033     2.80    -11.59949     19.60611      65.5595         8     0.874     0.605  88.22   0
        85    881.8137    754.6617 300.2192558 +22.8668503     118.0256     69.45766      1.135     2.67    -11.68796     19.60611     40.50935         5     0.741     0.432  18.64   0
        86    382.6286    754.2946 300.0639454 +22.7170230     199.8754     69.42223      1.148     3.44    -11.55198     19.60611     32.63549         5     0.743     0.459 -75.18   0
        87     67.8449    753.3607 299.9664110 +22.6222645     278.9957     69.56384      1.384     2.90    -11.93855     19.60611     47.85931         7     0.835     0.602 -77.67   0
        88    232.4718    747.8926 300.0193404 +22.6701209     249.0358     69.63453      1.234     2.92    -11.37617     19.60611     45.74044         5     0.722     0.599 -22.17   0
        89    525.3668    736.3911 300.1141780 +22.7547130      246.234     69.49306      1.041     2.46     -11.5074     19.60611     55.75882         5     0.680     0.481   9.53   0
        90    434.8152    735.5129 300.0862876 +22.7272943      206.937     69.43994      1.073     2.53    -11.57904     19.60611     51.98339         5     0.913     0.371  82.09   0
        91    941.8610    732.7554 300.2451014 +22.8785586     2151.618     69.52846      1.013     1.52    -11.74966     19.60611     556.2882        16     0.848     0.742  68.77   0
        92    547.3399    733.7868 300.1218640 +22.7605572     612.8514     69.45766      1.035     1.86    -11.48617     19.60611     136.4353        10     0.752     0.745 -82.30   0
        93    930.2505    724.0502 300.2443130 +22.8725784     974.1069     69.52846      1.096     1.78      -11.742     19.60611     191.7583        11     0.807     0.676  -1.09   0
        94    293.1851    718.2585 300.0478520 +22.6798449     378.0335     69.47536      1.065     2.11    -11.26937     19.60611     87.91898         7     0.695     0.620  32.55   0
        95    756.5466    715.5213 300.1929509 +22.8180559     1208.527     69.52846      0.987     1.95    -11.45579     19.60611     207.7919        13     0.820     0.751 -77.44   0
        96    961.3894    714.2480 300.2572102 +22.8790959     795.7982     69.51077      1.044     1.75    -11.74111     19.60611     157.8218        12     0.842     0.729  17.99   0
        97    141.7944    702.1926 300.0060239 +22.6297971     305.6224     69.35132      1.056     1.75    -11.64604     19.60611     71.42348         6     0.678     0.528 -40.35   0
        98    875.1151    692.3790 300.2374259 +22.8469562     72445.98     69.43994      1.025     1.61    -11.55507     19.60611     15351.44        99     1.097     1.009  84.46   0
        99   1022.1827    693.9503 300.2827709 +22.8914837     544.9764     61.59189      1.094     2.13    -11.75741     19.60611     145.3338        10     0.856     0.669 -29.77  24
       100    727.6022    692.6594 300.1913694 +22.8028136     409.7189     69.47536      1.020     2.00    -11.47526     19.60611     83.40295         7     0.739     0.597 -13.86   0
       101    561.2915    681.3718 300.1432529 +22.7496997     768.7178     69.47536      1.053     2.01    -11.04401     19.60611     126.3779         9     0.765     0.644 -72.80   0
       102    742.5956    678.6094 300.2006091 +22.8032752     4390.651     69.35132      0.999     1.83    -11.43521     19.60611     831.8988        21     0.897     0.749  82.16   0
       103    244.2160    673.9892 300.0470245 +22.6524515      2510.47     69.43994      1.167     1.91     -11.2633     19.60611     478.0291        19     0.989     0.770  69.98   0
       104    326.2342    671.8015 300.0732351 +22.6764369     506.8375     69.45766      1.198     1.94    -10.98705     19.60611     114.8722         9     0.787     0.693  89.20   0
       105    534.3422    667.1598 300.1394862 +22.7375378     357.6375     69.47536      1.029     2.13    -10.76723     19.60611     70.98117         7     0.778     0.551 -58.02   0
       106    526.1443    659.2955 300.1394919 +22.7328219     1747.763     69.54615      1.134     1.94    -10.69476     19.60611     286.9002        17     0.920     0.793 -74.19   0
       107    516.2642    653.0819 300.1384373 +22.7280752      654.488     69.59919      1.125     2.35    -10.64456     19.60611     113.9435         8     0.782     0.631  51.34   0
       108    910.1756    650.9131 300.2618395 +22.8455548     219.3775     69.45766      1.183     2.16    -11.28279     19.60611     59.45163         5     0.721     0.613  48.96   0
       109    179.5695    649.6813 300.0348358 +22.6260779     361.5612     69.49306      1.104     2.21     -11.2858     19.60611     50.89347         5     0.664     0.474  72.07   0
       110    194.0386    647.7366 300.0399645 +22.6298628     330.6841     69.47536      1.156     2.60    -11.22678     19.60611     69.44888         6     0.844     0.531  88.65   0
       111    219.7592    644.7365 300.0489337 +22.6367217     264.3182     69.47536      1.302     2.13     -11.1141     19.60611     51.83596         6     0.706     0.536  47.94   0
       112    441.1827    642.9754 300.1183606 +22.7026535     852.3055     69.49306      1.143     1.76    -10.58959     19.60611     185.6459        12     0.879     0.699  65.71   0
       113    540.3025    643.1591 300.1491450 +22.7324371     181.0347     69.49306      0.932     2.82     -10.5368     19.60611     44.29785         5     0.738     0.436  76.06   0
       114   1016.8389    640.1807 300.2985895 +22.8744344     507.4563     69.52846      1.280     2.22    -11.58606     19.60611     100.2309         8     0.829     0.611  61.62   0
       115     95.1447    638.0709 300.0123798 +22.5974076     9567.643     69.51077      1.181     1.93    -11.22725     19.60611     1811.015        32     1.000     0.930  89.08   0
       116     16.3671    639.7664 299.9873613 +22.5742444      359.099     69.56384      1.004     2.47    -11.19838     19.60611     57.94246         5     0.719     0.444 -70.53   0
       117    561.2299    637.5883 300.1574702 +22.7371145       197.66     69.49306      1.195     3.38     -10.5614     19.60611     50.09277         6     1.066     0.570 -65.98   0
       118    525.9873    638.1771 300.1463094 +22.7267137     505.8726     69.47536      1.055     1.95    -10.50136     19.60611     99.98719         8     0.728     0.644  54.15   0
       119    944.0419    624.4738 300.2809948 +22.8481087     578.9053     69.47536      1.044     1.89    -10.96366     19.60611     129.0988        11     0.877     0.649 -74.98   0
       120     41.4320    622.3187 300.0008171 +22.5767669     840.0953     69.49306      1.745     5.06    -10.88382     19.60611     79.64009        15     1.299     0.940  80.69   0
       121    489.4492    619.0220 300.1411660 +22.7102572     208.6297     69.49306      1.056     3.45    -10.37684     19.60611     43.20869         5     0.771     0.590   2.83   0
       122    884.1700    616.9656 300.2647703 +22.8280097     425.0352     69.51077      1.238     1.88    -10.71488     19.60611     75.58634         5     0.581     0.553  10.80   0
       123    446.2971    610.7209 300.1304378 +22.6949316     353.3074     69.59919      1.303     2.69    -10.33778     19.60611     67.75273         8     0.916     0.719 -75.67   0
       124    594.2740    609.9474 300.1767431 +22.7390894     240.1031     69.51077      1.123     2.75    -10.26179     19.60611     44.81006         7     0.700     0.681  -8.76   0
       125    611.6761    607.7150 300.1828867 +22.7436667     331.1372     69.59919      1.199     2.23    -10.26689     19.60611     59.03191         6     0.661     0.637  31.43   0
       126    490.4655    607.0438 300.1453762 +22.7071242     395.4185     69.47536      0.983     1.92    -10.26986     19.60611     74.94794         6     0.715     0.498 -87.51   0
       127    924.1302    602.4566 300.2819447 +22.8358168     1672.726     69.51077      1.028     1.62    -10.57688     19.60611     366.3403        14     0.866     0.731  61.49   0
       128    455.8188    602.5090 300.1360697 +22.6954309     738.8562     69.42223      1.205     2.19      -10.266     19.60611     147.1468        13     0.968     0.717  41.81   0
       129   1021.9697    600.3379 300.3131438 +22.8645235     375.9581      62.5235      1.074     2.56    -11.34227     19.60611     70.16008         6     0.826     0.582  69.36  16
       130     17.9605    596.2603 300.0019983 +22.5622493     2416.064     69.49306      1.165     2.03    -10.53532     19.60611      422.112        18     0.903     0.838  60.08   0
       131    485.2214    593.2185 300.1482385 +22.7015833     189.6431     69.49306      1.085     3.87    -10.11764     19.60611     29.43632         5     0.929     0.461  44.93   0
       132    319.2957    589.3082 300.0978961 +22.6506886     4338.372     69.66985      1.135     2.02    -10.35894     19.60611     676.8672        23     0.969     0.857  71.89   0
       133    441.7359    586.3425 300.1369432 +22.6865672      4288.82     69.54615      1.098     1.92    -10.16266     19.60611      780.861        22     0.980     0.795  89.68   0
       134    853.3646    580.1984 300.2671209 +22.8082161     863.7133     69.45766      1.034     1.66    -10.52791     19.60611     187.9898         8     0.773     0.568  71.24   0
       135    937.9904    577.4925 300.2943814 +22.8327978     6126.995     69.43994      0.995     1.66    -10.56585     19.60611     1224.699        26     0.900     0.831 -74.37   0
       136    502.3189    575.8770 300.1591959 +22.7017336     5696.296     69.59919      1.158     2.05    -9.909975     19.60611     920.7266        27     0.982     0.931  75.60   0
       137    672.0203    571.5020 300.2134489 +22.7513620     259.7875     69.42223      1.093     2.90    -10.15578     19.60611     50.14967         5     0.828     0.495  46.92   0
       138    229.8422    571.4984 300.0758747 +22.6187396     704.9455     69.47536      1.188     2.39    -10.55374     19.60611     112.2942         9     0.848     0.621 -76.88   0
       139    476.5428    568.9005 300.1534424 +22.6920007     171.4243     69.58151      0.947     3.01    -9.865977     19.60611     41.03966         6     0.786     0.497  86.79   0
       140    434.0827    564.0548 300.1418064 +22.6778752     2158.436     69.54615      1.147     1.88    -10.05371     19.60611     412.3095        17     0.942     0.758  82.72   0
       141    776.9443    563.9940 300.2485735 +22.7806578     347.1737     69.47536      1.135     1.89    -10.43021     19.60611     95.28571         9     0.730     0.709  61.83   0
       142    412.1397    562.3143 300.1355458 +22.6707941     591.2522     69.59919      1.097     2.42    -10.14507     19.60611     93.86536        10     0.841     0.693  69.06   0
       143    166.6519    562.1100 300.0592872 +22.5970847     342.9788     69.51077      1.016     2.63    -10.82213     19.60611     74.85083         7     0.887     0.613  77.00   0
       144    853.7948    559.4894 300.2739864 +22.8023961     822.1914      69.4045      1.256     2.63    -10.47733     19.60611     104.6381        11     0.977     0.642 -52.95   0
       145    734.1490    556.5237 300.2376688 +22.7656850     442.1881     69.49306      1.023     2.16    -10.23417     19.60611     77.46448         8     0.809     0.590  52.03   0
       146    550.6193    551.6052 300.1821175 +22.7092503     100452.3     69.45766      1.115     1.97    -9.656868     19.60611     17312.92       122     1.199     1.162 -57.18   0
       147    236.7098    551.6163 300.0844711 +22.6150964     1712.989     69.42223      1.148     2.00    -10.38603     19.60611     273.0094        18     1.068     0.791  87.17   0
       148    441.1519    532.1783 300.1543655 +22.6708463     1248.782     69.51077      1.248     2.60    -9.767938     19.60611     193.0771        14     1.340     0.675  89.43   0
       149    758.3619    520.1016 300.2570492 +22.7624813     226.2919     69.49306      1.083     3.43     -10.0835     19.60611     30.65291         5     0.797     0.427  70.94   0
       150    838.1049    517.9460 300.2825982 +22.7857598     888.3688     69.56384      1.103     1.75    -10.25921     19.60611     200.5529        11     0.853     0.653 -88.51   0
       151    709.4512    515.6453 300.2432607 +22.7465417     1259.859     69.51077      1.100     1.98    -9.862586     19.60611     202.5888        14     0.901     0.779 -74.70   0
       152    953.8278    512.4783 300.3204505 +22.8188619     297.1811     69.51077      1.415     2.23    -10.29562     19.60611     44.47285         5     0.698     0.472 -18.56   0
       153    496.4264    511.3154 300.1783443 +22.6814336     297.0997     69.47536      1.125     2.24    -9.417734     19.60611      60.6784         6     0.729     0.565  44.58   0
       154    966.8235    509.4944 300.3254726 +22.8218976     703.0906     69.38678      1.102     1.89    -10.28695     19.60611     127.4829        10     0.846     0.598  62.09   0
       155    838.4267    508.1951 300.2858672 +22.7830549     1062.947     69.45766      1.180     2.27    -10.19087     19.60611     162.5398        17     1.330     0.731  72.58   0
       156    876.5687    503.0877 300.2994154 +22.7930163     2068.645     69.47536      1.053     1.92    -10.20294     19.60611     373.0627        16     0.880     0.746 -86.62   0
       157    108.6145    493.6019 300.0635163 +22.5600175     563.9202     69.33358      1.299     2.33    -10.25741     19.60611     82.90089         9     0.885     0.612  82.57   0
       158    968.3335    493.4828 300.3311466 +22.8177486      347.782     69.59919      0.985     2.15    -10.19959     19.60611     70.30496         5     0.655     0.476  19.56   0
       159    101.2264    483.5842 300.0644757 +22.5549270     141.8144     69.51077      1.163     2.64    -10.21345     19.60611     37.43878         5     0.702     0.469 -16.92   0
       160    709.0544    477.8172 300.2554290 +22.7355577     180.9665     69.47536      1.138     3.30    -9.681294     19.60611     46.23415         5     0.655     0.612  79.31   0
       161    650.1171    473.7659 300.2383894 +22.7167289     429.0646     69.45766      1.244     2.04    -9.415896     19.60611     64.43517         8     0.769     0.614  48.48   0
       162    964.5444    465.9518 300.3389107 +22.8087014     278.1754     69.52846      1.068     2.35     -10.1312     19.60611     59.20527         6     0.736     0.497  86.54   0
       163    710.9260    465.9785 300.2598585 +22.7327182     293.1509     69.49306      1.158     2.81    -9.593299     19.60611     60.65559         9     0.796     0.736  89.12   0
       164    868.2560    462.1269 300.3101336 +22.7787564      499.175     69.52846      1.061     1.78    -10.02838     19.60611     112.7169         7     0.737     0.567   9.80   0
       165    852.1896    458.2294 300.3063921 +22.7728228     310.2787     69.49306      1.153     1.86    -9.996925     19.60611     69.58871         6     0.683     0.529  59.50   0
       166    596.5208    456.5567 300.2272922 +22.6957207      1625.92     69.47536      1.121     2.10    -9.242403     19.60611     241.4836        17     0.962     0.875  16.33   0
       167    957.0031    455.0992 300.3400852 +22.8033233     205.5714     69.38678      0.962     1.81    -10.12771     19.60611     54.20187         5     0.611     0.518 -89.83   0
       168      5.2178    450.7737 300.0453147 +22.5167041     2949.797     69.28033      0.630     0.85    -10.29571     19.60611     1695.858         6     0.460     0.420 -61.87   0
       169   1007.9027    435.3829 300.3623643 +22.8129020     620.0374      69.4045      1.002     2.81    -10.14132     19.60611     110.7716        10     0.951     0.656 -68.85   0
       170    966.1863    434.1165 300.3497657 +22.8000433     447.3402     69.45766      1.067     2.53    -10.12731     19.60611      92.4399         8     0.869     0.619 -62.12   0
       171    879.8766    435.3764 300.3224467 +22.7745509     170.2548     69.51077      0.955     1.92     -10.0002     19.60611     58.82607         5     0.684     0.444 -21.82   0
       172    707.1114    430.1158 300.2703212 +22.7212733     442.9833     69.61686      1.162     3.72    -9.294622     19.60611     98.91374        10     1.183     0.598  89.31   0
       173    211.4727    428.8241 300.1165223 +22.5722935     323.1621     69.52846      1.200     3.10    -9.659422     19.60611     45.14917         8     0.874     0.645  35.13   0
       174    273.5036    424.5252 300.1372013 +22.5896667     1830.137     69.63453      1.140     2.09    -9.570962     19.60611     261.6978        17     0.892     0.872  11.84   0
       175   1006.5627    422.6265 300.3660904 +22.8088338     2194.014     69.51077      1.030     1.82     -10.1413     19.60611      393.303        16     0.864     0.752 -78.88   0
       176    220.7612    419.3438 300.1224886 +22.5723594     3614.085     69.49306      1.152     2.03    -9.562621     19.60611     590.0724        22     0.975     0.871  77.42   0
       177    361.6120    413.4762 300.1681883 +22.6129201     2426.828     69.51077      1.146     2.14    -9.333115     19.60611     387.4021        21     1.018     0.869  87.80   0
       178    986.6044    413.7702 300.3627428 +22.8003106      978.436     69.45766      1.068     2.06    -10.13359     19.60611       180.72        13     0.854     0.759   2.34   0
       179    605.7006    410.0812 300.2452477 +22.6851249     8975.183     69.61686      1.171     2.02    -9.169418     19.60611     1536.268        34     1.047     0.941  86.33   0
       180    623.2607    410.2495 300.2506607 +22.6904365     277.6477     69.54615      1.363     4.18    -9.163039     19.60611     39.53909         6     1.429     0.349 -47.37   0
       181    939.1932    392.6113 300.3548312 +22.7800285     417.2616     69.36905      1.149     2.30    -10.11609     19.60611     66.62151         9     0.811     0.698  88.07   0
       182    160.4996    390.4000 300.1131607 +22.5459767     957.3696     69.33358      1.047     2.09     -9.77646     19.60611     142.3891        12     0.799     0.770  79.15   0
       183    546.3610    379.6713 300.2366516 +22.6586045     3088.009     69.45766      1.145     2.17     -9.28514     19.60611     460.3022        20     0.990     0.832  87.22   0
       184    959.8989    379.7247 300.3654732 +22.7825259     562.8722     69.61686      1.084     2.13    -10.12474     19.60611     103.6276         9     0.820     0.598 -72.78   0
       185    261.2194    379.0942 300.1481376 +22.5729434     366.1243     69.42223      1.363     3.90     -9.43641     19.60611      42.6487         6     0.957     0.455  52.49   0
       186    806.2768    371.3284 300.3203117 +22.7340964     237.3026     69.59919      1.269     4.01    -9.683191     19.60611     32.93205         6     0.881     0.522 -43.65   0
       187    750.3849    368.4962 300.3038162 +22.7165372     507.7495     69.40451      1.112     2.32    -9.463453     19.60611     75.13235        10     0.800     0.757 -65.27   0
       188    453.0015    365.8948 300.2120714 +22.6266616     2962.106      69.4045      1.244     2.19    -9.325376     19.60611     488.0753        21     0.996     0.873  69.02   0
       189    942.2745    360.1928 300.3663211 +22.7716329     262.4685     69.43994      0.998     1.96     -10.1195     19.60611     63.87374         7     0.768     0.542 -59.83   0
       190    844.8599    360.0674 300.3359934 +22.7424186     568.1423     69.52846      1.110     1.95    -9.551197     19.60611     130.1409         8     0.728     0.641  45.40   0
       191    520.2667    352.1949 300.2374526 +22.6428917      348.984     69.49306      1.390     3.39    -9.308954     19.60611     32.49684         5     0.943     0.352 -46.40   0
       192    817.6417    347.4889 300.3315955 +22.7306502     252.4444     69.49306      1.069     2.86    -9.562691     19.60611     43.18633         6     0.830     0.478 -87.37   0
       193    340.5729    345.0847 300.1838558 +22.5869778     1156.344     69.49306      1.243     2.11    -9.304569     19.60611     195.1879        16     0.985     0.849 -88.31   0
       194     59.1221    342.6214 300.0971799 +22.5018544     439.3395     69.49306      1.186     2.64    -9.665409     19.60611     65.82696         8     0.898     0.594  -7.37   0
       195    309.8978    334.5967 300.1777222 +22.5747688     14602.23      69.4045      1.207     2.08    -9.279171     19.60611     2438.792        43     1.103     1.016  73.93   0
       196    844.3636    331.8362 300.3450065 +22.7341562     636.1237     69.56384      1.111     2.32    -9.507319     19.60611     114.0825        12     0.898     0.769  35.37   0
       197      6.2797    322.5406 300.0872880 +22.4802392     2459.092     69.52846      1.234     2.21    -9.669033     19.60611     340.2714        19     0.944     0.906  54.41  16
       198    759.5364    320.7475 300.3221732 +22.7055585     199.7683     69.54615      1.085     2.44     -9.51158     19.60611     49.94866         5     0.689     0.481  74.61   0
       199    408.3908    319.2820 300.2133281 +22.5999028     344.8251     69.43994      1.131     3.45    -9.321222     19.60611     41.93126         5     0.734     0.469  76.36   0
       200    720.1174    314.0724 300.3120601 +22.6918307     904.4294     69.61686      1.215     2.38    -9.417999     19.60611     142.3249        13     1.008     0.719  67.22   0
       201    382.1817    298.8804 300.2117989 +22.5861872     1165.638     69.49306      1.444     2.91    -9.239267     19.60611     145.3489        17     1.196     0.803  73.13   0
       202    594.0823    297.1923 300.2782899 +22.6492161     174.0188     69.42223      1.160     2.98    -9.292343     19.60611     34.67875         5     0.827     0.648  49.17   0
       203    821.1761    291.6721 300.3508209 +22.7156668     379.1461     69.52846      1.193     2.47    -9.556302     19.60611     57.64006         6     0.729     0.564 -89.71   0
       204    457.8504    278.0790 300.2420929 +22.6028967     659.4208     69.51077      1.289     2.39    -9.300577     19.60611     97.80708        10     0.834     0.747   5.40   0
       205    702.7398    269.9587 300.3209689 +22.6739481     1058.837     69.47536      1.235     2.21    -9.370854     19.60611      167.364        15     0.951     0.802 -85.00   0
       206    964.0459    264.3964 300.4042152 +22.7506116     1530.879     69.47536      1.119     2.09    -9.871753     19.60611     272.0557        14     0.921     0.767  64.71   0
       207    411.1726    254.1497 300.2353379 +22.5820328     335.9901     69.51077      1.309     2.34    -9.165357     19.60611     53.24642         6     0.743     0.531  41.76   0
       208     86.0346    248.1807 300.1361980 +22.4828277      684.481     69.51077      1.429     3.17    -9.332687     19.60611     76.47273        12     0.969     0.833 -29.62   0
       209    116.9276    248.3248 300.1457489 +22.4921348     308.8389     69.54615      1.089     2.35     -9.38142     19.60611     57.34597         7     0.706     0.649   5.08   0
       210    979.7883    244.5632 300.4155628 +22.7496222     232.9163     69.47536      1.182     3.86    -9.700286     19.60611     46.02942         7     0.881     0.577  82.03   0
       211    872.5079    220.3193 300.3899827 +22.7105289      1063.84     69.61686      1.151     2.27     -9.40973     19.60611     151.0623        15     0.887     0.844 -49.91   0
       212    291.0527    217.9593 300.2097250 +22.5356311     1071.877     69.47536      1.268     2.42    -8.998311     19.60611     165.6325        15     1.089     0.773  81.70   0
       213    368.9767    213.1647 300.2355144 +22.5576139     501.4293     69.51077      1.415     4.22    -8.999998     19.60611     63.97464        11     1.110     0.784 -45.43   0
       214    770.8494    212.4283 300.3608616 +22.6778157     299.0345     69.51077      1.291     2.68    -9.299478     19.60611     44.74605         6     0.774     0.495  -0.51   0
       215    185.5245    205.4389 300.1809833 +22.5003961     464.6299     69.45766      1.369     3.28     -9.26772     19.60611     61.64845         6     0.910     0.496 -57.15   0
       216    723.7271    201.7982 300.3496304 +22.6606462     708.5093     69.40451      1.190     2.37     -9.18681     19.60611     129.1139        13     0.909     0.793  32.07   0
       217    207.5414    198.2982 300.1901436 +22.5049478     246.7928     69.58151      1.234     3.34    -9.213634     19.60611     47.98496         5     0.790     0.410 -65.17   0
       218    994.9473    194.2886 300.4366084 +22.7397027     383.2395     69.51077      1.110     2.01    -9.300569     19.60611     82.23911         7     0.688     0.616 -86.96   0
       219    727.7475    193.2606 300.3536536 +22.6593965      312.834     69.54615      1.026     2.20    -9.107844     19.60611     58.69638         6     0.717     0.528 -43.45   0
       220    648.0224    192.6179 300.3290299 +22.6353304     498.5928     69.49306      1.226     2.84    -8.892206     19.60611     83.23917        11     0.876     0.817  49.36   0
       221    843.6763    184.0978 300.3927513 +22.6914814     699.5447     69.63453      1.160     2.18    -9.086775     19.60611      114.561        10     0.889     0.639  52.89   0
       222    574.5156    184.5376 300.3087642 +22.6109865     418.0426     69.58151      1.197     2.77    -8.812976     19.60611     63.81001        10     0.917     0.732 -88.98   0
       223    855.5706    183.1339 300.3967714 +22.6947659     308.2559     69.51077      1.079     2.14    -9.118155     19.60611     60.86509         6     0.727     0.495 -89.86   0
       224   1016.4583    173.8215 300.4499599 +22.7402554     869.8762     69.49306      1.176     2.08    -9.162306     19.60611     142.8544        14     1.033     0.759  62.73   0
       225    972.3026    173.1354 300.4364108 +22.7268402     522.9503     69.59919      1.192     3.15    -9.146297     19.60611     83.32745         9     0.989     0.609  35.08   0
       226    206.5057    166.6631 300.2000867 +22.4955545     268.9544     69.58151      1.083     2.41    -9.210149     19.60611     57.99013         7     0.780     0.633 -72.67   0
       227     68.2636    161.5565 300.1587878 +22.4526358     960.4105     69.49306      1.223     2.37    -8.781279     19.60611      139.073        15     0.932     0.849  60.78   0
       228    891.3141    158.1622 300.4160170 +22.6982880     348.5011     69.47536      1.237     3.46    -9.002697     19.60611      57.2505         6     0.943     0.439  79.55   0
       229     18.1420    158.3860 300.1442486 +22.4366939     102.5955     69.45766      0.919     2.02    -8.497247     19.60611     45.50192         5     0.696     0.439  22.90   0
       230    225.6875    154.8988 300.2098661 +22.4979275     2851.963     69.65219      1.281     2.09    -9.127386     19.60611     452.6521        23     1.101     0.893  74.04   0
       231     10.0186    149.2318 300.1446957 +22.4316302     527.7648     69.47536      1.125     2.23    -8.460434     19.60611     91.98881         8     0.753     0.645 -42.28   0
       232    208.8190    145.2907 300.2077400 +22.4901115     291.1369     69.42223      1.142     2.71    -9.071004     19.60611     50.66875         6     0.745     0.597 -49.35   0
       233   1023.7393    141.9096 300.4625861 +22.7332558     4659.124     53.76508      0.906     2.05    -8.892676     19.60611     1533.213        18     1.040     0.543  86.57  24
       234    869.6434    136.1594 300.4164007 +22.6854727     1686.935     69.58151      1.153     2.05    -8.840953     19.60611     273.5524        19     0.962     0.853  42.55   0
       235    973.3320    134.6886 300.4492072 +22.7160908     1232.196     69.63453      1.125     1.95    -8.853032     19.60611     235.2849        15     0.944     0.796 -81.56   0
       236    419.2112    131.5909 300.2776104 +22.5492391     181.8951     69.38678      1.171     3.96    -8.966122     19.60611     39.37645         6     0.933     0.578 -64.88   0
       237    470.5070    118.9340 300.2976771 +22.5609737     837.0153     69.63453      1.322     2.62    -8.930705     19.60611     120.1222        13     0.973     0.747 -63.16   0
       238    398.5035    119.0621 300.2752328 +22.5394344     277.4407     69.58151      1.428     4.42      -8.9346     19.60611     36.90633         8     0.970     0.782  69.43   0
       239    532.0353    118.6274 300.3169257 +22.5793202     278.2176     69.51077      1.740     4.11    -8.755404     19.60611     30.03806         5     0.819     0.589 -86.07   0
       240    244.6442     98.8711 300.2339351 +22.4875213     2875.938     69.45766      1.213     2.34    -8.808987     19.60611     462.3304        19     0.996     0.858  63.79   0
       241     95.6052     98.6187 300.1876990 +22.4427676     230.3678     69.45766      1.042     2.85    -8.506976     19.60611     49.26832         5     0.712     0.462  73.02   0
       242      6.1853     88.3601 300.1632512 +22.4130090     240.3683     69.51077      1.333     3.88    -8.371398     19.60611     27.75081         6     1.184     0.364  61.03  16
       243    490.7598     84.0712 300.3152888 +22.5570245     3028.352     69.47536      1.229     2.16    -8.619709     19.60611     462.3886        22     1.010     0.933  81.90   0
       244    375.6488     83.8292 300.2795524 +22.5224641     317.4524     69.51077      1.359     3.47    -8.653619     19.60611     61.83107         7     0.960     0.612 -40.22   0
       245    743.1121     73.3746 300.3973367 +22.6295339     411.6731     69.43994      1.299     2.23    -8.165168     19.60611     63.51859         7     0.698     0.661   7.92   0
       246    183.5764     67.7674 300.2250414 +22.4602834     157.8699     69.49306      1.145     3.45    -8.408621     19.60611     31.84486         5     0.797     0.433  69.09   0
       247    542.1904     66.1050 300.3371239 +22.5672689     122.8568     69.42223      1.159     3.84    -8.227164     19.60611     39.42501         6     0.890     0.497  57.04   0
       248    619.0193     64.0715 300.3617030 +22.5896971     2970.672     69.52846      1.258     2.19    -8.220298     19.60611     485.7024        23     0.976     0.953 -76.07   0
       249    394.0036     63.1022 300.2919847 +22.5220095     667.5219      69.4045      1.212     2.26    -8.283721     19.60611     102.1052        11     0.903     0.677 -84.54   0
       250    660.2171     61.3652 300.3754104 +22.6012576     431.4052     69.49306      1.138     3.56    -8.105035     19.60611      61.4308         7     0.840     0.585  68.27   0
       251    676.2761     57.4718 300.3816748 +22.6049476     265.7574     69.58151      0.991     2.73    -8.046494     19.60611     49.04269         7     0.884     0.518  59.54   0
       252    142.9574     55.7037 300.2163307 +22.4446426      439.274     69.51077      1.358     1.92    -8.284463     19.60611     67.69877         7     0.669     0.636 -45.06   0
       253    945.8667     54.5811 300.4666293 +22.6848279     212.6345     69.47536      1.022     2.34    -8.574153     19.60611     52.18359         7     0.816     0.563  80.42   0
       254    200.9540     53.5993 300.2350375 +22.4614237     86.68851     69.49306      1.157     4.48    -8.279023     19.60611     29.12416         5     0.984     0.581  76.20   0
       255    714.7700     52.6620 300.3952253 +22.6150920     244.0747     69.51077      1.170     3.25    -8.038168     19.60611     48.98923         7     0.937     0.527  57.75   0
       256    303.8300     49.8178 300.2682471 +22.4911714      231.305     69.47536      1.329     3.18    -8.292612     19.60611      35.9535         5     0.725     0.697 -17.41   0
       257    663.2288     48.7939 300.3804256 +22.5985456     1335.363     69.49306      1.241     2.35    -8.000079     19.60611     215.4344        15     0.966     0.851  73.63   0
       258    678.0618     47.6302 300.3854229 +22.6026530     534.4379     69.51077      1.762     3.65     -7.97698     19.60611     55.39252         8     0.891     0.753  88.61   0
       259    749.7486     40.4566 300.4100810 +22.6220562     708.5601     69.54615      1.129     2.13    -7.977266     19.60611     114.8814         9     0.814     0.602  66.86   0
       260    687.3845     33.6065 300.3928748 +22.6014130     343.4816     69.42223      1.154     2.84    -7.878982     19.60611     55.40083         7     0.801     0.673  78.48   0
       261    493.2907     32.9988 300.3326409 +22.5431062     502.3848     69.38678      1.110     2.82    -7.760246     19.60611     69.18375         7     0.714     0.670  53.61   0
       262    397.3126     31.2493 300.3033443 +22.5138492     210.1232     69.49306      1.175     2.59    -7.720794     19.60611     66.32513         8     0.887     0.611  75.28   0
       263    736.7852     21.9493 300.4120442 +22.6128532     326.1497     69.49306      1.213     3.08    -7.874774     19.60611     46.26569         8     0.835     0.637  49.12   0
       264    168.4867     21.2344 300.2354421 +22.4423969     1845.828     69.45766      1.233     2.31    -7.994061     19.60611     251.3158        18     0.987     0.877 -72.02   0
       265    231.0489   1017.9623 299.9310080 +22.7471132     600.7495     69.51077      2.912     6.40     18.66178     19.60611     30.02225         6     1.455     0.790 -63.02  18
       266    729.8909     13.6318 300.4125936 +22.6083973      329.195     69.43994      1.042     1.74    -7.815191     19.60611     77.22776         7     0.658     0.596 -24.98   0
       267    226.9184   1017.6038 299.9298411 +22.7457699     402.4143     69.42223      1.177     3.32     20.78355     19.60611     47.71954         7     0.840     0.588 -30.62   2
       268    168.7784   1015.2360 299.9125448 +22.7276286     1391.721     69.51077      5.486    15.32      22.1109     19.60611     46.95249        39     3.125     2.089  19.24  19
       269    352.5631   1015.2618 299.9696641 +22.7828301     182.5502     69.51077      0.932     2.94    -13.01641     19.60611     46.67218         5     0.748     0.430  66.12   0
