#   1 NUMBER                 Running object number                                     
#   2 X_IMAGE                Object position along x                                    [pixel]
#   3 Y_IMAGE                Object position along y                                    [pixel]
#   4 ALPHA_J2000            Right ascension of barycenter (J2000)                      [deg]
#   5 DELTA_J2000            Declination of barycenter (J2000)                          [deg]
#   6 FLUX_APER              Flux vector within fixed circular aperture(s)              [count]
#   7 FLUXERR_APER           RMS error vector for aperture flux(es)                     [count]
#   8 FLUX_RADIUS            Fraction-of-light radii                                    [pixel]
#   9 FWHM_IMAGE             FWHM assuming a gaussian core                              [pixel]
#  10 BACKGROUND             Background at centroid position                            [count]
#  11 THRESHOLD              Detection threshold above background                       [count]
#  12 FLUX_MAX               Peak flux above background                                 [count]
#  13 ISOAREA_IMAGE          Isophotal area above Analysis threshold                    [pixel**2]
#  14 A_IMAGE                Profile RMS along major axis                               [pixel]
#  15 B_IMAGE                Profile RMS along minor axis                               [pixel]
#  16 THETA_IMAGE            Position angle (CCW/x)                                     [deg]
#  17 FLAGS                  Extraction flags                                          
         1    728.9388     11.0413 300.4126040 +22.6083152     363.3408     69.54298      1.135     2.89    -8.201352     19.62519     74.93938         7     0.920     0.532  59.61   0
         2    283.8725     10.8194 300.2741506 +22.4749726     615.0657     69.56071      1.210     2.47    -9.155902     19.62519     99.24765        10     0.808     0.780 -16.18   0
         3    767.0446      5.6906 300.4262118 +22.6181827     246.0259     69.54298      1.316     4.15    -8.078028     19.62519     39.40415         8     0.973     0.642 -80.26  16
         4    786.9504      2.4683 300.4334595 +22.6232141     1124.252     60.01073      1.186     2.04    -7.939862     19.62519     187.8186        16     1.014     0.833  -5.49  24
         5     73.5245    934.7863 299.9086092 +22.6768343     2058.904     69.57842     26.963    56.86    -6.881096     19.62519     49.23214       487     9.913     9.050 -22.46  11
         6    128.0182   1022.5574 299.8969629 +22.7183346     704.2836     59.88738      2.625     6.74     24.65192     19.62519     41.97968        13     1.504     0.847 -24.81  25
         7     94.4802   1020.3158 299.8872744 +22.7076203     1746.432     68.34526      7.071    16.46     21.61272     19.62519     58.13934        67     4.018     1.873  33.82  27
         8     76.4251   1013.6154 299.8838480 +22.7002790     2303.041     69.57842     22.704    53.81     12.29671     19.62519     66.95708       603    10.911     7.363  75.06  27
         9    222.9295   1002.0705 299.9331255 +22.7409676     982.3992     69.64924      6.168     6.49     17.49154     19.62519     34.96094         5     1.397     0.847 -16.88   3
        10    225.0783    998.1794 299.9350602 +22.7404982     1047.999     69.56071      8.506     9.38     15.97022     19.62519      39.1562        14     1.711     1.436 -29.98   3
        11    203.2668   1002.0269 299.9270288 +22.7350513     971.7932     69.54298      3.441     4.32     17.78691     19.62519     44.43287         5     1.599     0.332 -62.24   3
        12    196.2950   1000.6422 299.9253130 +22.7325613     1636.943     69.57842      7.074    14.69     17.53443     19.62519     84.81522        44     2.720     2.207 -41.13   2
        13    630.5695   1001.6515 300.0600699 +22.8631920     4076.957     69.59613      1.074     1.86    -13.10248     19.62519     640.4576        25     0.973     0.925  82.68   2
        14    636.1364    999.3358 300.0625572 +22.8641982     4426.825     69.59613      1.122     1.87    -13.05148     19.62519     801.9951        26     0.962     0.932  85.42   3
        15    730.7914   1002.3947 300.0910397 +22.8934692     269.5461     69.41882      1.126     2.20    -13.22214     19.62519     47.27538         5     0.696     0.452 -20.47   0
        16    227.3405    982.8752 299.9407460 +22.7367936     1878.661     69.61384      6.905    14.73     9.652865     19.62519     45.37077        61     3.045     1.980  41.08   3
        17    232.3776    978.0804 299.9438725 +22.7369324     1539.424     69.52526      4.903     8.68     6.187657     19.62519     53.75776        24     2.031     1.037  45.92   3
        18    238.4623    991.6259 299.9413538 +22.7426395     4083.606     69.56071      6.081    23.35     8.337926     19.62519     100.1637       198     6.278     2.732  71.42  19
        19    163.4551    993.8978 299.9173042 +22.7207687     735.9174     69.64924      4.688     7.24     15.68631     19.62519     30.03348         9     1.685     0.871 -88.04   3
        20    164.5537    989.3531 299.9191252 +22.7197969      784.444     69.57842      2.607     6.70     13.95936     19.62519     46.26318        11     1.608     0.784  -2.64   2
        21     78.6584    971.9964 299.8980914 +22.6890321     2773.307     69.52526     27.859    53.98     2.916815     19.62519     62.78091       622     9.410     8.592  -8.44  19
        22    230.0208   1015.7540 299.9308741 +22.7470162     642.9799     69.61384      2.861     4.90     19.89679     19.62519     26.74918         5     0.897     0.759  -5.47   0
        23    923.7905    985.1960 300.1567839 +22.9464129      446.553     69.40106      1.072     2.30    -13.49963     19.62519     71.24364         8     0.770     0.639  24.33   0
        24     75.4546    956.4861 299.9021453 +22.6836283     2755.439     69.61384     22.085    27.06    -1.827763     19.62519     58.92693       212     5.651     3.596  46.26   3
        25    648.8955    968.6943 300.0765069 +22.8592405     3321.313     69.71999      1.149     1.99    -12.73736     19.62519     581.0897        21     0.957     0.847  40.45   0
        26    138.7656    969.8026 299.9174775 +22.7064539     503.1095     69.54298      4.365     4.68     7.305924     19.62519     37.06046         5     0.883     0.702  -2.92   0
        27    543.9771   1006.4061 300.0315656 +22.8385743     1272.266     69.54298      1.147     1.81    -13.17162     19.62519     224.3164        13     0.859     0.743 -37.47   0
        28    230.9374    989.0066 299.9398677 +22.7396299     1603.833     69.52526      8.034    11.87     10.23064     19.62519     61.81871        30     2.742     1.430 -48.81   3
        29    196.5360   1017.0146 299.9200571 +22.7373230     765.1925     69.52526      5.229     6.77     23.22224     19.62519     44.35307        13     1.695     1.281  -1.15  24
        30    557.4953    959.4302 300.0510680 +22.8291646     740.7238      69.4898      1.091     2.23    -12.62507     19.62519     138.1936        14     0.941     0.741 -62.99   0
        31    451.1728    956.1977 300.0190340 +22.7963354      463.999     69.50753      1.140     2.18    -12.64685     19.62519     98.85423         9     0.860     0.610 -72.19   0
        32    108.9380    954.5231 299.9131850 +22.6931211     1206.066     69.61384     14.250    14.62     1.872658     19.62519     39.15097        35     2.966     2.005  23.01   3
        33    109.9138    949.6055 299.9150889 +22.6920057     717.3291      69.4898      3.993     4.14    0.2456769     19.62519     34.83887         5     1.299     0.376  29.05   3
        34    215.9504   1005.3517 299.9298880 +22.7398120     1566.174     69.59613      8.100    10.26     18.69784     19.62519     52.88153        32     2.333     1.616 -42.05   3
        35    381.9041    954.0568 299.9981837 +22.7749339     3222.418     69.63154      1.202     1.90     -12.7204     19.62519     609.5287        25     0.940     0.928  31.50   0
        36     89.0774    941.1845 299.9113575 +22.6833371      1193.13     69.57842      8.053     6.89    -3.786835     19.62519     55.51411        17     1.576     1.292  68.44   1
        37    215.9464    997.2916 299.9325111 +22.7375021     2066.759     69.61384     10.512    14.80     15.75671     19.62519     59.86946        54     2.539     2.398 -45.62   3
        38    928.1219    932.6847 300.1752309 +22.9326457     1086.219     69.66693      1.116     1.72     -12.7871     19.62519     198.4135        13     0.856     0.762  23.03   0
        39     57.4693    977.4720 299.8897278 +22.6842365     2105.688     69.63154     22.249    44.14    -1.561508     19.62519     55.92972       314    12.624     4.283 -82.04  19
        40    751.8212    915.6144 300.1258437 +22.8748887     405.5945     69.54298      1.072     2.68    -12.47498     19.62519     84.17783         9     0.940     0.624 -41.23   0
        41    773.9088    909.3738 300.1347563 +22.8797220     5746.984     69.50753      1.064     1.72    -12.51716     19.62519     1138.351        27     0.941     0.857 -47.77   0
        42    964.9446    908.9272 300.1944458 +22.9368667     183.3568     69.56071      1.112     3.51    -12.62519     19.62519      44.1299         6     1.018     0.720 -64.88   0
        43    208.1392   1008.2483 299.9265174 +22.7382962     995.6317     69.61384      4.918     6.19     19.89063     19.62519     51.37687        10     1.555     0.733   6.62   3
        44    782.3491    891.4602 300.1432168 +22.8771144     663.4139     69.61384      0.992     1.99    -12.46497     19.62519     126.8722        10     0.795     0.715 -49.18   0
        45    820.8555    884.9747 300.1573262 +22.8867992     362.0707     69.56071      0.975     2.07    -12.49881     19.62519     79.83222         7     0.829     0.472  40.81   0
        46    159.6948    884.7493 299.9516638 +22.6883752     316.0925     69.63154      1.676     5.07    -9.666342     19.62519     31.93526         5     1.024     0.710  13.57   0
        47    868.7117    876.1333 300.1751186 +22.8986098      270.065     69.66693      1.114     2.56    -12.49254     19.62519     53.60818         7     0.821     0.579  63.47   0
        48    731.7979    872.4622 300.1336513 +22.8565068     215.4119     69.54298      1.083     3.03    -12.28957     19.62519     50.61018         6     0.849     0.657  20.19   0
        49    433.0404    871.7733 300.0408720 +22.7666958     2004.134     69.61384      1.106     1.77    -11.78184     19.62519     412.5768        18     0.886     0.802  60.07   0
        50    158.1712    857.3568 299.9601041 +22.6800704     421.0885     69.59613      1.327     2.45     -11.2946     19.62519     57.22131         7     0.772     0.609 -24.53   0
        51    135.4837    854.5410 299.9539712 +22.6724528     822.9064     69.66693      1.098     2.28    -11.18502     19.62519     112.6846        13     0.876     0.821  39.72   0
        52   1007.0776    843.1769 300.2289849 +22.9306241     1029.327     69.54298      1.137     1.82    -12.18726     19.62519     224.2661        12     0.879     0.726 -10.82   0
        53    961.2430    841.7853 300.2151442 +22.9164886     1099.476     69.57842      1.059     1.82    -12.18344     19.62519     222.6298        12     0.926     0.677  54.52   0
        54    167.3396    835.8757 299.9699424 +22.6766682     230.1851     69.61384      1.391     3.32    -11.32522     19.62519     41.59957         6     0.734     0.645  18.19   0
        55    745.0053    835.5253 300.1497858 +22.8498714     320.6784      69.4898      1.011     2.08    -12.05793     19.62519     65.85013         6     0.737     0.499   0.30   0
        56    612.9283    829.7158 300.1105427 +22.8085990     2297.392     69.66693      1.080     1.73    -11.88882     19.62519      494.342        16     0.848     0.764  33.34   0
        57    444.1642    824.0464 300.0598629 +22.7563512     670.4769     69.59613      0.507     2.60    -11.29538     19.62519      462.605         5     0.468     0.431 -13.62   0
        58    163.2866    823.8820 299.9725853 +22.6720152     652.5463     69.68462      1.159     2.36    -11.33386     19.62519     110.1101        12     0.885     0.805 -11.73   0
        59    633.7971    822.3377 300.1194411 +22.8127415     463.9041     69.56071      1.071     1.78     -11.8536     19.62519      72.2924         5     0.651     0.462 -12.97   0
        60    445.8878    818.5139 300.0621992 +22.7552821      896.631     69.68462      0.709     1.01    -11.24333     19.62519     362.9575         5     0.500     0.420  87.86   0
        61    442.0967    815.9899 300.0618410 +22.7534212     2268.004      69.4898      0.490     2.44    -11.21788     19.62519     1538.705         9     0.449     0.399  19.02   0
        62    789.0208    809.3738 300.1720084 +22.8555649     2178.393     69.54298      1.061     1.66    -11.83679     19.62519     408.2905        19     0.951     0.815 -73.49   0
        63   1005.8300    809.4973 300.2395553 +22.9205827     614.1014     69.50753      1.140     2.49    -11.72272     19.62519     108.7912         8     0.854     0.600 -34.81   0
        64    506.2273    801.9701 300.0863570 +22.7686392     331.1733     69.56071      1.203     2.15    -11.00091     19.62519     62.24677         7     0.713     0.632  65.00   0
        65    152.2226    800.0454 299.9769021 +22.6618644     409.3355     69.59613      1.096     2.07    -11.35156     19.62519     99.12821         7     0.709     0.620  56.54   0
        66    302.0727    792.2204 300.0260241 +22.7045948     26435.24     69.57842      1.174     1.82    -11.25429     19.62519     5148.197        54     1.054     1.020  80.23   0
        67    559.8796    791.1241 300.1065842 +22.7816212     751.9778     69.66693      1.130     1.75    -11.07853     19.62519     173.0446        11     0.816     0.694  39.22   0
        68    972.9792    790.1251 300.2356134 +22.9051779     423.6305     69.56071      1.117     2.39    -11.54374     19.62519     88.95392         8     0.812     0.600 -39.87   0
        69    229.8182    790.3676 300.0041649 +22.6823807      114.047     69.54298      1.024     2.34    -11.26751     19.62519     41.59838         5     0.717     0.440 -20.29   0
        70    588.8198    787.1172 300.1168967 +22.7891515     365.3198     69.52526      0.945     1.67    -11.30778     19.62519     99.20837         6     0.639     0.541 -54.83   0
        71    599.5570    784.9897 300.1209315 +22.7917613     235.7233     69.56071      1.198     3.79    -11.38129     19.62519     48.72256         6     0.958     0.485  82.68   0
        72    742.6556    771.9872 300.1697264 +22.8309382     380.2544     69.56071      1.199     1.75    -11.47497     19.62519     87.55566         7     0.668     0.614  87.58   0
        73    351.7481    769.4420 300.0488808 +22.7129706     15444.06     69.56071      1.091     1.84    -11.13563     19.62519     2725.891        45     1.032     0.997  60.86   0
        74    366.0319    769.9684 300.0531518 +22.7174070     964.3635     69.59613      1.145     1.85    -11.11781     19.62519     204.4258         9     0.717     0.693  87.75   0
        75    874.7889    765.0596 300.2131550 +22.8685573     1323.794     69.52526      1.005     1.56    -11.41256     19.62519     324.3725        10     0.743     0.664 -17.52   0
        76    362.8344    764.0232 300.0540913 +22.7147433     264.8852     69.57842      1.101     2.56    -11.10072     19.62519      55.1166         7     0.820     0.625 -27.78   0
        77    632.7065    761.2290 300.1389823 +22.7948864     442.8609      69.4898      1.067     2.11    -11.24882     19.62519     88.68423         8     0.819     0.568  84.27   0
        78    234.2773    761.4700 300.0149508 +22.6754371     367.9071     69.66693      1.071     2.29    -11.16834     19.62519     77.38438         6     0.785     0.518  45.60   0
        79     38.9609    757.1328 299.9556771 +22.6155702     255.0534     69.52526      1.463     3.79    -11.19248     19.62519     46.22084         8     0.948     0.681  25.23   0
        80    479.3910    756.0056 300.0929585 +22.7474092     265.1683     69.41882      1.078     2.12     -10.9453     19.62519     93.48292         8     0.780     0.660 -41.86   0
        81     67.5165    750.7078 299.9666357 +22.6223017     215.1862     69.73766      1.372     2.91    -11.26987     19.62519     45.52861         5     0.720     0.485  77.04   0
        82    634.2829    750.2792 300.1430349 +22.7922181     201.2317     69.68462      1.054     4.33    -11.13119     19.62519     37.61966         5     0.748     0.715  34.93   0
        83    232.1377    745.6288 300.0194382 +22.6702548     283.1625     69.56071      1.138     3.15    -11.12015     19.62519     38.03544         5     0.725     0.460 -15.30   0
        84    524.6797    734.3107 300.1141089 +22.7547706     308.9714     69.68462      1.153     2.65    -10.86574     19.62519      65.2149         8     0.796     0.746  80.68   0
        85    941.1467    730.4031 300.2451156 +22.8784956     2231.783     69.52526      1.070     1.75    -11.17265     19.62519     439.0186        16     0.897     0.751 -74.19   0
        86    546.6622    731.5248 300.1218569 +22.7605640     729.9522     69.61384      1.112     1.89     -10.8393     19.62519     123.7189        10     0.847     0.626  21.30   0
        87    929.6527    721.8780 300.2443048 +22.8726042     775.0405     69.59613      1.023     1.66    -11.17312     19.62519     163.5745         7     0.645     0.596  62.26   0
        88    292.7152    715.8235 300.0479636 +22.6798881     492.8868     69.52526      1.222     2.51    -10.87027     19.62519     86.91602         9     0.829     0.719   8.83   0
        89    755.7972    713.1547 300.1929572 +22.8179963     1078.111     69.56071      1.017     1.62    -11.06735     19.62519     270.3987        10     0.783     0.618  41.54   0
        90    960.7584    711.9594 300.2572298 +22.8790771     943.8259     69.64924      1.166     1.70    -11.09948     19.62519     186.3045         9     0.706     0.669  27.51   0
        91    874.3823    690.0387 300.2374296 +22.8469024     71492.82     69.57842      1.071     1.72     -11.0554     19.62519     14373.58       106     1.142     1.112 -78.11   0
        92   1021.4023    691.7299 300.2827220 +22.8914375     533.5778     64.77145      1.057     2.05    -11.02289     19.62519     119.4179        10     0.820     0.691  44.87  16
        93    907.2083    682.6995 300.2500493 +22.8546319     296.4104     69.45432      1.613     2.99     -11.0496     19.62519     42.66146         5     0.722     0.663  75.19   0
        94    560.7001    678.9410 300.1433274 +22.7496903     775.6395     69.64924      1.157     2.01    -10.48717     19.62519     144.1295        10     0.826     0.669  -7.11   0
        95    741.8610    676.2230 300.2006261 +22.8032207     4592.986     69.54298      1.115     1.77     -10.9675     19.62519     912.8594        24     0.929     0.861  70.75   0
        96    243.4741    671.5912 300.0470387 +22.6524342     2342.836     69.56071      1.080     2.05    -10.66402     19.62519     338.8851        19     0.991     0.817  58.37   0
        97    325.4942    669.6439 300.0731725 +22.6764824     531.5351     69.57842      0.993     2.06    -10.50601     19.62519     91.53119        10     0.764     0.729 -70.15   0
        98    200.7395    667.0655 300.0352274 +22.6383146     204.8738     69.59613      0.953     2.76    -10.78494     19.62519     65.62014         5     0.927     0.423  26.91   0
        99    533.5814    664.9918 300.1394221 +22.7375573     254.1382     69.52526      1.028     2.26    -10.25803     19.62519     59.70667         6     0.743     0.493  88.38   0
       100    525.4614    657.3171 300.1393903 +22.7329210     1538.949     69.64924      1.127     1.96    -10.19327     19.62519     271.6621        16     0.961     0.800  49.25   0
       101    515.5229    650.9464 300.1383685 +22.7281134     629.8567     69.59613      1.127     2.39    -10.14876     19.62519     126.9727        10     0.849     0.723  81.57   0
       102    178.5798    647.0312 300.0348542 +22.6259228     345.8875     69.56071      1.104     2.84    -10.77428     19.62519     57.16765         8     0.926     0.588  48.02   0
       103    193.3497    645.5784 300.0399166 +22.6299381      324.773     69.56071      1.140     2.45    -10.72893     19.62519     65.17531         7     0.794     0.625 -72.28   0
       104    962.6334    641.8392 300.2806173 +22.8595062     222.4128     69.59613      1.014     2.16    -10.81047     19.62519     53.36081         6     0.691     0.594 -15.09   0
       105    218.7852    642.5084 300.0488201 +22.6366896     224.0752      69.4898      0.947     2.22    -10.64772     19.62519     44.80432         5     0.695     0.446  25.18   0
       106    539.2776    641.4559 300.1488476 +22.7325137      140.008     69.59613      1.021     3.39    -10.01208     19.62519     42.07742         5     0.761     0.436  22.65   0
       107    440.3000    640.7759 300.1182679 +22.7026387     763.3465     69.50753      1.127     2.07    -10.24401     19.62519     140.1724        11     0.843     0.725  53.00   0
       108     15.1053    637.4288 299.9871922 +22.5741123     286.5735      69.4898      1.052     4.48    -11.09246     19.62519     53.55727         9     1.191     0.695  59.41   0
       109   1016.0332    637.7957 300.2985858 +22.8743415     497.7249     69.56071      1.115     2.00    -10.70021     19.62519     90.96131         8     0.760     0.644 -19.56   0
       110     94.4498    635.7485 300.0123825 +22.5974436      9557.69     69.59613      1.163     2.09    -10.84529     19.62519     1342.297        34     1.047     0.971  47.27   0
       111    525.2183    635.8462 300.1462955 +22.7266889     659.9228     69.59613      1.241     2.49    -9.986174     19.62519     88.57581         8     0.845     0.603  52.79   0
       112    943.3207    622.0251 300.2810375 +22.8480312     502.5056     69.54298      1.028     1.57    -10.71178     19.62519     120.5551         7     0.632     0.596  71.48   0
       113     40.1124    619.9755 300.0006320 +22.5766163     785.6265     69.52526      1.581     5.06    -10.94183     19.62519     86.35905        13     1.473     0.745 -60.54   0
       114    488.8628    616.4893 300.1412741 +22.7102350     243.2593     69.64924      1.161     1.93    -9.852904     19.62519     55.30116         5     0.686     0.458  23.14   0
       115    883.3951    614.5186 300.2647951 +22.8279227     339.3078      69.4898      1.065     2.38    -10.70054     19.62519     61.94152         6     0.827     0.435 -20.52   0
       116    445.2924    608.5577 300.1302951 +22.6948948     398.3058     69.56071      1.034     2.46    -10.03643     19.62519     69.56028         5     0.709     0.433  25.72   0
       117    640.5942    605.8293 300.1919724 +22.7526658     181.3467     69.56071      0.993     2.37    -10.01007     19.62519     43.79213         5     0.700     0.459  70.74   0
       118    611.3444    605.2983 300.1830373 +22.7437455     271.5035     69.64924      0.991     2.63    -9.807005     19.62519     51.31394         5     0.715     0.453  75.05   0
       119    489.5312    604.7711 300.1452914 +22.7070739      298.838     69.54298      0.974     2.19     -9.78093     19.62519      58.4648         6     0.725     0.498  86.24   0
       120    923.2169    600.1815 300.2818707 +22.8357364     1669.036     69.54298      1.125     1.95    -10.59373     19.62519     326.8608        18     1.084     0.820 -48.89   0
       121    455.1190    600.0610 300.1361146 +22.6954042     889.2974     69.64924      1.239     2.02    -9.941565     19.62519     146.0453         9     0.732     0.685  48.96   0
       122   1021.3591    598.1602 300.3131333 +22.8645538     416.3002     65.03729      1.334     2.37    -10.34806     19.62519     65.11089         5     0.701     0.458  74.23  16
       123     17.1605    593.9186 300.0019736 +22.5622607     2390.452     69.52526      1.226     2.04    -11.05391     19.62519     396.2982        19     0.976     0.859  84.34   0
       124    318.6098    587.0530 300.0978814 +22.6507347     4453.694     69.56071      1.167     1.96    -10.36859     19.62519     781.1021        27     1.028     0.887  64.11   0
       125    440.9787    584.0314 300.1369255 +22.6865661     4388.838     69.56071      1.216     2.02    -9.946149     19.62519     778.7932        26     1.023     0.912  82.55   0
       126    852.6726    577.7814 300.2671612 +22.8081704     971.8934     69.56071      1.220     1.89    -10.37959     19.62519     163.6607        11     0.794     0.732  51.22   0
       127    937.2201    575.1597 300.2943707 +22.8327461     6069.621     69.59613      1.103     1.79    -10.36932     19.62519     1211.766        27     0.938     0.877  77.58   0
       128    501.5952    573.5491 300.1591945 +22.7017341      5579.23     69.54298      1.114     2.00    -9.742187     19.62519     867.3005        28     1.007     0.919  66.41   0
       129    228.9793    568.9310 300.0759054 +22.6186532     719.4081     69.56071      1.211     2.47    -10.23918     19.62519     119.7463        10     0.889     0.658  56.59   0
       130    476.0116    566.5001 300.1535241 +22.6920413     130.2038     69.47206      1.138     4.31    -9.787628     19.62519     30.04222         6     0.989     0.535  75.91   0
       131    776.0246    561.5472 300.2485518 +22.7805441     374.9312     69.57842      1.100     2.74    -10.10518     19.62519     69.51974         8     0.819     0.643 -84.36   0
       132    433.2536    561.6314 300.1418026 +22.6778241     2116.249     69.57842      1.146     2.04    -9.857517     19.62519     339.2863        17     0.904     0.867  31.32   0
       133    411.5851    560.1308 300.1355491 +22.6708962     533.0967     69.57842      1.176     2.70    -9.883667     19.62519      85.1091         9     0.927     0.640 -87.38   0
       134    165.8970    559.7215 300.0592928 +22.5970886     280.6808     69.66693      1.007     2.12    -10.03503     19.62519     64.88954         8     0.745     0.657 -54.16   0
       135    853.1110    557.1190 300.2740140 +22.8023691     651.1102     69.66693      1.220     2.32    -10.21351     19.62519     133.7584        11     0.865     0.753 -34.27   0
       136    733.8570    554.0109 300.2378638 +22.7657451     545.1759     69.52526      1.355     3.70    -9.951622     19.62519     77.98338        11     1.014     0.939 -11.18   0
       137    549.8625    549.2301 300.1821213 +22.7092267     99439.96     69.57842      1.202     1.95    -9.655664     19.62519     17172.19       125     1.240     1.209 -32.25   0
       138    235.9743    549.3921 300.0844298 +22.6151489     1630.266     69.56071      1.210     2.04    -10.10423     19.62519     291.8391        18     1.040     0.833  87.06   0
       139    801.3511    545.3593 300.2617050 +22.7834853     279.7997     69.56071      1.328     3.23     -10.0614     19.62519     43.75618         5     0.739     0.460  13.70   0
       140    440.5082    529.3892 300.1545380 +22.6707499     1194.363     69.50753      1.164     2.28    -9.734034     19.62519     171.7754        14     0.883     0.788  69.74   0
       141    757.7318    518.5336 300.2568317 +22.7627144     194.4454     69.61384      0.948     4.31    -9.891225     19.62519     39.83896         6     1.297     0.408 -81.99   0
       142    837.4905    515.6179 300.2826332 +22.7857730     874.4391      69.4898      1.105     2.12    -10.04746     19.62519     133.5455        12     0.810     0.792  33.18   0
       143    708.6718    513.3914 300.2432191 +22.7465379     1232.255     69.54298      1.148     2.05    -9.788076     19.62519     187.4062        15     0.885     0.805  29.04   0
       144    952.8234    510.1664 300.3203596 +22.8187540     237.6662     69.57842      1.237     3.77     -10.0991     19.62519     47.15112         6     0.818     0.659 -83.43   0
       145    613.4724    510.3882 300.2145471 +22.7171464     162.7215     69.57842      1.122     3.11     -9.71081     19.62519     42.56507         5     0.912     0.500  47.86   0
       146    496.1847    509.0557 300.1784701 +22.6816079     363.5509     69.54298      1.244     2.64    -9.613929     19.62519      76.6046         9     0.952     0.596 -33.78   0
       147    965.7821    507.1086 300.3253943 +22.8217568     586.5664      69.4898      1.085     2.10    -10.09334     19.62519     123.8621         9     0.899     0.653  46.87   0
       148    951.6015    506.0930 300.3213023 +22.8172181     298.2638     69.47206      0.918     2.87    -10.09824     19.62519     58.96249         7     0.918     0.568  38.04   0
       149    837.6406    505.7072 300.2859006 +22.7829721     1096.929     69.56071      1.359     4.46    -10.03103     19.62519     193.7017        15     1.370     0.772  73.75   0
       150    591.3523    504.0360 300.2097241 +22.7086937     245.7932     69.57842      1.169     3.41    -9.595134     19.62519     46.35038         6     0.943     0.519 -14.34   0
       151    875.7351    500.8189 300.2993630 +22.7929798     2051.521     69.52526      1.104     1.84    -10.08405     19.62519     405.2688        16     0.839     0.806  83.73   0
       152    967.6947    491.1927 300.3311626 +22.8177580     423.9642     69.45432      1.076     2.54    -10.09114     19.62519     91.34392         7     0.885     0.528  66.41   0
       153    107.9458    491.4082 300.0634843 +22.5601179     461.1616     69.56071      1.304     2.58    -9.985594     19.62519     78.73116         8     0.808     0.668  81.84   0
       154    649.2620    470.9020 300.2385217 +22.7165383     352.4352     69.64924      1.269     3.08    -9.709561     19.62519     62.71161         8     0.897     0.609  86.66   0
       155    963.8121    463.8411 300.3388390 +22.8087385     320.8322     69.54298      1.100     2.91    -10.08617     19.62519      55.0316         6     0.786     0.511  43.81   0
       156    709.8981    463.4947 300.2598138 +22.7325809     267.2522     69.73766      1.067     2.73    -9.766171     19.62519      56.2266         6     0.761     0.494   7.36   0
       157    867.3318    459.7576 300.3100853 +22.7786704     502.4712     69.54298      1.205     2.78    -10.02033     19.62519     70.15212         9     0.825     0.744 -11.85   0
       158    851.5349    456.0004 300.3063821 +22.7728598     311.7932     69.54298      1.195     1.80    -9.986161     19.62519     64.60315         6     0.706     0.494  82.34   0
       159    595.8484    454.0679 300.2273589 +22.6956996     1600.484     69.56071      1.240     2.07    -9.612019     19.62519     263.4887        20     1.024     0.858  86.40   0
       160    956.2424    452.5534 300.3401459 +22.8032292     213.2083     69.59613      1.075     2.51    -10.08171     19.62519     46.52504         5     0.694     0.473 -17.59   0
       161   1007.0427    432.9219 300.3623667 +22.8128010     605.1339     69.54298      1.081     2.04    -10.09575     19.62519     130.5943        10     0.852     0.683  58.51   0
       162    878.7594    433.0108 300.3223369 +22.7744111     306.6963     69.56071      1.302     2.84    -9.990325     19.62519     39.91356         7     0.702     0.688 -16.76   0
       163    965.7521    432.0113 300.3497850 +22.8001757     445.7627     69.57842      1.208     2.75    -10.07934     19.62519     69.85324         8     0.816     0.619  46.32   0
       164    706.1765    428.0286 300.2701764 +22.7212832     459.1433     69.56071      1.164     2.08    -9.791659     19.62519     86.48386         9     0.734     0.717 -24.90   0
       165    210.6685    426.4351 300.1165121 +22.5722978     375.4394     69.56071      1.201     3.91    -9.857412     19.62519     50.55313         9     0.902     0.759  31.54   0
       166    272.9041    422.1559 300.1372489 +22.5897334     1708.978     69.57842      1.206     2.06    -9.682656     19.62519     303.4917        16     0.951     0.803 -87.35   0
       167   1005.7912    420.3400 300.3660637 +22.8088114     2167.121     69.52526      1.121     1.96    -10.09674     19.62519     371.4895        19     0.932     0.882  85.33   0
       168    220.0737    416.9393 300.1225197 +22.5723948     3763.591     69.59613      1.281     2.19     -9.84324     19.62519     572.5886        25     1.027     0.956  81.33   0
       169    985.8395    411.4467 300.3627299 +22.8002824     1019.293     69.59613      1.151     1.85    -10.08404     19.62519     160.9123        13     0.903     0.746  47.98   0
       170    360.6923    411.0767 300.1681467 +22.6128763     2365.676      69.7023      1.274     2.12    -9.430531     19.62519      383.079        21     0.997     0.915  66.04   0
       171    604.9431    407.7203 300.2452461 +22.6851208     8955.188     69.59613      1.236     2.15    -9.653406     19.62519     1470.299        37     1.082     0.998  75.86   0
       172    622.8865    407.2942 300.2509716 +22.6903751     436.5364     69.73766      1.902     4.99    -9.663096     19.62519     39.11666         9     1.511     0.465 -53.00   0
       173    938.4879    390.2336 300.3548539 +22.7800096     433.2205     69.52526      1.084     2.57    -9.973016     19.62519      70.6019         8     0.800     0.758 -76.75   0
       174    159.7414    387.9856 300.1131723 +22.5459973     1081.296     69.54298      1.266     2.05    -9.839172     19.62519     160.8304        14     0.919     0.796  88.76   0
       175    545.6317    377.2203 300.2366873 +22.6585923     3275.987     69.56071      1.225     2.06    -9.313135     19.62519     497.3098        25     1.039     0.960  68.78   0
       176    959.2263    377.2959 300.3655228 +22.7825022      577.988     69.52526      1.133     2.42    -9.991496     19.62519     109.1545        12     0.959     0.753  -4.66   0
       177    260.3976    376.8846 300.1480638 +22.5729968     364.6925      69.4898      1.247     4.22    -9.580951     19.62519     48.57588         7     0.778     0.653 -72.42   0
       178    117.6284    370.1837 300.1058677 +22.5282618      320.485     69.56071      1.577     2.91    -9.946526     19.62519     39.30614         5     0.750     0.427 -68.44   0
       179    659.2267    367.2693 300.2752877 +22.6897717     253.7678     69.56071      1.617     3.27    -9.417322     19.62519     35.98248         5     0.826     0.630  48.39   0
       180    749.8439    365.8117 300.3039881 +22.7164988     591.2446     69.56071      1.325     2.45    -9.652761     19.62519     82.82391         9     0.815     0.693 -72.54   0
       181    452.2602    363.4469 300.2121014 +22.6266565     3104.768     69.59613      1.208     2.26    -9.234126     19.62519     423.5974        22     1.005     0.916  70.15   0
       182    941.6442    357.9354 300.3663280 +22.7716754     373.0096     69.54298      1.473     3.34    -9.884537     19.62519     52.32746         6     0.897     0.561 -34.24   0
       183    844.2278    357.7804 300.3360085 +22.7424603     583.5927     69.56071      1.122     2.27    -9.537681     19.62519     107.6515        10     0.809     0.752  26.10   0
       184    436.4913    351.8707 300.2109542 +22.6186080      307.075     69.71999      1.490     4.42     -9.14171     19.62519     38.24006         6     0.988     0.562  18.53   0
       185    339.7730    342.6997 300.1838461 +22.5869857     1314.334     69.50753      1.256     2.14    -9.140237     19.62519     202.9448        14     0.889     0.822  74.43   0
       186     58.3089    340.0779 300.0972151 +22.5018368     349.9211      69.7023      1.116     2.39    -9.677964     19.62519     81.07462         7     0.734     0.587  62.18   0
       187    309.1275    332.1909 300.1777281 +22.5747836     14713.15     69.54298      1.277     2.24    -9.341768     19.62519     2126.579        47     1.182     1.039  74.90   0
       188    843.7584    329.6236 300.3450056 +22.7342314     667.5178     69.59613      1.090     2.18    -9.459443     19.62519       115.86        11     0.875     0.666  68.99   0
       189      5.5555    320.1738 300.0872930 +22.4803063     2394.739     69.57842      1.226     2.30    -9.437668     19.62519     325.3727        18     0.966     0.871  58.58  16
       190    758.7648    318.7173 300.3220604 +22.7056450     236.0954     69.52526      1.137     4.13    -9.465071     19.62519     37.98225         6     0.759     0.641 -81.46   0
       191    183.1387    318.6884 300.1429451 +22.5331369     224.8216     69.63154      1.231     3.07    -9.658213     19.62519     39.33758         5     0.914     0.349  47.89   0
       192    719.4544    311.6960 300.3120931 +22.6918545     909.5616     69.63154      1.166     2.24     -9.41842     19.62519     124.5438        15     0.985     0.824  57.96   0
       193    934.5226    304.3209 300.3815171 +22.7541382     322.0774     69.66693      1.320     2.70    -9.513438     19.62519     45.34364         5     0.709     0.453  67.35   0
       194    381.3844    296.6670 300.2117343 +22.5862482     1124.352     69.56071      1.392     2.74    -9.120903     19.62519     136.7883        15     1.043     0.821  78.81   0
       195    820.2766    288.8881 300.3509133 +22.7154974      394.343     69.68462      1.247     2.54    -9.359838     19.62519     59.17537         8     0.856     0.596  86.79   0
       196    457.1819    275.8215 300.2420832 +22.6029802     576.9119     69.56071      1.264     2.51    -9.276875     19.62519     78.20888         9     0.847     0.638  76.48   0
       197    701.9050    267.6375 300.3209301 +22.6739441     1084.987     69.54298      1.221     2.19    -9.337956     19.62519     175.8513        14     0.943     0.791  86.97   0
       198    963.2211    261.7831 300.4042764 +22.7505055     1525.324     69.54298      1.164     1.98    -9.412236     19.62519     303.2083        14     0.865     0.818 -40.65   0
       199    410.2018    251.7706 300.2352730 +22.5819981     261.0563     69.52526      1.132     3.92     -9.00209     19.62519      48.6757         6     0.910     0.484 -35.91   0
       200     85.2661    245.9560 300.1361432 +22.4829262     666.2371     69.54298      1.465     3.31    -9.530102     19.62519     87.87715        13     0.993     0.919  24.41   0
       201    116.0757    245.8615 300.1457459 +22.4921373     313.2301     69.61384      1.179     3.91    -9.548973     19.62519     46.01471         6     0.918     0.476 -36.05   0
       202    773.6623    228.7531 300.3559077 +22.6842633     242.2677     69.57842      0.997     2.02    -9.385199     19.62519     53.14758         5     0.654     0.470  83.09   0
       203    871.7101    217.9075 300.3899859 +22.7105027     1006.729     69.71999      1.165     2.33    -9.473119     19.62519     171.2688        14     0.928     0.853  80.10   0
       204    290.3182    215.5777 300.2097331 +22.5356818     1042.223     69.52526      1.248     2.50    -8.986876     19.62519     141.1697        14     0.907     0.839  51.83   0
       205    368.2174    210.3436 300.2356581 +22.5575252     490.4549     69.52526      1.275     2.80    -8.850785     19.62519     62.70284        11     0.917     0.780  60.65   0
       206    770.0851    209.8018 300.3609440 +22.6777476      375.322      69.4898      1.328     3.24    -9.389885     19.62519     55.23751         8     0.885     0.727  73.19   0
       207    184.9557    202.6567 300.1811720 +22.5003922     535.9127     69.57842      1.635     3.53    -9.335507     19.62519     68.04224        10     0.987     0.722  40.32   0
       208    722.8237    199.6324 300.3495195 +22.6606743     805.6041     69.56071      1.184     2.37    -9.366933     19.62519      113.692        11     0.848     0.753  49.28   0
       209    787.7910    198.8974 300.3700001 +22.6799161     316.1228     69.45432      1.118     2.42    -9.401492     19.62519     59.44369         6     0.749     0.523  51.78   0
       210    994.2334    191.8484 300.4366477 +22.7396870     363.1435     69.59613      1.018     2.15    -9.149344     19.62519     83.11097         8     0.778     0.615  44.57   0
       211    726.9210    190.8315 300.3536521 +22.6593728     428.4643     69.56071      1.472     2.20    -9.371226     19.62519     55.29827         6     0.724     0.541  48.37   0
       212    647.2769    190.3131 300.3290126 +22.6353734     549.0475     69.68462      1.168     2.62    -9.354607     19.62519      75.3207        10     0.880     0.706  61.45   0
       213    842.7404    181.6626 300.3927185 +22.6914148     730.5165     69.59613      1.156     2.20    -9.442846     19.62519     123.9695        12     0.911     0.689  51.15   0
       214    573.2830    181.8485 300.3087193 +22.6107806     521.1572     69.56071      1.272     2.59     -9.20578     19.62519     69.73932         9     0.871     0.646  68.18   0
       215    854.9315    180.8100 300.3967951 +22.6948193     407.0728     69.56071      1.242     2.53    -9.449841     19.62519     61.64981         8     0.794     0.695  -5.64   0
       216   1015.6951    171.5151 300.4499404 +22.7402645     816.7529     69.73766      1.056     1.95    -9.022799     19.62519     135.0866        10     0.802     0.655 -86.53   0
       217    971.7056    171.1155 300.4363499 +22.7269852     495.5675     69.73766      1.121     2.67    -9.230046     19.62519     76.54745         9     0.883     0.623  66.51   0
       218    205.6225    164.2786 300.2000485 +22.4955743      373.715     69.52526      1.099     3.40    -9.204955     19.62519     55.32201         7     1.004     0.475 -83.79   0
       219     67.6178    159.1496 300.1588294 +22.4527326     1002.279     69.56071      1.219     2.14    -9.344687     19.62519     159.1496        15     0.937     0.841 -14.26   0
       220    890.7498    155.6811 300.4161151 +22.6983191     340.5003     69.57842      1.382     2.41    -9.426586     19.62519     58.51309         5     0.716     0.444  14.63   0
       221    225.0348    152.5651 300.2098832 +22.4980310     2817.225     69.63154      1.300     2.34    -9.190269     19.62519     380.3169        26     1.097     0.956 -70.26   0
       222      9.1008    146.9582 300.1446090 +22.4316904     749.0869     69.54298      1.321     2.66    -9.417049     19.62519     98.27528        11     0.905     0.758  49.76   0
       223    208.4629    143.0406 300.2078219 +22.4903307     312.9831     69.54298      1.444     4.45    -9.191393     19.62519     38.49215         8     0.908     0.658  39.42   0
       224   1023.3697    139.6044 300.4626889 +22.7333869     7402.747     55.75212      1.014     2.34    -8.963132     19.62519     1534.928        24     1.021     0.730  83.74  24
       225    868.8594    133.7583 300.4164041 +22.6854660     1669.865     69.54298      1.219     2.20    -9.366138     19.62519     275.1019        17     0.981     0.814  61.60   0
       226    972.6058    132.5034 300.4491594 +22.7161549     1329.445     69.47206      1.087     2.02    -9.165992     19.62519     209.1547        13     0.838     0.768 -61.81   0
       227    418.3411    129.1883 300.2775836 +22.5492448     295.3724     69.52526      1.435     2.72    -8.996821     19.62519     41.88091         5     0.710     0.459  77.52   0
       228    342.5475    121.3352 300.2565541 +22.5242819     300.3941     69.59613      1.205     3.04    -8.993499     19.62519     45.25866         5     0.742     0.440  67.18   0
       229    108.5844    118.2933 300.1848110 +22.4532915     350.6044      69.4898      1.162     3.30     -9.26115     19.62519     55.53477         6     0.905     0.429 -72.33   0
       230    469.8655    116.4944 300.2977339 +22.5610346     843.4236     69.68462      1.352     2.38    -9.001889     19.62519     124.2632        13     0.917     0.805  24.76   0
       231    243.9574     96.3578 300.2339996 +22.4875694      2802.64     69.66693      1.312     2.38    -9.107188     19.62519     378.9057        23     1.080     0.908  71.56   0
       232     94.5733     95.7266 300.1877778 +22.4426161     487.4451     69.56071      1.469     3.38    -9.270937     19.62519     47.98423         5     0.749     0.441  68.28   0
       233    489.9167     81.6936 300.3152627 +22.5570461      3063.21     69.73766      1.287     2.23    -8.947556     19.62519     457.2086        26     1.096     0.943  59.14   0
       234    375.4823     81.3781 300.2797595 +22.5226771     343.9141     69.52526      1.339     4.44    -9.034147     19.62519     42.95397         8     0.973     0.612  71.30   0
       235    742.3795     71.0867 300.3973179 +22.6295948     460.8433      69.4898      1.508     3.21    -8.665285     19.62519     48.73697         7     0.739     0.661  59.67   0
       236    618.2736     61.7088 300.3617032 +22.5897443     2977.955     69.71999      1.233     2.28    -8.671963     19.62519     422.4721        24     1.034     0.939  70.31   0
       237    393.2637     60.7358 300.2919860 +22.5220764      729.034     69.59613      1.203     2.52    -9.072064     19.62519     107.0932        11     0.860     0.772 -54.70   0
       238    659.3735     58.9498 300.3753975 +22.6012573     379.5201     69.57842      1.157     3.67     -8.49796     19.62519     51.29151         7     0.839     0.625  63.47   0
       239    675.1857     54.9505 300.3816195 +22.6048422     363.0765     69.57842      1.448     2.42    -8.407722     19.62519     47.71808         7     0.797     0.632 -29.05   0
       240    945.4371     52.7901 300.4665453 +22.6851079      236.456     69.56071      1.170     3.50    -9.144879     19.62519     44.21322         5     0.759     0.465 -73.32   0
       241    141.9259     53.1085 300.2163134 +22.4445786     404.6401      69.7023      1.395     3.95    -9.329895     19.62519     60.33056         6     1.107     0.404  26.85   0
       242    713.6400     49.8853 300.3952407 +22.6148988     403.0062     69.54298      1.327     3.44    -8.445149     19.62519     37.03751         5     0.788     0.434  71.93   0
       243    662.3475     46.4443 300.3803797 +22.5985544     1356.817     69.57842      1.270     2.43    -8.374796     19.62519     173.5019        18     1.039     0.884  57.87   0
       244    677.8469     45.5819 300.3854869 +22.6029468     417.8324     69.59613      1.807     5.81    -8.328341     19.62519     50.78866        10     1.546     0.616  53.60   0
       245    748.6509     38.0347 300.4099917 +22.6219734     834.5534     69.57842      1.326     2.97    -8.423936     19.62519       120.53        15     1.045     0.942   7.94   0
       246    687.0619     31.1436 300.3930397 +22.6015566     306.9213     69.61384      1.379     3.37     -8.21395     19.62519     44.25548         7     0.889     0.607 -17.71   0
       247    492.4550     30.8541 300.3325411 +22.5432040     501.8591     69.59613      1.269     2.27    -8.814822     19.62519     88.65082         9     0.809     0.692  65.73   0
       248    396.3811     29.0698 300.3032252 +22.5139167     454.4515     69.57842      1.214     2.38    -9.135409     19.62519     62.98217         7     0.719     0.631  60.34   0
       249    735.3640     19.1813 300.4119661 +22.6125778     455.4937     69.56071      1.650     5.28    -8.279935     19.62519     55.84755         8     1.256     0.650 -33.72   0
       250    167.8699     18.9447 300.2354546 +22.4425477     1836.514     69.57842      1.316     2.24    -9.386168     19.62519     269.2218        17     1.022     0.829  51.90   0
       251    493.1870     15.7959 300.3376520 +22.5390978     233.6673     69.41882      1.664     4.31    -8.763618     19.62519      28.9855         5     0.772     0.687  35.99   0
       252    176.1432   1017.9401 299.9134188 +22.7314644     934.0049     69.63154      7.313    13.04     23.69089     19.62519     40.25539        19     2.979     1.589  88.42  18
       253    168.6223   1008.9960 299.9139940 +22.7266444     1377.205     69.52526      6.446    12.20     20.66872     19.62519     46.01649        30     3.533     1.173 -38.23  18
       254    170.5144   1019.3549 299.9112090 +22.7301793     755.6924     69.54298      3.078     4.20     24.05874     19.62519     32.74706         5     1.050     0.478  -1.39  17
