#   1 NUMBER                 Running object number                                     
#   2 X_IMAGE                Object position along x                                    [pixel]
#   3 Y_IMAGE                Object position along y                                    [pixel]
#   4 ALPHA_J2000            Right ascension of barycenter (J2000)                      [deg]
#   5 DELTA_J2000            Declination of barycenter (J2000)                          [deg]
#   6 FLUX_APER              Flux vector within fixed circular aperture(s)              [count]
#   7 FLUXERR_APER           RMS error vector for aperture flux(es)                     [count]
#   8 FLUX_RADIUS            Fraction-of-light radii                                    [pixel]
#   9 FWHM_IMAGE             FWHM assuming a gaussian core                              [pixel]
#  10 BACKGROUND             Background at centroid position                            [count]
#  11 THRESHOLD              Detection threshold above background                       [count]
#  12 FLUX_MAX               Peak flux above background                                 [count]
#  13 ISOAREA_IMAGE          Isophotal area above Analysis threshold                    [pixel**2]
#  14 A_IMAGE                Profile RMS along major axis                               [pixel]
#  15 B_IMAGE                Profile RMS along minor axis                               [pixel]
#  16 THETA_IMAGE            Position angle (CCW/x)                                     [deg]
#  17 FLAGS                  Extraction flags                                          
         1    163.8348      7.5851 300.2353939 +22.4424009     1935.384     69.22495      1.362     2.45    -9.439831     19.53046     229.3909        23     1.112     0.983  63.06  16
         2    731.6393      8.1294 300.4119219 +22.6126608     211.8866     69.17203      1.107     1.79    -8.258022     19.53046     56.34718         5     0.690     0.425 -65.78   0
         3    726.3294   1017.0073 300.0824469 +22.9008297     255.5295     69.18967      1.573     4.12    -13.05405     19.53046     39.78667         5     1.082     0.448 -26.10  16
         4     68.7614    924.7273 299.9079313 +22.6769602      2065.46     69.18967     23.189    43.10    -7.559217     19.53046     49.81999       334     8.158     6.320 -54.39   3
         5     73.1100    954.9787 299.8994362 +22.6869340     2966.853     69.15438     30.682   103.59     0.414709     19.53046     78.08994      1778    29.351    10.144 -89.22  19
         6    193.9816    989.3505 299.9258043 +22.7330895     1227.014     69.22495      6.889     9.17       17.856     19.53046     46.00082        19     2.263     1.038  67.76   3
         7    190.2028    988.4058 299.9249374 +22.7316838     1200.605      69.0484      6.232    10.46      17.5309     19.53046     64.46144        28     2.861     1.065  67.68   3
         8    626.5344    990.2804 300.0600671 +22.8632177     4032.757     69.33066      1.174     2.06     -13.0841     19.53046     592.0214        27     1.041     0.975  59.71   2
         9    632.1376    987.9861 300.0625588 +22.8642411     4487.593     69.18967      1.221     2.01    -13.09049     19.53046     756.4526        25     0.984     0.923  79.18   2
        10    726.8263    990.8266 300.0911263 +22.8934680     293.2993     69.18967      1.102     2.60    -13.00942     19.53046     64.86596         6     0.836     0.553  63.21   0
        11    233.3490    978.9954 299.9414117 +22.7419454     3918.269     69.20731      7.186    28.44     9.597417     19.53046     96.54892       283     7.582     3.503  63.89  18
        12    159.5412    984.4262 299.9167041 +22.7213340     927.0915     69.22495      3.015     5.17     16.66346     19.53046     36.54825         7     1.539     0.490  -2.58   0
        13     56.5712    962.7277 299.8917765 +22.6841858     2317.697     69.22495     26.016    34.15    -1.256475     19.53046     55.94816       220     9.175     3.528 -44.56  19
        14    191.6927   1006.8483 299.9193963 +22.7374161      716.475      69.2602      3.554     8.44     25.39789     19.53046     36.48438        12     1.820     1.093 -84.91   0
        15    157.0890    974.5491 299.9191574 +22.7177672     655.4918     69.24258      5.538     7.47     13.18859     19.53046     37.96461         9     1.545     1.012 -89.17   0
        16    919.7082    973.8257 300.1567757 +22.9464473     501.2929     69.17203      1.477     3.02    -13.50057     19.53046     54.80314         8     0.769     0.696 -64.35   0
        17     37.9174    969.3749 299.8838190 +22.6804861     640.3521     69.20731      5.028     4.75    -5.140451     19.53046     33.87267         5     1.008     0.636 -74.79   1
        18    164.3615   1001.1672 299.9127520 +22.7275788     1498.519      69.2602      5.453    10.58     23.19535     19.53046     50.61634        18     2.617     1.192  44.07   2
        19    348.2374   1001.3738 299.9698488 +22.7828597     152.8979     69.24258      1.154     3.45    -12.83524     19.53046     30.33635         5     0.747     0.461  14.49   0
        20    167.8546    996.0099 299.9155166 +22.7271503     1069.736     69.22495      8.424     9.61     21.18817     19.53046     27.64791        12     3.053     0.843  67.64   2
        21    123.4868    958.7679 299.9138533 +22.7031522      837.337     69.18967      4.272     4.76     7.011028     19.53046     26.26217         5     1.083     0.593 -14.61   2
        22    204.0201    997.5391 299.9262585 +22.7384511     964.7437     69.17203      4.487     6.28     21.48691     19.53046     40.49452        14     1.344     1.077 -88.70   3
        23    135.0020    959.9891 299.9170337 +22.7069609     639.8519      69.0484      4.086     4.99     7.397125     19.53046     31.04373         5     1.105     0.636 -24.90   3
        24    139.2917    959.4800 299.9185323 +22.7081035     702.5863     69.33066      3.400     4.34     7.011028     19.53046     29.29983         5     0.937     0.573 -40.97   3
        25    214.9313    980.2561 299.9352764 +22.7367754     976.5654     69.24258      6.919     7.74     13.43473     19.53046     46.41461        11     1.965     0.853  80.49   3
        26    644.9105    957.3206 300.0765198 +22.8592775     3409.856     69.34827      1.261     2.24    -13.04537     19.53046     507.4874        26     1.022     0.984  66.16   0
        27    223.5775    971.5817 299.9407877 +22.7368861      1741.24     69.22495      5.467    15.00     9.570791     19.53046     48.29427        53     3.618     1.729   4.67   3
        28    221.9074    988.4113 299.9347899 +22.7412076     1193.125     69.17203      5.789     9.12     16.78391     19.53046     36.69468        12     4.240     0.547  21.27   3
        29    524.1550    951.6299 300.0407766 +22.8214072     201.9334      69.2602      1.175     3.50    -12.98405     19.53046     38.82414         5     1.020     0.347 -83.87   0
        30    100.4489   1020.2595 299.8866776 +22.7138495     3464.757     68.03332      6.642    28.30     30.56297     19.53046     83.09409       223     6.371     3.490  25.60  27
        31    236.3208    951.5154 299.9512808 +22.7349621    -164.3075     69.36587      0.947     3.38    -1.614091     19.53046     50.82854         5     0.748     0.443  22.53   0
        32    796.6887    950.9379 300.1258803 +22.9029813      269.863     69.29544      1.224     3.73    -13.22531     19.53046     34.98093         5     0.830     0.482  40.07   0
        33    553.3981    948.1839 300.0510010 +22.8291953     816.2007     69.10141      1.177     2.21    -13.02153     19.53046     126.5757        10     0.815     0.715  63.99   0
        34    447.2017    944.6116 300.0191131 +22.7962970     549.1844      69.0484      1.254     2.16    -12.85613     19.53046     92.22765         9     0.815     0.645  83.22   0
        35    377.9280    942.7160 299.9981789 +22.7749581     3245.986     69.33066      1.196     1.93    -12.58957     19.53046     553.4587        23     0.948     0.937  89.71   0
        36    103.0911    942.0459 299.9129594 +22.6922344     1294.089     69.20731     11.499    11.94    0.4473718     19.53046     43.99406        27     2.645     1.501 -28.15   3
        37    211.2612    991.4741 299.9304836 +22.7388879     1903.017      69.2602     10.628    15.30     18.34613     19.53046     52.63501        56     3.092     2.106 -50.07   3
        38    211.1863    985.9794 299.9322491 +22.7372908     1764.506     69.18967      9.558    10.68     16.17039     19.53046     52.93581        39     2.037     1.878   0.36   3
        39     77.9654   1021.9312 299.8791488 +22.7075737     3216.839     62.38018      9.734    34.10     21.79813     19.53046     80.60693       304     8.003     4.034   3.94  27
        40    410.4614    929.5020 300.0126003 +22.7809358     243.1543     69.29544      1.104     3.10    -12.73967     19.53046      49.2011         5     0.929     0.495  -5.15   0
        41    124.5903   1011.8842 299.8969048 +22.7187025     946.0397     69.17203      3.393     8.53     27.47419     19.53046     39.96151        12     1.698     1.199 -46.19   2
        42    924.1884    921.3530 300.1752547 +22.9327290     1028.395     69.24258      1.141     2.22    -13.08292     19.53046     170.2548        13     0.870     0.789  79.74   0
        43    712.9999    910.0837 300.1131036 +22.8661536     400.5605     69.10141      1.416     5.64    -12.83067     19.53046     43.25856        11     1.601     0.559  73.43   0
        44    540.2508    995.1022 300.0316342 +22.8387052      1082.29     69.29544      1.163     2.07     -13.0465     19.53046     201.3367        15     0.895     0.815  75.58   0
        45    747.7025    904.2872 300.1258014 +22.8749002     487.7074     69.38346      1.213     2.43    -12.74382     19.53046     67.05789         8     0.834     0.610   3.63   0
        46    769.9883    898.0447 300.1347770 +22.8797936      5562.78     69.22495      1.198     1.91    -12.75671     19.53046     1059.375        26     0.980     0.907 -82.61   0
        47    816.0382    897.7588 300.1492204 +22.8935233     272.9577     69.31306      1.428     3.52     -12.8552     19.53046     48.88021         7     0.929     0.634  -9.08   0
        48    197.8335    986.8673 299.9278098 +22.7335348     955.5776     69.22495     10.755    13.52     16.92175     19.53046     32.06123        18     2.662     1.910  31.44   3
        49    822.0105    885.2463 300.1551541 +22.8917232     301.3189     69.24258      1.487     2.56    -12.81575     19.53046     42.05682         5     0.776     0.475  56.44   0
        50    778.6066    880.0457 300.1433203 +22.8772130     690.9777     69.24258      1.078     2.26    -12.67763     19.53046     109.5536        11     0.842     0.756  69.32   0
        51    816.6677    873.6162 300.1572738 +22.8867827     424.7548     69.22495      1.030     2.10    -12.76102     19.53046     69.71469         5     0.676     0.457  19.49   0
        52    864.9652    864.6671 300.1752402 +22.8986976     172.5664     69.22495      1.068     3.06    -12.87681     19.53046     42.59311         6     0.798     0.606 -87.52   0
        53    716.2883    863.8323 300.1291803 +22.8538680     281.1512     69.18967      1.204     2.33     -12.5692     19.53046     59.98403         6     0.708     0.601  29.68   0
        54    727.5797    860.9892 300.1336231 +22.8564390     323.5673     69.20731      1.310     1.64    -12.47868     19.53046     64.88383         6     0.700     0.492 -85.79   0
        55    429.0474    860.3994 300.0408713 +22.7666984     1872.739     69.22495      1.105     1.90    -12.23155     19.53046     351.3463        16     0.936     0.837 -56.68   0
        56    154.4082    846.0160 299.9601540 +22.6801259     422.1533     69.15438      1.358     3.52    -11.10333     19.53046     52.83526         7     0.849     0.572  63.52   0
        57    131.4168    843.2643 299.9539049 +22.6724332     650.5082     69.20731      1.107     2.27    -11.17261     19.53046     126.1871        11     0.840     0.745 -14.49   0
        58    186.9611    994.0000 299.9221087 +22.7323132     614.3356     69.20731      5.093     6.10     20.07055     19.53046     38.20153         7     2.213     0.473  -1.54   3
        59   1003.0616    831.8191 300.2289908 +22.9306695      1011.51     69.20731      1.183     2.19    -12.19016     19.53046     194.0836        12     0.876     0.746  68.18   0
        60    957.4318    830.5131 300.2151844 +22.9166158     1032.188     69.18967      1.094     2.08    -12.40448     19.53046     168.5032        15     1.008     0.776  79.75   0
        61    663.0466    830.2335 300.1235288 +22.8282558     403.0423      69.2602      1.649     4.12    -12.44701     19.53046     33.75061         7     1.140     0.425 -56.43   0
        62    740.7936    824.2894 300.1496815 +22.8498696      303.244     69.13673      1.164     2.01    -12.29296     19.53046     69.92805         6     0.705     0.524 -45.69   0
        63    608.9734    818.4842 300.1105122 +22.8086634     2280.355     69.20731      1.077     1.76    -12.16186     19.53046     428.5213        17     0.871     0.824 -13.03   0
        64    411.2411    815.4572 300.0499538 +22.7484648     170.2114     69.20731      0.969     2.51    -11.76147     19.53046     50.59476         6     0.678     0.630 -55.52   0
        65    159.2377    812.4922 299.9725611 +22.6719667     782.8074     69.22495      1.302     2.90    -11.62638     19.53046     96.47722        14     1.067     0.793 -84.66   0
        66    629.6237    811.0681 300.1193554 +22.8127302     304.9718     69.20731      0.963     2.18    -12.20456     19.53046     67.32619         7     0.779     0.564  58.65   0
        67   1001.8870    798.2803 300.2395368 +22.9206856     605.6351     69.38346      1.165     2.18    -12.21247     19.53046     105.0702        10     0.852     0.682  41.58   0
        68    784.9726    798.0953 300.1719695 +22.8556000     1979.972     69.13673      1.163     1.89    -12.17437     19.53046     417.2303        18     0.915     0.819 -88.71   0
        69    501.9683    790.7936 300.0862091 +22.7686152     322.3125     69.22495      1.040     1.83    -12.11426     19.53046     69.57671         6     0.673     0.534  40.49   0
        70    148.5640    788.7822 299.9769568 +22.6619651     496.4056     69.22495      1.123     2.54    -11.82139     19.53046     84.24709        10     0.948     0.659 -51.00   0
        71    298.1403    780.8766 300.0260248 +22.7046020     26439.56     69.27782      1.212     1.95    -11.74824     19.53046     4778.882        56     1.103     1.052  75.57   0
        72    555.9473    779.7587 300.1066009 +22.7816441     915.9615     69.22495      1.154     1.89    -12.07138     19.53046     178.9082        11     0.936     0.653  71.62   0
        73    968.6431    778.7654 300.2355168 +22.9051165     355.5771     69.27782      1.065     2.23    -12.11113     19.53046     80.56624         8     0.833     0.596  68.78   0
        74    584.8891    775.6759 300.1169394 +22.7891549     352.3105     69.34827      1.105     1.93    -11.94597     19.53046     94.43971         7     0.696     0.613  23.82   0
        75    596.0219    774.0190 300.1209447 +22.7920191     288.8781     69.22495      1.084     1.77    -11.89664     19.53046     56.14632         5     0.589     0.548  -0.51   0
        76    738.7697    760.6262 300.1697618 +22.8309892     349.3964     69.22495      1.002     1.85    -11.73971     19.53046     84.78726         7     0.702     0.587 -23.54   0
        77    347.8469    758.1174 300.0488858 +22.7129936     15321.46     69.22495      1.203     1.90    -11.57428     19.53046     2848.453        46     1.076     1.030  73.87   0
        78    362.0969    758.6505 300.0531447 +22.7174231     1035.912     69.29544      1.102     1.91    -11.55923     19.53046     192.7049        12     0.854     0.707  85.66   0
        79    870.7374    753.7075 300.2131402 +22.8685715     1387.763     69.33066      1.112     1.83    -11.80322     19.53046     280.0452        14     0.839     0.792  49.19   0
        80    628.6160    749.8620 300.1389517 +22.7948635     527.1994     69.18967      1.204     2.09    -11.62025     19.53046     92.34052         8     0.789     0.641 -36.70   0
        81    464.8649    750.3162 300.0878283 +22.7458702     248.9938     69.33066      1.071     2.15     -11.5951     19.53046     58.72459         5     0.801     0.511  51.44   0
        82    230.4478    749.9886 300.0150247 +22.6754256     410.7901     69.24258      0.992     2.29    -11.73585     19.53046      68.9623         7     0.698     0.628  75.76   0
        83    475.9141    744.7947 300.0930625 +22.7476012     386.8926     69.15438      1.076     2.15    -11.56582     19.53046     93.81151         8     0.870     0.553  60.98   0
        84    876.6995    741.7299 300.2188948 +22.8669196      279.152     69.33066      1.242     2.06    -11.70568     19.53046     52.47479         5     0.699     0.439  75.77   0
        85    377.8385    740.9712 300.0637912 +22.7170761     305.1613     69.24258      1.197     2.82    -11.49911     19.53046     42.55048         5     0.649     0.566  -2.66   0
        86     63.6798    738.9946 299.9667765 +22.6222059     276.0187     69.15438      1.521     4.54    -11.93032     19.53046     33.59912         5     1.215     0.483 -61.70   0
        87    228.1637    734.2379 300.0194371 +22.6702235     241.6571     69.29544      1.483     3.89    -11.69113     19.53046     39.56833         5     0.922     0.470  47.02   0
        88    520.6929    722.7324 300.1141745 +22.7547051     326.9012     69.36587      0.864     1.71     -11.3733     19.53046     66.39053         5     0.672     0.436  72.86   0
        89    937.1992    719.0378 300.2451386 +22.8785380     2159.775     69.22495      1.097     1.83    -11.69293     19.53046     448.3155        16     0.908     0.731  86.14   0
        90    542.7040    720.1860 300.1218542 +22.7605773     547.0561     69.15438      1.088     1.87    -11.34363     19.53046     104.8501         7     0.675     0.604 -83.07   0
        91    925.7552    710.4843 300.2443519 +22.8726513     817.4351     69.20731      1.013     2.02    -11.62548     19.53046     144.6946        11     0.800     0.694 -75.08   0
        92    288.7101    704.5958 300.0479007 +22.6798953     302.1402     69.13673      1.130     2.99    -11.38557     19.53046     63.63377         8     0.813     0.743  11.90   0
        93    751.9006    701.8783 300.1929599 +22.8180613     1149.108     69.34827      1.118     1.71    -11.23225     19.53046      259.646        11     0.821     0.669  12.79   0
        94    956.7975    700.5025 300.2572783 +22.8790883     820.8827     69.13673      1.093     1.82    -11.70707     19.53046     160.2527        13     0.903     0.798  69.60   0
        95    137.6828    688.4341 300.0062094 +22.6299290     312.9377     69.18967      1.095     3.51    -11.53487     19.53046     46.24963         9     0.969     0.669  28.85   0
        96    870.4348    678.7368 300.2374281 +22.8469517     72722.48     69.22495      1.100     1.86    -11.48108     19.53046     12546.19       102     1.198     1.086  71.27   0
        97   1017.4146    680.3680 300.2827327 +22.8914704     517.4291     69.22495      0.998     2.16    -11.83775     19.53046     110.0721         7     0.824     0.490 -85.72   0
        98    722.9737    678.8208 300.1914452 +22.8027682     289.9623     69.20731      1.178     2.89    -11.02022     19.53046     62.49067         6     0.851     0.533 -89.39   0
        99    903.1886    671.5597 300.2499734 +22.8547079     92.27199     69.22495      0.988     2.27    -11.47915     19.53046     49.76715         5     0.704     0.441 -24.56   0
       100    556.7336    667.6251 300.1433131 +22.7497016     746.2955     69.20731      1.088     2.11    -10.89635     19.53046     154.6526        11     0.821     0.752  80.52   0
       101    737.9097    664.9721 300.2006016 +22.8032704     4444.536     69.20731      1.158     1.84    -10.98199     19.53046     920.1663        26     0.975     0.879  63.37   0
       102    239.6385    660.2726 300.0470547 +22.6524558     2546.899     69.18967      1.205     2.14    -11.04877     19.53046     344.0403        20     0.994     0.884  76.94   0
       103    321.4611    658.2407 300.0731573 +22.6764273     409.9487     69.20731      1.003     2.20    -11.08083     19.53046     89.43865         7     0.813     0.498 -89.65   0
       104    529.7308    653.7291 300.1394251 +22.7376144     261.4842      69.2602      1.007     1.94    -10.75171     19.53046     64.62975         6     0.689     0.527  45.69   0
       105    521.4278    645.8303 300.1394086 +22.7328571     1573.745     69.22495      1.156     1.98    -10.67323     19.53046     258.3282        18     1.002     0.768  80.06   0
       106    511.7993    639.6021 300.1384363 +22.7281816      732.239     69.01303      1.115     2.24    -10.61538     19.53046      118.411        11     0.957     0.683  78.40   0
       107    905.0585    637.2191 300.2617219 +22.8454047     226.9323     69.20731      1.062     2.36    -11.29079     19.53046     54.53066         5     0.788     0.444  48.47   0
       108    174.7915    635.8036 300.0348520 +22.6259758     347.1885      69.0484      1.226     2.21    -11.13367     19.53046     58.69305         6     0.720     0.533  54.99   0
       109    189.2867    633.9993 300.0399438 +22.6298089     250.4836     69.11907      1.247     3.58    -11.09917     19.53046     50.29655         6     0.982     0.418  78.85   0
       110    436.5916    629.4226 300.1183403 +22.7027010     890.7078     69.22495      1.102     2.28    -10.87471     19.53046     123.9545        12     0.966     0.737  61.72   0
       111    214.8186    631.3257 300.0487491 +22.6367048     298.5003     69.22495      0.972     1.57    -11.04276     19.53046      61.6192         5     0.663     0.430 -21.72   0
       112    958.2126    630.2198 300.2805726 +22.8593234     208.6185     69.18967      1.111     3.10    -11.46987     19.53046     47.36896         5     0.818     0.475  45.26   0
       113     90.5373    624.4404 300.0123645 +22.5974275     9743.787     69.20731      1.205     2.13    -11.27775     19.53046     1286.247        40     1.097     1.047  84.98   0
       114   1011.9391    626.1694 300.2986470 +22.8742586     344.3427      69.2602      1.065     2.15    -11.86355     19.53046     73.20888         5     0.616     0.546  82.65   0
       115    521.4872    624.8138 300.1462593 +22.7268431     523.1314     69.17203      1.173     2.39     -10.4497     19.53046     87.87257         9     0.888     0.657  62.06   0
       116     11.0957    625.4174 299.9873700 +22.5738589     311.2563     69.13673      1.429     2.61    -11.37995     19.53046     54.86011         5     0.796     0.475  55.40   0
       117    939.3221    610.6833 300.2810327 +22.8480502     547.0291     69.33067      1.033     2.05     -11.2444     19.53046     87.30913         8     0.786     0.589  84.00   0
       118     36.6738    608.5431 300.0007991 +22.5766999     730.0578      69.2602      1.665     3.98    -11.17815     19.53046     77.31169        13     1.305     0.666 -85.53   0
       119    879.4290    603.3776 300.2647328 +22.8280029     419.3032     69.22495      1.106     2.91    -11.12003     19.53046     57.16759         6     0.838     0.486  81.92   0
       120    875.7714    602.5627 300.2638574 +22.8266727     473.2774     69.24258      1.883     3.41     -11.1193     19.53046     29.63223         5     0.729     0.465  17.81   1
       121    441.4580    597.8154 300.1301287 +22.6950907     320.1417     69.20731      1.091     3.02    -10.63794     19.53046     55.05259         6     0.773     0.498 -87.69   0
       122    589.3752    595.8660 300.1768040 +22.7388933     230.7865     69.20731      1.081     3.67    -10.54969     19.53046     43.23219         7     0.958     0.629  73.64   0
       123    636.5366    594.6401 300.1918885 +22.7526829     254.0134     69.20731      1.081     2.78    -10.69084     19.53046     42.91633         5     0.691     0.482  75.00   0
       124    485.9467    593.6812 300.1453172 +22.7072483      450.493     69.24258      1.206     3.52    -10.24119     19.53046     65.23558         6     0.965     0.465  28.92   0
       125    451.2725    588.9005 300.1360803 +22.6954761     809.0619     69.38346      1.174     2.38    -10.47998     19.53046       135.41        11     0.911     0.688  69.66   0
       126    919.4009    588.7094 300.2819637 +22.8357679     1522.986     69.11907      1.054     1.94    -11.09968     19.53046     276.9566        16     0.884     0.820  77.86   0
       127   1017.4887    586.7895 300.3131798 +22.8646063     409.2615     69.17203      1.074     1.92    -11.65251     19.53046     65.48628         5     0.673     0.433  61.02   0
       128     13.2999    582.5888 300.0019746 +22.5622416     2508.846     69.13673      1.242     2.15    -11.13527     19.53046     327.2179        22     1.062     0.901 -88.29   0
       129    314.7105    575.6760 300.0978958 +22.6507152     4462.688     69.38346      1.131     1.98    -10.96213     19.53046     749.4522        27     1.040     0.934  68.01   0
       130    437.1034    572.7051 300.1369351 +22.6865783     4467.658     69.40105      1.153     2.08    -10.46294     19.53046     730.8529        27     1.027     0.910  86.09   0
       131    683.3539    569.1296 300.2147620 +22.7593947    -5.864349     69.20731      0.972     3.37    -10.53626     19.53046     29.59858         5     0.767     0.429  70.60   0
       132    848.7814    566.3650 300.2672093 +22.8081862     818.8234     69.22495      1.071     1.90    -10.99651     19.53046     147.7568         9     0.787     0.610  68.49   0
       133    933.3112    563.8256 300.2943894 +22.8327872     5976.221     69.17203      1.104     1.82      -11.062     19.53046     1185.535        26     0.931     0.885  72.79   0
       134    497.7182    562.2188 300.1592065 +22.7017484      5729.35     69.20731      1.170     1.91     -10.1193     19.53046     955.0863        28     1.026     0.925  76.27   0
       135    225.1069    557.8294 300.0758349 +22.6187106     692.5333     69.17203      1.266     2.37    -10.97448     19.53046     109.2965        10     0.841     0.727 -63.03   0
       136    772.0168    550.5088 300.2484374 +22.7806248     379.5112     69.15438      1.086     2.19    -10.81636     19.53046     60.60045         8     0.760     0.652  88.76   0
       137    429.3330    550.3661 300.1417771 +22.6778365     2106.146     69.22495      1.132     2.09    -10.30146     19.53046     302.8605        19     0.953     0.848  66.24   0
       138    407.7661    548.8438 300.1355615 +22.6709308     636.6003     69.27782      1.261     2.75    -10.42255     19.53046     86.93598        10     0.873     0.723  82.94   0
       139    161.9238    548.1708 300.0593344 +22.5969803     289.5846     69.20731      1.240     2.72    -11.06817     19.53046     49.46611         8     0.793     0.665  40.36   0
       140    849.1069    545.6415 300.2740460 +22.8023308     736.7424     69.24258      1.324     2.55    -10.95031     19.53046     127.5471        13     0.991     0.828 -30.54   0
       141    545.9927    537.9827 300.1821094 +22.7092677     100516.5     69.17203      1.237     1.92    -10.00364     19.53046      18808.8       140     1.270     1.250 -77.90   0
       142    729.4919    542.4781 300.2377969 +22.7655721     409.0561     69.36587      1.156     4.40    -10.72701     19.53046     61.25061         8     1.152     0.497  87.24   0
       143    232.1046    537.9681 300.0844644 +22.6151125     1748.284     69.20731      1.229     1.99    -10.96401     19.53046     314.3371        19     0.988     0.918  87.22   0
       144    797.6474    533.9255 300.2618141 +22.7835434     259.4943     69.22495      1.156     3.39    -10.75662     19.53046     37.77361         5     0.749     0.444  73.06   0
       145    436.5477    518.2737 300.1544504 +22.6707894     1168.896     69.24258      1.112     1.96    -10.09913     19.53046     193.2288        15     0.941     0.746  58.57   0
       146    833.5724    504.3849 300.2826104 +22.7858236     835.8653     69.24258      1.079     1.99    -10.70367     19.53046     133.2707        11     0.796     0.737  62.74   0
       147    704.8053    502.0407 300.2432460 +22.7465588      1245.55     69.24258      1.201     1.91    -10.44598     19.53046     230.6552        15     0.895     0.822  25.90   0
       148    491.9897    497.9767 300.1782988 +22.6815895     232.6918     69.22495      1.086     3.26    -9.783832     19.53046     44.33778         5     0.643     0.584 -89.81   0
       149    961.9100    495.7861 300.3254190 +22.8218052     577.6455     69.17203      1.161     2.24    -10.98278     19.53046     113.5908        11     0.820     0.799  33.36   0
       150    947.6079    495.1687 300.3211592 +22.8173431     463.4459     69.22495      1.580     3.49    -10.93611     19.53046     66.35439         8     0.983     0.743 -43.74   0
       151    833.8307    494.4144 300.2859306 +22.7830366     1184.674     69.22495      1.293     4.04    -10.65507     19.53046     179.6919        15     1.345     0.662  81.03   0
       152    586.4713    492.5992 300.2094586 +22.7083744     324.2579     69.13673      1.192     2.80    -9.892936     19.53046     57.28276         6     1.030     0.475  -7.60   0
       153    425.5865    490.8926 300.1599361 +22.6596429     264.5756     69.15438      1.227     4.69    -10.02732     19.53046     39.91658         9     0.872     0.822 -68.96   0
       154    872.0026    489.4810 300.2994329 +22.7930571     2075.306     69.13673      1.068     1.80    -10.71154     19.53046     402.8498        18     0.924     0.825  48.43   0
       155    963.6143    479.8025 300.3311438 +22.8177225     358.5312     69.06607      1.062     2.71     -10.9669     19.53046     63.72761         5     0.712     0.460  73.12   0
       156    104.0235    479.8899 300.0635265 +22.5600196     427.8045     69.15438      1.281     3.01    -11.05533     19.53046     81.94523        10     0.916     0.817 -86.25   0
       157    645.3307    459.8915 300.2384141 +22.7166265     377.2507     69.34827      1.233     3.30    -9.997375     19.53046     60.27479         7     0.827     0.627  60.47   0
       158    959.9800    452.2771 300.3389530 +22.8087233     224.0098     69.22495      1.037     2.01    -10.83031     19.53046      58.3375         7     0.670     0.639  11.00   0
       159    706.0426    452.2648 300.2598030 +22.7326330     507.9369     69.20731      1.266     2.83    -10.24252     19.53046     75.50757         7     0.844     0.608  20.87   0
       160    863.4103    448.6189 300.3100296 +22.7787419     538.8588     69.18967      1.084     2.23    -10.55243     19.53046     75.32124         9     0.783     0.709 -63.75   0
       161    847.3597    444.9539 300.3062167 +22.7728798     358.1498     69.27782      1.095     1.88    -10.51811     19.53046     67.72203         7     0.657     0.640  27.22   0
       162    591.9661    442.9427 300.2273013 +22.6957626     1547.434     69.24258      1.204     1.95    -9.654177     19.53046     294.7246        12     0.853     0.721  85.69   0
       163    952.5890    441.3987 300.3401819 +22.8033829     261.9784      69.0484      1.116     3.14    -10.75161     19.53046     49.89072         5     0.743     0.444 -20.37   0
       164   1003.2234    421.9481 300.3622932 +22.8129587      696.556     69.24258      1.099     1.85    -10.90382     19.53046     124.3246         9     0.830     0.615  63.36   0
       165    961.6530    420.5966 300.3497659 +22.8001192     554.9285     69.22495      1.151     2.54    -10.70557     19.53046     75.59191         8     0.797     0.664 -79.22   0
       166    702.6056    416.7154 300.2702797 +22.7213915     501.3798     69.15438      1.130     2.27    -10.02807     19.53046     83.18762         9     0.821     0.681  78.37   0
       167    268.9156    410.8078 300.1372182 +22.5896686     1758.257     69.15438      1.205     2.14    -10.28731     19.53046     299.8725        18     0.960     0.844  72.48   0
       168   1001.9033    409.0945 300.3660565 +22.8088686     2191.687     69.40105      1.149     1.87    -10.84663     19.53046     423.2358        19     0.964     0.801  71.10   0
       169    216.1159    405.6157 300.1224887 +22.5723411     3626.792     69.18967      1.195     2.03    -10.25943     19.53046     582.0728        26     1.003     0.946 -75.21   0
       170    356.8618    399.8006 300.1681444 +22.6128855     2438.632     69.18967      1.231     2.00    -9.889519     19.53046      404.308        24     1.105     0.877  78.10   0
       171    981.9941    400.1880 300.3627392 +22.8003456     1011.803     69.10141      1.238     2.06    -10.69549     19.53046     160.0542        11     0.846     0.714  48.88   0
       172    601.0343    396.4724 300.2452187 +22.6851350     9056.961     69.22495      1.219     2.06    -9.385457     19.53046     1360.532        37     1.113     0.964  72.85   0
       173    797.7192    386.5646 300.3097094 +22.7412297     165.8294     69.17203      1.087     3.98    -10.22218     19.53046     32.67578         6     1.008     0.449  88.95   0
       174    934.6691    378.7738 300.3549344 +22.7800160     534.3658     69.22495      1.373     2.82    -10.27183     19.53046     67.71407         9     1.001     0.593  75.43   0
       175    155.6828    376.7542 300.1130767 +22.5459306     1029.371     69.18967      1.388     2.40    -10.17915     19.53046     135.3311        15     1.074     0.783  77.43   0
       176    955.2515    366.0157 300.3654965 +22.7825134     528.3727     69.22495      1.136     2.49    -10.31998     19.53046     103.4786         9     0.910     0.634 -76.61   0
       177    541.7250    365.8455 300.2366985 +22.6585615     3248.777     69.20731      1.214     2.05    -9.234347     19.53046     526.4692        23     1.007     0.898  86.20   0
       178    256.4390    364.9471 300.1482316 +22.5727645     367.9262     69.22495      1.456     3.63    -9.845912     19.53046     48.95084         9     0.975     0.820  49.84   0
       179    114.4114    358.9517 300.1060317 +22.5284413     308.0702     69.24258      1.341     3.67    -10.22039     19.53046     41.05739         6     0.811     0.478  79.86   0
       180    655.2232    356.0915 300.2752084 +22.6897768     326.8922     69.15438      1.540     2.88    -9.591825     19.53046     47.04443         5     0.924     0.328 -46.04   0
       181    745.8803    354.8376 300.3038581 +22.7165818     614.3685     69.18967      1.272     2.45    -10.04184     19.53046     86.92757        10     0.846     0.727  70.96   0
       182    448.4008    352.1281 300.2121053 +22.6266461     3137.288     69.11907      1.256     2.17    -9.585871     19.53046     441.3091        27     1.194     0.968  40.25   0
       183    840.3015    346.4421 300.3360113 +22.7424568     695.9406     69.20731      1.157     2.27    -10.02169     19.53046     107.1114        11     0.875     0.721  86.97   0
       184    937.3588    346.4202 300.3662797 +22.7715219     378.9528      69.2602      1.289     2.82    -10.08064     19.53046     46.00775         6     0.812     0.505 -43.80   0
       185    433.0415    340.7438 300.2110222 +22.6187725     294.6085     69.20731      1.424     3.19    -9.542804     19.53046     41.00772         5     0.961     0.560  72.47   0
       186    335.9353    331.4295 300.1838363 +22.5869832     1134.656     69.24258      1.166     2.11    -9.581192     19.53046     178.5789        12     0.897     0.701  88.40   0
       187     54.3208    328.6072 300.0972138 +22.5017073      492.273     69.15438      1.231     2.54    -10.09592     19.53046     81.52279        11     0.960     0.713  67.11   0
       188    305.2096    320.8943 300.1777004 +22.5747454     14559.88     69.17203      1.242     2.17    -9.578739     19.53046     2198.574        42     1.115     1.020  82.72   0
       189    839.7737    318.1661 300.3450279 +22.7341722     533.0376     69.24258      1.178     2.48    -9.987986     19.53046     103.2194        11     0.851     0.797 -53.22   0
       190      1.8724    308.8580 300.0873335 +22.4803054     2135.888     56.78765      1.197     2.40     -9.90122     19.53046     350.0435        20     1.073     0.826  78.36  24
       191    755.1012    307.4018 300.3221332 +22.7057140     254.9427     69.11907      1.152     2.31    -9.877591     19.53046     46.25878         5     0.701     0.455  20.07   0
       192    715.6841    300.5287 300.3120829 +22.6919299     890.8477     69.33066      1.272     2.98    -9.816331     19.53046     123.7817        17     1.103     1.000  61.67   0
       193    930.6920    293.3159 300.3814427 +22.7542595     208.5062     69.38346      1.073     2.68    -10.01192     19.53046     59.27996         5     0.838     0.440  78.76   0
       194    377.3864    285.3520 300.2116889 +22.5861819     1123.408     69.24258      1.323     3.31    -9.458267     19.53046     126.6905        16     1.173     0.769  65.14   0
       195    816.5484    277.7314 300.3509154 +22.7155939     282.9308     69.20731      1.015     2.39    -9.861313     19.53046     56.97551         7     0.834     0.532  34.43   0
       196    453.3343    264.4904 300.2420915 +22.6029580      563.873     69.34827      1.201     2.28    -9.432388     19.53046     92.63936        11     0.866     0.759 -14.93   0
       197    697.9955    256.4848 300.3208695 +22.6739743     1089.302     69.15438      1.231     2.16    -9.685461     19.53046     169.4249        14     0.978     0.756  73.23   0
       198    959.3205    250.6436 300.4042232 +22.7505637      1515.31     69.20731      1.125     2.04    -9.841033     19.53046     263.3759        16     0.931     0.777  89.83   0
       199    406.6272    240.3531 300.2353918 +22.5820256      308.133      69.2602      1.378     3.93     -9.55763     19.53046     37.26337         6     0.866     0.510  45.96   0
       200     81.3944    234.3628 300.1362150 +22.4827857     722.6301      69.2602      1.604     3.40    -9.670342     19.53046     87.61713        16     1.118     0.981   1.71   0
       201    112.0816    234.2978 300.1457712 +22.4919711     277.2538     69.36586      1.320     3.36    -9.603941     19.53046     40.68474         7     0.740     0.668  19.67   0
       202    974.9911    230.9339 300.4155081 +22.7495884     300.7367     69.22495      1.248     2.81    -9.771387     19.53046     46.81233         6     0.744     0.562  44.44   0
       203    769.4894    217.8865 300.3556732 +22.6842977     415.4068     69.38346      1.311     2.52    -9.607736     19.53046     52.47643         6     0.750     0.499 -86.83   0
       204    867.7711    206.8193 300.3898991 +22.7105503      971.354     69.22495      1.120     1.97    -9.794909     19.53046     188.6801        13     0.903     0.741  68.91   0
       205    286.3518    204.2742 300.2096874 +22.5356093     1161.585     69.22495      1.317     2.55    -9.365646     19.53046     142.6162        13     0.917     0.789  51.20   0
       206    364.1318    199.0623 300.2355706 +22.5574293     472.4587     69.27782      1.393     3.72    -9.515791     19.53046     57.86425         9     0.913     0.721 -77.59   0
       207    766.6368    198.3952 300.3611096 +22.6778408     290.2201      69.2602      1.243     2.93     -9.56372     19.53046      51.2844         5     0.721     0.481  -9.11   0
       208    180.9715    191.5303 300.1810592 +22.5003545     238.3438     69.22495      1.049     2.63    -9.220111     19.53046     59.55411         8     0.828     0.650 -54.64   0
       209    718.9175    188.1420 300.3495676 +22.6606008     869.9062     69.29544      1.264     2.10    -9.535173     19.53046     139.3768        12     0.852     0.778  77.22   0
       210    783.7846    187.6502 300.3699403 +22.6798879     272.7094     69.24258      1.337     2.00    -9.547089     19.53046     47.62248         5     0.692     0.446  18.64   0
       211    202.6378    184.8698 300.1899552 +22.5049389     337.3339     69.18967      1.424     3.41    -9.192555     19.53046     35.47729         5     0.762     0.440  71.95   0
       212    990.5031    180.6573 300.4366627 +22.7397743     415.4287     69.31306      1.070     2.19    -9.533621     19.53046     67.21915         6     0.662     0.615 -38.60   0
       213    722.9911    179.4715 300.3536502 +22.6593289     426.9713     69.20731      1.437     2.90    -9.518672     19.53046     55.41682         9     0.945     0.624  53.81   0
       214    643.3578    179.0384 300.3289836 +22.6353504     657.2313     69.31306      1.287     2.58    -9.499728     19.53046     90.00056        14     0.994     0.829  79.67   0
       215    463.9911    176.1497 300.2740766 +22.5807776     242.6264     69.22495      2.124     3.95    -9.483947     19.53046     29.13492         5     1.285     0.347 -65.61   0
       216    838.8596    170.3553 300.3927185 +22.6914093     727.1898     69.24258      1.170     2.05    -9.606076     19.53046     148.5921        12     0.986     0.682  57.33   0
       217    569.6612    170.7507 300.3087226 +22.6108900     495.8947     69.27782      1.369     2.87    -9.469758     19.53046     68.43863        10     0.847     0.811  53.21   0
       218    850.9041    169.3136 300.3968112 +22.6947164     361.9928     69.40105      1.105     2.84    -9.634256     19.53046     62.22927         8     0.822     0.623  37.21   0
       219   1011.7143    160.4330 300.4498419 +22.7403072     775.3045     69.18967      1.201     2.40    -9.367836     19.53046     124.1913        13     1.037     0.747 -84.78   0
       220    967.7010    159.5085 300.4364127 +22.7268660     594.2855     69.40105      1.195     3.02    -9.509954     19.53046     98.15402        10     1.002     0.690 -63.17   0
       221    201.9216    153.1614 300.2000200 +22.4956206     388.3185     69.20731      1.355     3.75    -9.094402     19.53046      50.3345         9     1.007     0.785 -47.07   0
       222     63.6721    147.8975 300.1587635 +22.4526543     1083.335     69.34827      1.278     2.38    -9.131425     19.53046     148.6372        17     1.172     0.770  63.70   0
       223    886.7146    144.4003 300.4160591 +22.6982755     431.3098     69.10141      1.140     2.92    -9.527101     19.53046     65.85683         7     0.823     0.569 -81.05   0
       224     13.1210    143.9548 300.1443392 +22.4363619     286.7544     69.22495      1.115     3.83    -9.131848     19.53046     38.49269         5     0.781     0.540  56.28   0
       225    220.9839    141.2231 300.2098190 +22.4979079     2819.416     69.22495      1.257     2.20    -9.095252     19.53046     421.7578        23     1.051     0.916  73.33   0
       226      5.0164    135.4295 300.1445873 +22.4314844      576.533     68.65839      1.219     2.80    -9.132071     19.53046     88.04483        11     0.950     0.766  62.67  16
       227    204.4357    132.4081 300.2075340 +22.4904156     321.2468     69.22495      1.396     3.67     -9.09152     19.53046     45.40939         6     0.900     0.495 -88.31   0
       228   1019.7525    128.4325 300.4627319 +22.7335088     8962.035      69.0484      1.159     2.04    -9.225997     19.53046     1371.337        36     1.043     0.990 -85.71  16
       229    865.0684    122.5629 300.4163948 +22.6855152     1740.244     69.20731      1.189     2.17    -9.410324     19.53046     252.3628        17     0.993     0.813  73.44   0
       230    968.7067    121.1592 300.4491683 +22.7161376     1350.175     69.24258      1.168     2.25    -9.263376     19.53046     202.0143        14     0.879     0.804  50.85   0
       231    414.5178    117.8235 300.2776034 +22.5491965     278.1443     69.18967      1.206     3.77    -9.140274     19.53046     46.16423         6     0.820     0.499 -87.32   0
       232    104.7745    106.7663 300.1848763 +22.4531728     318.8777     69.24258      1.270     3.65    -9.122952     19.53046     41.19259         6     0.745     0.624 -68.93   0
       233    465.7055    104.9420 300.2977110 +22.5608343     779.2935     69.29544      1.287     2.98    -9.022912     19.53046     111.5686        13     1.045     0.791  45.09   0
       234    209.3689     99.8993 300.2196124 +22.4825600     135.8309     69.20731      1.148     3.48    -9.088382     19.53046     28.82254         5     0.816     0.428 -71.25   0
       235    239.9971     85.1407 300.2339215 +22.4875032     3040.793     69.18967      1.293     2.23    -9.111056     19.53046     442.2519        25     1.116     0.914  81.94   0
       236     90.9626     84.3121 300.1878672 +22.4425851     391.9394     69.20731      1.316     2.80     -9.17625     19.53046     59.28171         7     0.835     0.572  30.58   0
       237    485.9427     70.3183 300.3152396 +22.5569493     3065.135     69.27782      1.316     2.32    -8.873012     19.53046     415.8952        24     1.098     0.956  78.51   0
       238    371.3076     69.9184 300.2796973 +22.5224860     241.9579     69.36586      1.172     2.87    -8.862949     19.53046     47.16003         7     0.828     0.589  63.71   0
       239    738.5221     59.8503 300.3972944 +22.6295928      400.037     69.22495      1.505     2.86    -8.871984     19.53046     42.99821         8     0.843     0.644  41.84   0
       240    831.1929     58.8120 300.4265129 +22.6570409     234.4478     69.10141      1.185     3.67    -8.932329     19.53046      33.7878         5     1.160     0.334  79.09   0
       241    614.3652     50.3946 300.3616844 +22.5896928     3007.535     69.20731      1.236     2.29    -8.616693     19.53046     390.4113        25     1.084     0.925  69.46   0
       242    389.2712     49.2382 300.2919926 +22.5219277     636.9409     69.18967      1.207     3.38    -8.612461     19.53046     108.7493        11     0.955     0.820 -26.53   0
       243    655.4214     47.5008 300.3754101 +22.6011571     399.7846     69.15438      1.264     3.95     -8.59989     19.53046     53.15959        10     1.109     0.683 -77.01   0
       244    138.2385     41.8449 300.2163300 +22.4445661     398.8065     69.27782      1.350     4.85    -9.313631     19.53046     51.73039         9     1.100     0.606 -88.82   0
       245    941.4578     41.1342 300.4666262 +22.6849635     252.7218      69.2602      1.164     3.36    -9.113623     19.53046     42.20863         6     0.796     0.498  87.80   0
       246    709.9780     39.2107 300.3950941 +22.6151114     275.7389     69.20731      1.143     2.61    -8.596174     19.53046     39.32904         5     0.775     0.483  53.57   0
       247    658.4970     35.1606 300.3803699 +22.5985307     1377.703     69.20731      1.202     2.37    -8.552536     19.53046     175.1004        16     0.983     0.800  85.93   0
       248    673.8290     33.9769 300.3855297 +22.6027818     403.0185     69.22495      1.876     6.83    -8.548873     19.53046     43.62425        11     1.706     0.768  45.07   0
       249    744.9208     26.7935 300.4100083 +22.6220041     728.1527     69.15438      1.251     2.60    -8.481505     19.53046     116.9836        12     0.981     0.760 -70.82   0
       250    682.9767     19.8531 300.3929592 +22.6014606     342.9293     69.24258      1.265     2.38    -8.483419     19.53046     60.93443         7     0.718     0.634  85.31   0
       251    488.7819     19.1958 300.3327015 +22.5431091     521.4896     69.17203      1.206     3.26    -8.692405     19.53046     72.09265         8     0.851     0.617  43.71   0
       252    392.6324     17.7766 300.3032403 +22.5138956      323.024     69.22495      1.131     4.39    -8.323654     19.53046     59.11385         8     1.198     0.522  52.70   0
       253    288.4524   1015.9872 299.9464996 +22.7690955     574.1118      69.2602      1.262     2.60    -11.12877     19.53046     76.50787         9     0.787     0.714 -47.43   0
