#   1 NUMBER                 Running object number                                     
#   2 X_IMAGE                Object position along x                                    [pixel]
#   3 Y_IMAGE                Object position along y                                    [pixel]
#   4 ALPHA_J2000            Right ascension of barycenter (J2000)                      [deg]
#   5 DELTA_J2000            Declination of barycenter (J2000)                          [deg]
#   6 FLUX_APER              Flux vector within fixed circular aperture(s)              [count]
#   7 FLUXERR_APER           RMS error vector for aperture flux(es)                     [count]
#   8 FLUX_RADIUS            Fraction-of-light radii                                    [pixel]
#   9 FWHM_IMAGE             FWHM assuming a gaussian core                              [pixel]
#  10 BACKGROUND             Background at centroid position                            [count]
#  11 THRESHOLD              Detection threshold above background                       [count]
#  12 FLUX_MAX               Peak flux above background                                 [count]
#  13 ISOAREA_IMAGE          Isophotal area above Analysis threshold                    [pixel**2]
#  14 A_IMAGE                Profile RMS along major axis                               [pixel]
#  15 B_IMAGE                Profile RMS along minor axis                               [pixel]
#  16 THETA_IMAGE            Position angle (CCW/x)                                     [deg]
#  17 FLAGS                  Extraction flags                                          
         1    164.9259     10.5621 300.2354326 +22.4424986     1923.423     69.30088      1.390     2.63    -9.272483     19.56684     224.0493        20     1.058     0.947  41.85   0
         2    732.5991     10.7596 300.4120312 +22.6126084     318.0499     69.37156      1.243     3.28    -9.229322     19.56684     37.83209         5     0.741     0.442  69.10   0
         3    280.7429      2.4021 300.2740865 +22.4748645     590.5861     59.50379      1.219     2.70    -9.103989     19.56684     83.46215        10     0.853     0.757 -81.39  24
         4    726.1986      2.3585 300.4127618 +22.6082766     352.2542     59.23552      1.119     2.55    -9.241999     19.56684     66.01804         8     0.830     0.636 -11.18  24
         5    191.7529   1009.7809 299.9190322 +22.7371797     752.6365     69.38922      2.694     7.24     25.09496     19.56684     34.94267        11     1.881     0.781 -82.53   0
         6     72.4928    927.4907 299.9087711 +22.6777814     2053.601      69.5127     25.524    43.46    -7.875588     19.56684     46.51135       309     8.990     5.830 -47.65   3
         7     74.7363    957.9632 299.8995471 +22.6871858     2744.924      69.3539     29.876    88.97    0.4877945     19.56684     64.06668      1329    20.032    10.964 -84.40  19
         8    195.0451    990.8719 299.9262133 +22.7327502     1559.346     69.33623      8.621    15.00     17.31954     19.56684     43.41836        35     2.728     2.292  36.08   3
         9    627.5535    993.0710 300.0600481 +22.8632203     4045.792     69.33623      1.207     2.03    -13.04569     19.56684     606.3102        25     1.029     0.942 -57.45   3
        10    633.0808    990.7961 300.0625101 +22.8642264     4375.653     69.26552      1.251     2.06    -13.03787     19.56684     686.4271        28     1.041     0.977  14.96   3
        11    727.8181    993.6790 300.0910785 +22.8934782     364.0924      69.3539      1.355     3.47    -13.67338     19.56684     50.88786         5     0.714     0.701  74.62   0
        12     56.7595    965.0318 299.8916616 +22.6838108     2263.871     69.40688     27.730    35.04    -1.948725     19.56684     55.01989       211     7.658     4.451 -46.28   3
        13    170.2078    994.2112 299.9174069 +22.7262475     749.3796     69.24783      5.367     6.88     18.64397     19.56684     31.85449         7     1.547     0.859  45.60   2
        14    162.3891    985.3040 299.9178778 +22.7213470     833.4907     69.26552      3.554     7.67     15.31942     19.56684     42.47878        10     1.883     0.873   4.02   0
        15    169.7520   1007.4874 299.9129418 +22.7299145     1072.846      69.3539      5.861     9.62     23.61062     19.56684     53.04959        18     2.436     1.060  61.64  19
        16    191.7950    994.4135 299.9240499 +22.7327890     1491.323     69.23013      7.214    10.04     18.56526     19.56684     48.95879        26     2.098     1.340  70.84   3
        17    158.3073    977.7464 299.9190703 +22.7179555     619.3708     69.40688      3.429     4.26     12.72299     19.56684     35.77682         5     1.007     0.513  36.58   0
        18    920.5599    976.6364 300.1566991 +22.9464000     454.0046     69.42452      1.439     2.34    -13.49312     19.56684     66.50098         7     0.914     0.638 -11.56   0
        19    994.0099    975.0787 300.1801113 +22.9679774     930.4075     69.31856      0.470    -6.38    -13.51933     19.56684      630.962         5     0.378     0.312 -89.01   0
        20    221.1578    964.4848 299.9429219 +22.7330306     693.9642     69.31856      5.400     6.58     5.187867     19.56684     36.29531        11     1.775     0.684  29.93   1
        21     99.2842   1022.0029 299.8863194 +22.7129060     2749.694     62.16223      6.854    26.36     28.64605     19.56684     70.25745       190     6.836     2.822   2.35  27
        22    349.2796   1004.6577 299.9696758 +22.7830160     206.5448     69.38922      1.052     3.48    -12.76473     19.56684     39.78585         5     0.772     0.453 -13.14   0
        23    645.8948    960.2220 300.0764571 +22.8593014     3425.249     69.26551      1.282     2.20    -12.90959     19.56684     527.4581        25     1.080     0.941  44.06   0
        24    154.6024   1003.6248 299.9094920 +22.7242575     322.7881     69.30088      1.503     3.91     22.35659     19.56684     26.87393         5     1.035     0.423  74.91   1
        25    224.4556    974.7153 299.9406157 +22.7369528     1877.161     69.44217      7.411    13.53     9.976621     19.56684     57.06004        48     2.711     1.880  21.61   3
        26    204.7456    999.6574 299.9263673 +22.7381811     888.2947     69.40688      7.135     8.06     21.05977     19.56684     54.40107        15     1.968     0.923 -85.80   1
        27    554.2607    950.8591 300.0509751 +22.8291198     830.1551     69.40688      1.364     2.98    -12.99234     19.56684     110.1562        13     1.095     0.778  87.01   0
        28     76.0404   1017.1059 299.8806935 +22.7045205     2983.231     69.37156     17.029    48.79     17.13819     19.56684     74.70365       602     9.019     7.700  73.05  27
        29    103.3828    945.0909 299.9126372 +22.6921022     1296.214      69.2832     11.992    12.46    0.4089863     19.56684     41.93987        30     2.574     1.680 -39.33   2
        30    448.4326    947.2209 300.0192238 +22.7963153     418.4403      69.3539      1.037     2.38    -13.08795     19.56684     79.34708         8     0.786     0.642 -55.99   0
        31    378.8347    945.5619 299.9981120 +22.7749482     3150.934     69.40688      1.247     2.27    -12.78651     19.56684     439.0755        25     1.031     0.980 -75.53   0
        32    164.1287   1004.7286 299.9120928 +22.7274351     1305.391     69.40688      5.563     8.35     22.78982     19.56684     42.19144        20     1.755     1.111   7.28   3
        33    525.3713    954.7902 300.0407025 +22.8215774     342.2738      69.3539      2.032     3.77    -13.06199     19.56684     24.91768         5     1.026     0.399   5.02   0
        34    411.1317    932.4144 300.0124395 +22.7808736     243.9613     69.37156      1.164     2.54    -12.89161     19.56684     50.98012         6     0.732     0.604 -73.92   0
        35    925.0482    923.9618 300.1752514 +22.9326266     1053.039     69.37156      1.241     2.14    -13.44863     19.56684     179.3236        15     1.011     0.770 -65.63   0
        36    713.0897    912.5831 300.1128975 +22.8657931     294.5413      69.2832      1.359     5.90    -12.73764     19.56684     35.27339         7     1.146     0.855 -42.71   0
        37    166.0191   1000.4492 299.9140739 +22.7267767     1276.256      69.3539      4.607     7.43     20.92216     19.56684     46.63805        11     1.872     0.826   3.71   3
        38    748.9733    907.2675 300.1258072 +22.8750314     470.2622     69.33623      1.089     2.91     -12.7178     19.56684     93.26038         9     0.962     0.617  40.38   0
        39    526.4077    907.7042 300.0563557 +22.8083843     324.7645     69.24783      1.502     3.45    -12.83802     19.56684     38.11642         5     0.973     0.353  67.84   0
        40    770.9373    900.8574 300.1347376 +22.8797797     5542.436     69.40688      1.212     1.95    -12.66242     19.56684      984.235        31     1.045     0.966  66.82   0
        41    961.7868    900.4545 300.1943612 +22.9368936     276.8456      69.3539      1.334     3.95    -13.26143     19.56684     45.38924         5     0.994     0.631 -74.57   0
        42    541.0598    997.9987 300.0315150 +22.8386768     1088.958     69.31856      1.218     2.39    -13.08663     19.56684     170.3774        11     0.854     0.729  74.71   0
        43    779.5323    882.8044 300.1432930 +22.8771767     467.6628     69.33623      1.039     1.87    -12.53801     19.56684     125.6362        10     0.852     0.684  69.50   0
        44    962.4302    881.2344 300.2008191 +22.9315685     127.8623     69.37156      0.997     3.43    -13.10092     19.56684     35.53283         5     0.759     0.448  69.93   0
        45    817.6115    876.5330 300.1572013 +22.8867966     435.8358      69.3539      0.969     2.29    -12.55583     19.56684     64.51924         5     0.692     0.441  67.03   0
        46    866.0287    867.3235 300.1752905 +22.8986718     374.2342     69.33623      1.198     3.12    -12.87713     19.56684     81.09864         5     0.888     0.446  54.46   0
        47    717.4196    866.7314 300.1291730 +22.8539351     315.9345     69.33623      1.184     3.35    -12.69359     19.56684     59.12389         8     0.977     0.627  37.79   0
        48    728.7761    864.0778 300.1335747 +22.8565798     185.1923      69.3539      1.091     3.71    -12.68227     19.56684     38.30539         5     1.134     0.349  77.77   0
        49    430.0298    863.2404 300.0408375 +22.7667098     2022.636     69.37156      1.179     1.94    -12.36189     19.56684     368.7316        18     0.937     0.838 -61.49   0
        50    132.3711    846.1544 299.9538486 +22.6724562     783.0509     69.38922      1.212     2.36    -11.70969     19.56684     107.6638        12     0.866     0.778  39.42   0
        51    212.0376    994.1537 299.9304260 +22.7387939     1938.319     69.38922     13.713    19.04      18.4937     19.56684     64.59124        83     4.089     2.464 -13.06   3
        52   1004.1039    834.9774 300.2288740 +22.9307791      1032.48     69.26551      1.217     2.10    -12.61366     19.56684     191.6233        14     0.934     0.795  56.02   0
        53    958.2281    833.1673 300.2151552 +22.9165078     963.8278      69.3539      1.170     2.13    -12.55561     19.56684     172.3747        13     1.018     0.726  55.05   0
        54    953.0580    830.2935 300.2144783 +22.9141328     1573.159     69.40688      0.600     1.48    -12.51439     19.56684     795.3854         6     0.567     0.296 -89.29   0
        55    164.5331    827.7811 299.9698220 +22.6768469     389.2015     69.33623      1.930     4.53     -11.7828     19.56684     32.83578         6     0.951     0.613  21.81   0
        56    741.6793    827.1880 300.1496017 +22.8498628     273.5786     69.33623      1.036     1.56     -12.3191     19.56684     72.90984         5     0.662     0.430 -68.90   0
        57    609.9879    821.2538 300.1105153 +22.8086608     2398.054     69.37156      1.190     1.94     -12.3032     19.56684     425.3299        20     0.922     0.888 -28.34   0
        58    211.4183    986.8760 299.9326034 +22.7365224     1613.122      69.3539     13.182    16.81       15.483     19.56684     57.48487        49     3.958     1.983   3.97   3
        59    412.1226    818.5404 300.0498141 +22.7485162     432.6703     69.40688      1.321     2.44    -12.17136     19.56684     69.37965         7     0.853     0.520 -81.84   0
        60    160.0974    815.1132 299.9725659 +22.6718840     683.0228      69.5127      1.388     3.13    -11.82228     19.56684     88.04065        13     0.981     0.892  40.27   0
        61    630.7413    813.5389 300.1194885 +22.8126725     292.6999     69.40688      1.102     2.90     -12.2414     19.56684     68.46045         9     0.994     0.572 -60.38   0
        62    179.3628    812.2477 299.9794855 +22.6768467     302.2308     69.38922      1.317     3.41    -11.84735     19.56684     33.46335         5     0.776     0.434  71.28   0
        63    785.9408    801.0000 300.1719158 +22.8556192     1968.723     69.30088      1.112     1.85    -12.08496     19.56684     419.1311        16     0.867     0.789  78.80   0
        64   1002.9390    800.8591 300.2396149 +22.9206321     524.4611     69.40688      1.212     2.83    -12.16011     19.56684     77.16245        10     0.860     0.781 -41.31   0
        65    194.2279    795.1422 299.9896715 +22.6764058     192.8543      69.3539      1.064     3.96    -11.87512     19.56684     37.45775         6     0.761     0.590  44.42   0
        66    503.0049    793.5018 300.0862419 +22.7686041     279.1808     69.24783      1.290     2.45    -11.69563     19.56684      48.7112         6     0.756     0.498  -4.77   0
        67    149.5125    791.8321 299.9768519 +22.6620325     476.8234     69.31856      1.082     2.94    -11.87932     19.56684     82.66633         6     0.777     0.606  60.61   0
        68    299.1173    783.7259 300.0259945 +22.7046175      26213.1     69.45981      1.245     2.10    -11.78145     19.56684      4091.49        59     1.175     1.080  82.62   0
        69    556.7906    782.6437 300.1065170 +22.7816248     807.1084     69.37156      1.154     1.92    -11.95103     19.56684      148.854        11     0.808     0.723 -76.64   0
        70    969.8000    781.7241 300.2355060 +22.9052044     456.1283     69.23013      1.166     2.00    -12.04836     19.56684     69.18937         8     0.747     0.618 -47.40   0
        71    585.6407    778.7250 300.1167739 +22.7891547     433.7673     69.33623      1.279     2.53    -11.90178     19.56684     71.70632         7     0.862     0.531  31.75   0
        72    916.7961    774.3384 300.2213808 +22.8871960     253.6333      69.3539      1.397     3.41     -11.9846     19.56684     39.36883         5     0.877     0.555  50.77   0
        73    348.8331    760.9238 300.0488744 +22.7129990     15278.18      69.3539      1.249     2.04    -11.51125     19.56684     2532.218        54     1.167     1.084 -81.85   0
        74    739.9739    763.4449 300.1698134 +22.8310557     456.3787     69.37156      1.172     2.61     -11.7424     19.56684     74.69231         8     0.794     0.752 -21.01   0
        75    363.1526    761.3281 300.0531968 +22.7174120      967.989     69.33623      1.241     2.09    -11.53683     19.56684     158.7294        15     1.044     0.755  64.88   0
        76    871.6914    756.6677 300.2130683 +22.8686012      1294.56     69.47745      1.133     1.96    -11.79933     19.56684     234.8919        16     0.913     0.809 -35.38   0
        77    629.6506    752.6785 300.1389524 +22.7948808     525.4315     69.37156      1.112     2.22    -11.64004     19.56684     98.25135         8     0.874     0.560  52.02   0
        78    230.8335    752.5926 300.0148935 +22.6751950     379.3138      69.3539      1.187     2.96     -11.8523     19.56684     46.81727         8     0.927     0.578 -64.55   0
        79    477.1261    747.4313 300.0931778 +22.7476232     423.7702     69.37156      1.235     3.32    -11.40377     19.56684     68.78813         8     0.963     0.659  25.77   0
        80     35.9938    748.3378 299.9557350 +22.6154815      278.096     69.33623      1.192     3.44    -11.90809     19.56684     44.74358         5     0.815     0.419  18.33   0
        81     64.2193    742.1810 299.9665051 +22.6221918     266.5401      69.3539      1.187     3.67    -11.87814     19.56684     40.80927         5     0.944     0.411 -86.84   0
        82    630.9698    741.7274 300.1429261 +22.7921336     192.8999      69.3539      1.339     3.72    -11.52941     19.56684      31.5748         5     0.815     0.487  51.82   0
        83    229.2607    737.3579 300.0193607 +22.6703546     378.0545     69.33623      1.321     3.73    -11.85335     19.56684      46.8455         6     0.916     0.436  86.61   0
        84    551.7108    727.3812 300.1229152 +22.7642444      214.875      69.2832      1.451     4.05    -11.37079     19.56684     38.33028         6     0.856     0.548  40.32   0
        85    938.0756    721.9333 300.2450667 +22.8785250     2199.776     69.42452      1.183     1.88    -11.74584     19.56684     428.1782        19     0.935     0.834 -59.57   0
        86    543.8802    722.9925 300.1219053 +22.7606363     684.9839      69.2832      1.137     2.04    -11.33233     19.56684     127.0791         9     0.745     0.697  78.40   0
        87    926.6073    713.2631 300.2443113 +22.8725977     830.4498     69.31856      1.135     2.08    -11.70833     19.56684     130.5186        13     0.869     0.782 -74.31   0
        88    289.9751    707.2845 300.0480196 +22.6799523     453.2757     69.31856      1.406     3.57    -11.37656     19.56684     54.58064        10     0.984     0.823  21.89   0
        89    752.8811    704.6125 300.1929750 +22.8180370     1236.711     69.33623      1.129     1.97    -11.43807     19.56684     212.7231        15     0.884     0.806 -79.83   0
        90    957.7387    703.2000 300.2572928 +22.8790376     810.3619     69.30088      1.109     2.03    -11.67571     19.56684     142.9487        10     0.800     0.679  -3.66   0
        91    835.0583    690.1885 300.2232764 +22.8385310     337.3192     69.30088      1.434     4.50    -11.44441     19.56684      34.0543         7     1.061     0.542  59.60   0
        92    138.2870    691.5073 300.0059996 +22.6299011     330.5141      69.5127      1.127     3.47    -11.75585     19.56684     42.33363         5     0.774     0.450 -20.28   0
        93    781.5324    690.1599 300.2066040 +22.8224773     1066.006     69.31856      0.685     1.08    -11.37035     19.56684     510.7822         5     0.570     0.323  21.67   0
        94    871.4216    681.5862 300.2374096 +22.8469603     72107.86     69.33623      1.107     1.95    -11.51771     19.56684     11140.87       107     1.237     1.144  81.42   0
        95   1018.4082    683.1719 300.2827307 +22.8914650     584.9178     69.33623      1.064     2.27    -11.60188     19.56684     95.75471         9     0.819     0.670  74.94  16
        96    723.9975    681.9706 300.1913409 +22.8028769     342.0299     69.30088      1.154     2.27    -11.40007     19.56684     58.88311         5     0.638     0.543 -89.96   0
        97    557.6657    670.5067 300.1432688 +22.7497092     714.7007     69.47745      1.134     2.38    -10.89092     19.56684     117.2929        11     0.860     0.750  51.58   0
        98    738.9550    667.7963 300.2006112 +22.8032919     4474.149      69.3539      1.185     1.93    -11.33935     19.56684     818.9472        27     0.995     0.916  62.46   0
        99    240.4911    663.0820 300.0470104 +22.6524251     2434.162     69.45981      1.241     2.13    -11.25214     19.56684     353.4377        23     1.100     0.893 -87.25   0
       100    322.4431    661.3356 300.0730605 +22.6765158     485.5394     69.33623      1.294     2.63    -10.99985     19.56684     75.42516        11     0.883     0.789 -62.46   0
       101    530.9556    656.6733 300.1394530 +22.7377284     418.5623     69.33623      1.314     2.03    -10.70793     19.56684     61.38019         7     0.668     0.651  14.69   0
       102    522.4854    648.7510 300.1393928 +22.7329145     1461.939     69.33623      1.145     2.16    -10.62143     19.56684     218.9347        15     0.913     0.767  75.98   0
       103    512.8558    642.4672 300.1384389 +22.7282230     635.2808     69.40688      1.103     1.97    -10.55076     19.56684     109.7998         8     0.727     0.641  89.15   0
       104    175.7197    638.5415 300.0348571 +22.6259488     302.8444     69.38922      1.183     3.69    -11.43394     19.56684     50.50584         7     0.923     0.542  58.42   0
       105    190.1895    636.9908 300.0398586 +22.6298467      369.189     69.24783      1.413     2.54    -11.37111     19.56684     50.20949         5     0.772     0.480  29.20   0
       106    247.2062    634.3188 300.0584514 +22.6461907     221.7441      69.2832      1.425     3.81    -11.11728     19.56684     29.15698         5     1.047     0.399 -85.96   0
       107    216.3003    634.0777 300.0489220 +22.6368472     313.5595     69.47745      1.364     4.80    -11.26449     19.56684     42.72601         8     1.002     0.651 -31.58   0
       108    959.3428    632.9760 300.2806338 +22.8593469     269.9448      69.3539      1.108     3.95    -11.36458     19.56684     34.62558         6     1.048     0.427  77.54   0
       109    536.5292    632.7587 300.1489649 +22.7325367     184.9547     69.31856      0.998     3.38    -10.50595     19.56684     38.13657         5     0.761     0.434  66.82   0
       110    437.3435    632.1924 300.1182802 +22.7026253     814.5843     69.33623      1.114     1.94    -10.45349     19.56684     132.6514        11     0.856     0.681  49.33   0
       111   1013.1740    629.0818 300.2986903 +22.8743574     515.6398     69.33623      1.171     2.80     -11.4769     19.56684     72.50199         7     0.892     0.550 -39.80   0
       112     91.4203    627.2057 300.0123478 +22.5973966     9701.455     69.33623      1.273     2.28    -11.43598     19.56684     1297.314        42     1.151     1.069  66.25   0
       113     12.4062    628.7229 299.9873105 +22.5741127     355.5292     69.26552      1.143     2.62    -11.32802     19.56684     45.83463         5     0.722     0.437 -67.11   0
       114    522.4268    627.2051 300.1463810 +22.7267134     455.4709     69.31856      1.136     2.86    -10.44203     19.56684     76.31074         5     0.732     0.436  66.68   0
       115    940.5117    613.6923 300.2810321 +22.8481648     518.0601      69.5127      1.121     2.97    -11.21023     19.56684     101.8895        11     0.974     0.683  69.07   0
       116     37.3426    611.3083 300.0007176 +22.5766060     755.5553     69.40688      1.762     6.49    -11.28947     19.56684     66.01054        16     1.381     0.856  89.48   0
       117    807.4330    611.8869 300.2401318 +22.8077649     195.7075     69.31856      1.084     2.86    -10.86108     19.56684     39.21132         6     0.767     0.490  82.75   0
       118    485.6083    607.7179 300.1412579 +22.7100785     174.9623     69.30088      1.153     3.95    -10.30769     19.56684     39.98583         5     0.954     0.469  80.62   0
       119    880.5863    606.1630 300.2647956 +22.8280448      312.737      69.3539      1.030     2.48    -11.02488     19.56684     64.71706         5     0.724     0.433 -66.19   0
       120    442.4079    600.6696 300.1301058 +22.6950988     380.1053     69.33623      1.312     3.88    -10.29878     19.56684     56.89133         7     1.056     0.481 -83.80   0
       121    590.0316    598.3911 300.1767966 +22.7387161     346.7136      69.3539      1.181     2.76    -10.51271     19.56684     42.04371         5     0.767     0.537  86.32   0
       122    486.6852    596.1765 300.1453455 +22.7070892     511.0322     69.30088      1.368     1.83    -10.29993     19.56684     82.70116         7     0.689     0.593 -68.01   0
       123    920.3071    591.5891 300.2819189 +22.8357611     1618.578     69.30088      1.089     1.91    -11.00384     19.56684     279.5668        17     0.926     0.833 -36.97   0
       124    452.0955    591.6230 300.1360616 +22.6954083     800.1073     69.26551      1.197     2.27    -10.28943     19.56684     110.5331        11     0.878     0.696  75.28   0
       125     14.1164    585.4488 300.0019106 +22.5622198     2456.369     69.33623      1.326     2.33     -11.1631     19.56684     333.9719        23     1.022     1.002  58.63   0
       126    315.6321    578.4998 300.0978765 +22.6507088     4315.352     69.33623      1.213     2.18    -10.45217     19.56684     563.4194        26     1.045     0.951  74.50   0
       127    438.0605    575.4901 300.1369393 +22.6865691     4375.911     69.44217      1.203     2.04    -10.25915     19.56684     648.7374        28     1.078     0.951  58.24   0
       128    849.7535    569.3575 300.2671507 +22.8082332     754.5811     69.38922      1.011     1.85    -10.73787     19.56684     142.2895         9     0.751     0.618  70.00   0
       129    934.2469    566.6965 300.2943590 +22.8327866     5915.823     69.38922      1.134     1.89    -10.85408     19.56684     1026.013        28     0.999     0.911  62.71   0
       130    498.6113    565.0677 300.1591711 +22.7017372     5667.917     69.37156      1.191     2.03    -10.27805     19.56684     894.7823        32     1.114     0.969  75.50   0
       131    226.0851    560.5515 300.0758681 +22.6186939     642.1848     69.33623      1.273     2.64    -11.05986     19.56684     99.41023        11     0.966     0.740  66.49   0
       132    668.2939    560.9957 300.2133269 +22.7514441     215.1039     69.26551      0.963     2.13    -10.43688     19.56684     52.38873         7     0.673     0.657 -13.95   0
       133    430.3262    553.2470 300.1417636 +22.6778660     2069.934      69.3539      1.216     2.09    -10.21716     19.56684      318.532        19     1.023     0.870 -86.72   0
       134    772.9601    553.1942 300.2484714 +22.7805766     345.7053     69.38922      1.242     2.12    -10.52583     19.56684     67.56725         7     0.686     0.645 -59.26   0
       135    408.4027    551.5994 300.1354781 +22.6708179     483.5217     69.14159      1.164     2.70    -10.21684     19.56684     75.37045         9     0.897     0.707 -41.37   0
       136    162.7493    550.8826 300.0593245 +22.5969162     331.3268     69.37156      1.243     3.75    -11.19803     19.56684     49.91763         8     0.984     0.618  86.24   0
       137    850.0767    548.5500 300.2740160 +22.8023531     754.8442      69.3539      1.288     2.91    -10.62244     19.56684     100.8199        11     0.959     0.719 -44.34   0
       138     96.9917    549.0129 300.0394987 +22.5766467     202.2417     69.24783      1.029     2.67    -11.27223     19.56684     31.08097         5     0.622     0.590  89.84   0
       139    730.4957    545.6311 300.2376986 +22.7656771     440.0441     69.30088      1.133     2.40     -10.3329     19.56684      55.2326         8     0.747     0.711  16.96   0
       140    546.9319    540.7740 300.1821093 +22.7092532     98743.18     69.33623      1.270     2.06    -10.22261     19.56684     16173.87       135     1.327     1.284  86.71   0
       141    233.0810    540.7940 300.0844651 +22.6151252     1707.383      69.2832      1.273     2.38    -10.91752     19.56684     249.8281        20     0.990     0.943 -85.23   0
       142    798.6866    536.0781 300.2620527 +22.7833706     274.6167     69.49508      1.242     3.85    -10.55503     19.56684     60.92597         5     0.936     0.668  35.27   0
       143    437.5568    521.2567 300.1544118 +22.6708532       1165.7     69.33623      1.283     2.41    -10.15911     19.56684     177.7211        18     1.209     0.808 -87.33   0
       144    834.4581    507.1990 300.2825889 +22.7857944     720.7577     69.30088      1.121     2.16    -10.49012     19.56684     133.3904        11     0.828     0.740  66.72   0
       145    705.6909    504.9111 300.2432067 +22.7465483     1168.848      69.5127      1.209     2.14    -10.28679     19.56684     194.7496        17     0.992     0.850  78.56   0
       146    950.1585    502.1279 300.3203104 +22.8190016     298.1995     69.33623      1.183     3.98    -10.62748     19.56684     41.76381         6     1.052     0.478  27.48   0
       147    493.1233    500.8018 300.1783522 +22.6816445     249.4595     69.26551      1.101     3.40    -10.10917     19.56684     42.82767         6     0.744     0.560 -29.83   0
       148    962.9446    498.7136 300.3254077 +22.8218508     583.5381     69.40688      1.104     1.96    -10.62267     19.56684     121.4052         9     0.783     0.669 -64.29   0
       149    834.7439    497.6706 300.2857749 +22.7831427     1070.243     69.37156      1.310     2.86      -10.466     19.56684     138.3478        17     1.087     0.870  34.67   0
       150    948.8085    497.8838 300.3212688 +22.8173777     302.8583     69.30088      1.115     3.11    -10.62107     19.56684     64.52805         8     0.909     0.641 -27.22   0
       151    588.1740    495.3763 300.2097051 +22.7085844     356.3326     69.31856      1.254     2.46    -9.790142     19.56684     54.63254         6     0.702     0.608 -47.23   0
       152    872.9080    492.4053 300.2993830 +22.7930648     2080.646     69.26551      1.164     2.05    -10.52105     19.56684     347.6909        19     0.962     0.827  71.51   0
       153    426.3742    494.1639 300.1597376 +22.6597236     105.7339     69.37156      1.118     2.56    -10.08261     19.56684     43.43449         5     0.837     0.478  83.47   0
       154     15.3185    484.8859 300.0349685 +22.5337454     1157.042     69.49508      0.667     1.38    -10.62411     19.56684     529.2415         6     0.544     0.373  -0.82   0
       155    964.6801    482.7751 300.3311292 +22.8177905     269.4202     69.33623      0.971     1.82    -10.59705     19.56684     76.09024         5     0.659     0.456  78.29   0
       156    104.8127    482.7052 300.0634784 +22.5599763     567.0517      69.2832      1.353     2.78    -11.07086     19.56684     70.97102        10     0.880     0.764  44.21   0
       157    646.2202    462.8695 300.2383452 +22.7166497     388.6707     69.33623      1.290     2.73    -9.914652     19.56684     55.78669         7     0.873     0.564  72.23   0
       158    960.9299    455.0554 300.3389679 +22.8087011     315.1113     69.37156      1.043     1.76    -10.58794     19.56684     60.55631         5     0.572     0.561  70.87   0
       159    707.1461    454.9753 300.2598883 +22.7326423     413.7085     69.37156      1.281     4.42    -10.18201     19.56684      45.9774         8     0.863     0.643  47.07   0
       160    864.1649    451.2830 300.3100214 +22.7786303     484.2211     69.31856      1.147     2.81    -10.48787     19.56684     81.72404         9     0.934     0.598 -51.56   0
       161    848.5080    447.4727 300.3063787 +22.7728448     323.4369      69.5127      1.502     3.69     -10.4702     19.56684     42.45471         6     0.904     0.434  71.80   0
       162    592.9373    445.7169 300.2273258 +22.6957530     1521.242     69.44217      1.285     2.28    -9.707208     19.56684     231.2447        17     1.006     0.862  59.65   0
       163   1004.1652    424.6848 300.3623220 +22.8129216      748.464     69.31856      1.286     2.20    -10.59822     19.56684     111.5726        11     0.814     0.785  48.08   0
       164    962.4948    423.3026 300.3497738 +22.8000442     466.4542     69.53033      1.170     2.56    -10.58108     19.56684     67.76949         9     0.834     0.702  61.45   0
       165    876.2722    424.4280 300.3225220 +22.7745408     187.7557      69.3539      0.952     2.40    -10.50273     19.56684     43.52193         5     0.700     0.449  22.81   0
       166    703.4510    419.7701 300.2701762 +22.7214228      412.492     69.37156      1.165     2.58    -10.02691     19.56684     73.42126         6     0.694     0.616  46.10   0
       167    499.5752    420.2200 300.2065450 +22.6604446     155.2906     69.37156      1.167     3.01    -9.836838     19.56684     37.15948         5     0.713     0.478 -76.38   0
       168    207.0819    418.2667 300.1161986 +22.5721721     324.4244     69.45981      1.167     2.79    -10.50167     19.56684     54.14481         6     0.754     0.603 -52.53   0
       169    269.8575    413.6243 300.1372235 +22.5896690     1685.065      69.3539      1.208     2.25    -10.09736     19.56684     261.0197        18     0.959     0.894 -50.65   0
       170   1002.8751    411.8183 300.3661001 +22.8088369     2105.902      69.3539      1.162     1.99    -10.56898     19.56684     388.8723        16     0.870     0.801  58.26   0
       171    217.0154    408.4499 300.1224756 +22.5723349     3859.146     69.38922      1.302     2.29     -10.4498     19.56684     526.6392        28     1.086     1.024  55.64   0
       172    982.8956    403.0459 300.3627182 +22.8003320     871.6378     69.37156      1.194     2.02    -10.52886     19.56684     173.7848        12     0.820     0.810  56.19   0
       173    357.8221    402.6211 300.1681550 +22.6128910     2452.083      69.3539      1.291     2.19    -9.882637     19.56684     368.2222        25     1.114     0.955  88.89   0
       174    602.0360    399.2649 300.2452512 +22.6851401       8929.7      69.3539      1.262     2.17    -9.749599     19.56684     1306.302        37     1.132     1.001  73.86   0
       175    618.8970    400.0911 300.2502334 +22.6904308     413.4403     69.53033      1.306     2.72    -9.749599     19.56684      44.1559         8     0.809     0.643  53.76   0
       176    935.3978    381.3875 300.3549410 +22.7798816     458.9622     69.17702      1.141     2.49    -10.54718     19.56684     62.86372         6     0.669     0.632 -55.83   0
       177    156.8072    379.3927 300.1132001 +22.5459372     1038.454     69.21243      1.320     2.39    -10.37458     19.56684     130.6645        15     0.943     0.866  50.65   0
       178    542.6458    368.7292 300.2366793 +22.6585700     3105.878     69.33623      1.244     2.27    -9.750653     19.56684      474.691        22     1.032     0.891  81.46   0
       179    956.1225    368.9438 300.3654465 +22.7825117     603.9618     69.38922      1.234     2.09    -10.47113     19.56684     102.0792         9     0.765     0.692 -77.34   0
       180    257.5560    367.9891 300.1482225 +22.5728828     367.4983      69.3539      1.232     4.81    -10.07093     19.56684     53.79379         7     1.028     0.707 -63.52   0
       181    656.3223    358.8662 300.2752808 +22.6898054     338.7314     69.44217      1.418     4.00    -9.749599     19.56684     40.38908         6     1.051     0.459  84.76   0
       182    746.9379    357.6117 300.3039178 +22.7165960     665.3813     69.31856      1.489     3.56    -10.14807     19.56684     72.60626        11     1.141     0.777  57.57   0
       183    449.2690    355.0634 300.2120545 +22.6266556     2977.001     69.40688      1.284     2.42    -9.728603     19.56684     426.1118        24     1.086     0.913  73.96   0
       184    841.1087    349.1774 300.3360062 +22.7423831     662.8951      69.2832      1.175     2.29    -10.44734     19.56684     128.2838        12     0.962     0.775 -87.76   0
       185    938.3330    349.1831 300.3663175 +22.7715041     240.7605     69.33623      1.177     2.59    -10.49719     19.56684     45.00544         6     0.758     0.576  38.52   0
       186    433.5396    343.5250 300.2109074 +22.6186272     250.4481     69.40688      1.477     4.67    -9.717535     19.56684     28.65615         8     1.038     0.596  40.70   0
       187    814.2631    336.7902 300.3316618 +22.7307819     229.7588     69.30088      1.226     3.07    -10.35423     19.56684      57.5407         7     0.960     0.530  65.75   0
       188    336.6746    334.2364 300.1837893 +22.5869196     1233.797     69.30088      1.355     2.22    -9.856693     19.56684     161.3668        18     1.096     0.887  78.91   0
       189     55.1606    331.7267 300.0970973 +22.5017690     373.8392     69.33623      1.192     3.35    -10.17902     19.56684     61.55806         7     0.838     0.598  32.39   0
       190    306.2105    323.7471 300.1777209 +22.5747742     14459.06      69.3539      1.304     2.36    -9.806497     19.56684     1945.089        50     1.205     1.095  83.62   0
       191    840.8182    321.1242 300.3450271 +22.7342339     727.1622      69.3539      1.381     2.71    -10.37128     19.56684     102.0134        11     0.973     0.747  71.06   0
       192      2.6264    311.6906 300.0872855 +22.4802604     2331.941     60.54475      1.280     2.25    -9.965389     19.56684     291.5844        23     1.074     0.932 -81.29  24
       193    756.0238    309.5282 300.3223658 +22.7055019     285.5159     69.38922      1.327     3.60    -10.08438     19.56684     45.02052         6     0.923     0.527  72.46   0
       194    404.5715    309.1027 300.2130729 +22.6000595     333.1626     69.30088      1.506     4.30    -9.767373     19.56684     38.89919         6     1.067     0.494  88.09   0
       195    716.7289    303.2834 300.3121502 +22.6919358      919.175     69.47745      1.241     2.71    -9.941737     19.56684      121.057        12     0.930     0.767  35.97   0
       196    931.5900    296.0621 300.3814673 +22.7542149     249.7534      69.2832      0.958     2.07    -10.27457     19.56684     53.53288         6     0.751     0.490 -85.39   0
       197    378.3891    287.9568 300.2117938 +22.5861390     1088.903      69.3539      1.507     4.39    -9.815214     19.56684     114.7521        20     1.427     0.841  69.47   0
       198    817.5779    281.0220 300.3508060 +22.7157476     266.9109      69.3539      1.206     3.40    -10.06735     19.56684     42.17773         6     0.810     0.493  86.81   0
       199    454.0720    267.4222 300.2420096 +22.6029283     718.1627     69.37156      1.469     3.03    -9.558013     19.56684     84.65137        11     0.979     0.728 -82.42   0
       200    699.0517    259.3485 300.3209092 +22.6740159     1208.456     69.38922      1.285     2.17    -9.708972     19.56684     173.8802        15     1.023     0.759  86.24   0
       201    960.2645    253.3401 300.4042823 +22.7505185     1558.359     69.38922      1.184     2.15    -9.607149     19.56684     230.8593        18     1.023     0.850 -63.03   0
       202   1022.0585    247.9854 300.4252962 +22.7674789     256.6125     61.92527      1.112     2.64    -9.343242     19.56684     36.70446         5     0.643     0.561   0.50  16
       203    407.5794    242.9468 300.2354888 +22.5819643      234.592      69.3539      1.072     3.89    -9.239727     19.56684     42.92399         6     1.001     0.433 -74.71   0
       204    113.1305    237.4783 300.1457089 +22.4921131     250.9344     69.45981      1.172     3.06    -9.766642     19.56684     47.06903         8     0.792     0.775 -20.28   0
       205     82.2949    237.3192 300.1361795 +22.4828194      693.174     69.49508      1.554     3.78    -9.762877     19.56684     77.71159        14     1.073     0.935 -50.05   0
       206    166.1814    229.3983 300.1648187 +22.5057032     246.2978      69.2832      1.146     3.14    -9.702089     19.56684     34.02936         5     0.731     0.454  18.63   0
       207    770.6364    220.5758 300.3558014 +22.6843153     456.6026     69.37156      1.443     3.13    -9.465887     19.56684     48.31067         7     0.849     0.596 -71.13   0
       208    868.8718    209.6404 300.3899711 +22.7105901     1036.286     69.33623      1.247     2.41    -9.486645     19.56684     142.1635        14     1.049     0.767  45.08   0
       209    287.4225    207.1338 300.2097387 +22.5356626     982.5504     69.33623      1.322     2.63      -9.3352     19.56684     127.7423        16     1.015     0.839  88.69   0
       210    365.2221    202.1620 300.2355504 +22.5575560     449.2219     69.37156      1.462     3.47     -9.09278     19.56684      47.0166        11     0.914     0.839 -57.70   0
       211    767.1666    201.2504 300.3609936 +22.6777215     245.9215     69.37156      1.288     3.94    -9.380963     19.56684     39.31304         6     0.768     0.579  43.82   0
       212    182.1274    194.2178 300.1811942 +22.5003861     410.1384      69.3539      1.395     5.25    -9.517899     19.56684     42.24258        10     1.150     0.677  69.68   0
       213    784.9998    190.6921 300.3699783 +22.6800273     326.8764     69.23013      1.325     3.87    -9.256827     19.56684     50.23564         6     1.211     0.365  75.01   0
       214    719.8242    190.9288 300.3495922 +22.6605757     843.9805     69.38922      1.302     2.30    -9.410795     19.56684     133.7401        13     1.256     0.723  51.41   0
       215    991.3166    183.4192 300.4366667 +22.7397089     385.0746     69.30088      1.176     2.33    -9.290985     19.56684     75.03828         8     0.862     0.599  85.72   0
       216    723.9224    182.4353 300.3536259 +22.6593621     379.3849     69.31856      1.209     2.93    -9.357561     19.56684     48.17126         8     0.788     0.689  83.76   0
       217    644.2440    181.8947 300.3289804 +22.6353408     489.5771     69.37156      1.166     2.59    -9.304667     19.56684     93.58699         8     0.800     0.636  49.48   0
       218    840.0084    173.2301 300.3927917 +22.6914799     731.2156      69.3539      1.263     2.34      -9.2664     19.56684      105.194        10     0.861     0.693 -84.89   0
       219    570.5832    173.5403 300.3087531 +22.6108734     518.2578     69.31856      1.462     3.09     -9.16166     19.56684     56.14389        11     0.963     0.802 -37.68   0
       220    852.0759    172.4078 300.3968204 +22.6948568     329.2205     69.31856      1.098     2.44    -9.301398     19.56684     62.39556         7     0.832     0.555  80.41   0
       221   1012.6962    163.2357 300.4498870 +22.7403038     773.0446      69.3539      1.137     2.06    -9.290471     19.56684     135.3369        10     0.865     0.647  53.33   0
       222    968.6014    162.4217 300.4363967 +22.7268709      513.648      69.2832      1.120     2.31    -9.290863     19.56684     95.30407        11     0.919     0.674  70.62   0
       223    202.4999    155.6876 300.2000315 +22.4954327     389.4565      69.5127      1.272     3.00    -9.304991     19.56684     58.98264         9     0.891     0.739  80.45   0
       224     64.5374    150.5913 300.1588106 +22.4526034     1143.204     69.30088      1.294     2.63    -9.221534     19.56684      141.224        14     0.979     0.799  49.42   0
       225    887.5246    147.5728 300.4159324 +22.6983296     383.9533     69.33623      1.065     2.63    -9.215904     19.56684     60.29471         5     0.693     0.469  70.38   0
       226    222.0457    144.0604 300.2098809 +22.4979541     2847.024     69.37156      1.351     2.42    -9.280918     19.56684     377.7419        26     1.154     0.956  71.44   0
       227      6.1131    138.1175 300.1447095 +22.4315025     651.0311     69.45981      1.318     2.64    -9.164455     19.56684     84.91081        10     0.869     0.690  70.83  16
       228    205.2863    134.9000 300.2076433 +22.4902997     266.6681      69.5127      1.143     3.29    -9.291303     19.56684     41.67844         7     0.765     0.640  87.79   0
       229   1020.8203    131.2432 300.4628044 +22.7335336     9010.605     66.61468      1.238     2.17    -9.206532     19.56684       1286.5        40     1.144     1.024 -87.91  24
       230    866.0498    125.3714 300.4164419 +22.6855166     1718.085     69.37156      1.239     2.39    -9.076002     19.56684     232.1623        15     0.895     0.826  66.88   0
       231    969.7073    124.0356 300.4491993 +22.7161623      1291.55     69.30088      1.224     2.26     -9.12023     19.56684     211.3669        16     1.004     0.771  61.86   0
       232    415.4213    120.7414 300.2775919 +22.5492149     327.3699      69.3539      1.558     3.38    -8.999685     19.56684     41.62523         7     1.127     0.446  50.33   0
       233    105.6544    109.6779 300.1848612 +22.4531884     339.8684     69.38922      1.309     4.21    -9.219344     19.56684     49.90262         7     1.262     0.472 -87.24   0
       234    466.8020    107.9230 300.2977402 +22.5609277     964.9819     69.26551      1.370     2.48     -8.99583     19.56684     134.1886        16     1.010     0.881  52.95   0
       235    240.9296     87.8233 300.2339988 +22.4874664     3058.854     69.37156      1.388     2.62    -9.262572     19.56684     396.4991        25     1.161     0.954  81.39   0
       236     91.9071     87.3106 300.1878461 +22.4426456     415.5446      69.5127      1.337     3.09    -9.193379     19.56684      38.8133         7     0.723     0.673  12.36   0
       237    486.9048     73.1101 300.3152917 +22.5569481     3073.999     69.53033      1.353     2.40    -9.208587     19.56684     407.9015        23     1.074     0.943  85.36   0
       238    372.2357     72.9603 300.2796580 +22.5225487     297.4779     69.42452      1.209     2.64    -9.075584     19.56684     55.72791         8     0.815     0.651  43.65   0
       239    739.7442     62.7746 300.3973851 +22.6297028     569.8542      69.3539      1.668     3.36    -9.146108     19.56684     60.34055         8     0.996     0.578 -62.94   2
       240    615.3044     53.1970 300.3617276 +22.5896855     3018.668     69.26552      1.331     2.47    -9.265377     19.56684     369.9974        25     1.086     0.995  74.40   0
       241    538.2490     55.6368 300.3369430 +22.5673076     155.6637      69.3539      1.149     3.39     -9.10411     19.56684     28.77283         5     0.747     0.446 -17.59   0
       242    390.2325     52.2950 300.2919607 +22.5220046     689.7774     69.33623      1.297     2.84    -9.047549     19.56684     93.02805        15     1.006     0.885  40.15   0
       243    656.8735     50.8634 300.3754316 +22.6014637     604.6072     69.38922      1.588     3.56    -9.200562     19.56684     64.77093        11     0.999     0.939  58.61   0
       244    672.4293     46.8034 300.3815942 +22.6049548     322.5294     69.31856      1.249     4.14    -9.180416     19.56684     38.37994         5     0.872     0.562  40.11   0
       245    139.0426     44.4130 300.2164090 +22.4444604      353.606     69.37156      1.213     3.21    -9.247109     19.56684     45.85424         5     0.746     0.436  22.22   0
       246    659.4519     37.9391 300.3804272 +22.5985205     1377.251     69.40688      1.378     2.66    -9.221288     19.56684     182.8574        20     1.097     0.938  74.27   0
       247    300.4935     38.9479 300.2683756 +22.4912806     232.6648     69.42452      1.051     3.66    -9.143252     19.56684     31.27318         6     0.787     0.499  86.91   0
       248    674.3056     36.7552 300.3854381 +22.6026281     520.9768     69.37156      1.717     4.20     -9.19192     19.56684     47.77728         9     1.096     0.654  74.89   0
       249    746.1924     29.5385 300.4101758 +22.6220776     758.2888     69.33623      1.344     2.86    -9.173182     19.56684     94.41499        11     0.925     0.774 -63.89   0
       250    683.6053     22.4617 300.3929715 +22.6013036     472.8255     69.33623      1.419     3.04    -9.212224     19.56684     57.05281         8     0.812     0.772 -57.87   0
       251    489.4817     22.1414 300.3326270 +22.5430741     723.2525     69.40688      1.563     3.10    -9.650138     19.56684     78.29663         8     0.896     0.638  63.10   0
       252    393.3642     20.0259 300.3034019 +22.5136720     333.6615     69.37156      1.208     2.80    -9.048649     19.56684     49.85983         7     0.724     0.657 -85.55   0
       253    289.6245   1018.9442 299.9464722 +22.7691981     573.3519     69.37156      1.325     2.92    -12.73134     19.56684     72.38441        10     0.934     0.710  40.84  16
       254    234.7937    982.4763 299.9413021 +22.7422815      4014.82      69.2832      6.643    26.05     9.091546     19.56684     96.42172       285     7.094     4.458  69.03  18
       255    123.7355   1015.8829 299.8959090 +22.7184979     989.7208     69.45981      2.156     8.13     26.60723     19.56684      37.8699        12     2.451     0.754  65.09  18
