#   1 NUMBER                 Running object number                                     
#   2 X_IMAGE                Object position along x                                    [pixel]
#   3 Y_IMAGE                Object position along y                                    [pixel]
#   4 ALPHA_J2000            Right ascension of barycenter (J2000)                      [deg]
#   5 DELTA_J2000            Declination of barycenter (J2000)                          [deg]
#   6 FLUX_APER              Flux vector within fixed circular aperture(s)              [count]
#   7 FLUXERR_APER           RMS error vector for aperture flux(es)                     [count]
#   8 FLUX_RADIUS            Fraction-of-light radii                                    [pixel]
#   9 FWHM_IMAGE             FWHM assuming a gaussian core                              [pixel]
#  10 BACKGROUND             Background at centroid position                            [count]
#  11 THRESHOLD              Detection threshold above background                       [count]
#  12 FLUX_MAX               Peak flux above background                                 [count]
#  13 ISOAREA_IMAGE          Isophotal area above Analysis threshold                    [pixel**2]
#  14 A_IMAGE                Profile RMS along major axis                               [pixel]
#  15 B_IMAGE                Profile RMS along minor axis                               [pixel]
#  16 THETA_IMAGE            Position angle (CCW/x)                                     [deg]
#  17 FLAGS                  Extraction flags                                          
         1    768.5136     14.4557 300.4261850 +22.6180387     379.1852     69.46724      1.618     4.63    -7.550946     19.57888     37.26379         8     1.157     0.525  52.07   0
         2    788.6424     11.2877 300.4334837 +22.6231549     1109.409     69.39657      1.238     2.33    -7.516697     19.57888     157.7738        15     0.927     0.851  86.49   0
         3    172.1845      6.4770 300.2432258 +22.4370795     545.6484     69.39657      1.389     3.28    -8.547132     19.57888     65.64002        10     0.912     0.826 -78.55   0
         4    963.2048      4.6399 300.4900497 +22.6735008     384.7956     67.94971      1.181     3.16    -8.352683     19.57888     48.66017         7     0.818     0.607  27.18  16
         5    736.8981      4.0960 300.4196952 +22.6055932     472.7088     66.50828      1.321     3.58    -7.320197     19.57888     67.58598        11     1.118     0.702 -66.33  16
         6    632.2565   1010.5155 300.0600705 +22.8632116     4221.646     69.48489      1.082     1.87      -13.291     19.57888     669.5737        22     0.904     0.872   0.34   3
         7    246.6246   1021.5881 299.9365162 +22.7505952     983.1703     63.95075      4.184     6.12     5.838164     19.57888      60.1944        15     1.965     0.852 -76.77  27
         8    228.8586   1023.5282 299.9303634 +22.7458144     559.1998     54.79848      2.192     5.95     14.40558     19.57888     52.57631         9     1.551     0.643  -0.29  24
         9    172.6579   1014.8666 299.9157213 +22.7264498     1278.829     69.43191      6.550     9.63      15.3145     19.57888     48.47865        23     1.807     1.431 -23.61  19
        10    178.9918   1022.4346 299.9152249 +22.7305208     595.8726     60.27752      1.834     4.57      17.0057     19.57888     36.26055         6     1.215     0.488 -45.29  27
        11    175.5889   1022.7900 299.9140519 +22.7296003     786.1081     58.56409      2.565     6.14     17.36378     19.57888     52.43915        12     1.490     0.711 -60.50  27
        12    172.1060   1021.4731 299.9133986 +22.7281767     1101.381     64.44753      5.715     9.93     16.94762     19.57888      41.4929        20     2.253     1.220 -46.47  27
        13    168.0286   1020.4086 299.9124785 +22.7266468     1392.709     67.80515      7.200    11.52     16.80438     19.57888     49.98985        28     2.505     1.475 -56.41  19
        14    160.7976   1021.7617 299.9097915 +22.7248620     798.2107     63.21766      3.189     8.84     17.54189     19.57888     38.59171        18     1.860     1.174 -80.20  25
        15     75.3003   1015.5409 299.8852613 +22.6973920     2477.791     69.48489     21.099    48.15     8.206629     19.57888      57.9172       447     8.890     7.237  26.19  27
        16     55.8105    994.6620 299.8860070 +22.6855554     2006.073     69.32583     17.496    27.33    -2.118577     19.57888     47.58678       143     5.188     3.999  72.16  19
        17    925.3076    994.1355 300.1566930 +22.9464415     360.2796     69.50254      1.124     2.37    -13.60945     19.57888     64.86246         9     0.841     0.654 -23.82   0
        18     78.7643    945.2394 299.9092239 +22.6782947      2082.94     69.46724     20.117    34.15    -6.384493     19.57888     56.78184       201    10.045     3.223 -16.46   3
        19    545.8817   1015.2978 300.0316290 +22.8386558     1058.545     69.53783      1.122     1.91    -12.76763     19.57888     209.0125        13     0.835     0.777 -31.46   0
        20    166.7900   1004.5500 299.9172573 +22.7217314     1084.369     69.41424      4.703     9.16     12.87566     19.57888     42.29599        17     1.930     1.214 -43.03   2
        21    224.3403    979.9116 299.9431606 +22.7319597     636.8774     69.46724      3.131     3.86     3.316578     19.57888     38.47736         5     0.906     0.471  86.48   0
        22    192.4343   1014.2368 299.9220707 +22.7322105     1163.396     69.46724      6.413     6.63     14.40127     19.57888     49.23724        16     1.645     0.949   4.84  19
        23    650.6362    977.7440 300.0764634 +22.8593290     3362.996     69.39657      1.124     1.90    -13.26874     19.57888     567.1629        23     0.950     0.923  49.22   0
        24    199.3977   1010.9625 299.9253004 +22.7333642     2316.876     69.41424      8.060    14.08     13.32072     19.57888     77.16147        55     2.552     2.161 -20.53  19
        25    530.0788    972.5251 300.0406385 +22.8216477     220.7916     69.50254      1.039     4.07    -12.84213     19.57888     46.98452         5     0.737     0.642 -70.46   0
        26    166.2698    999.8803 299.9186161 +22.7202372     789.6216     69.50254      4.307     4.61     11.59719     19.57888     36.74854         5     0.976     0.619  56.03   3
        27    559.2028    968.4178 300.0510389 +22.8292121     708.6789     69.30813      1.067     1.81    -12.84325     19.57888     132.4587        11     0.827     0.697 -51.30   0
        28    188.5322   1004.1040 299.9241575 +22.7281351     637.6973     69.52019      3.763     5.75     11.74761     19.57888       37.724         8     1.384     0.672 -64.91   0
        29      2.3110   1020.8443 299.8608718 +22.6769776     553.4223      56.2565      3.038     6.22    -21.12601     19.57888     36.80039         8     1.847     0.589  67.80  24
        30    109.9471    961.0634 299.9137575 +22.6921962     1270.614     69.44958      8.572    10.04    0.5932955     19.57888     43.39381        15     2.662     1.055  72.19   2
        31    383.6264    962.9457 299.9982000 +22.7749332      3174.08     69.43191      1.104     1.87    -12.96668     19.57888     600.8254        20     0.918     0.812  86.27   0
        32    452.7766    964.8894 300.0190742 +22.7962522     344.6049     69.32583      1.109     2.10    -12.97446     19.57888     104.6346         9     0.779     0.664 -26.38   0
        33    416.0953    949.8246 300.0125691 +22.7809205     234.7563     69.30813      1.028     3.10    -12.95913     19.57888     48.97228         6     0.746     0.562 -60.28   0
        34     75.3826    933.8751 299.9118728 +22.6740231     2007.635     69.39657     16.375    26.91    -9.129604     19.57888     51.03349       178     6.491     3.098 -30.54   3
        35    929.8305    941.4354 300.1752618 +22.9326736     1001.241     69.41424      1.066     1.93    -13.21604     19.57888     182.7808        12     0.828     0.709  35.19   0
        36    637.9250   1008.3099 300.0625534 +22.8642804     4550.591     69.55547      1.130     1.75    -13.35071     19.57888     881.8953        26     0.979     0.900 -60.80   2
        37    163.7923    994.9785 299.9194424 +22.7180886     718.6629     69.37889      4.245     6.55     10.36801     19.57888     37.35263         8     1.296     0.929  28.13   0
        38     71.2007    987.1122 299.8932441 +22.6880172     2226.199     69.29043     25.634    32.46    0.9676055     19.57888     55.51772       227     7.064     4.140  18.76  19
        39     80.3940    972.7023 299.9007902 +22.6866516     2594.219     69.30813     25.691    61.90    0.2137406     19.57888     66.42805       873    14.021     7.583  58.38  27
        40    718.7809    929.8337 300.1132803 +22.8660344     369.4467     69.39657      1.650     3.18    -13.00111     19.57888     49.42651         5     0.861     0.440  43.30   0
        41    753.4567    924.8162 300.1257137 +22.8749986     469.1916     69.37889      1.020     1.95      -13.015     19.57888     92.91384         7     0.676     0.597 -74.52   0
        42    775.7173    918.3788 300.1347434 +22.8798298     5417.365     69.36121      1.057     1.79    -12.97355     19.57888     1027.109        25     0.922     0.862 -87.47   0
        43    966.5140    917.9252 300.1943514 +22.9369267     238.9693     69.50254      1.166     2.47    -13.11624     19.57888     40.02338         6     0.752     0.500  89.24   0
        44    821.4937    917.8492 300.1491771 +22.8934099     183.4784     69.43191      1.019     2.99    -12.97395     19.57888     50.68307         6     0.967     0.440 -27.12   0
        45     87.3392    910.2165 299.9232863 +22.6708370      402.851     69.34352      1.281     3.23     -10.3737     19.57888     52.54099         9     0.882     0.734 -65.57   0
        46    481.0002    905.7979 300.0470898 +22.7877816     220.8693     69.18413      1.376     4.20    -12.84569     19.57888      36.1372         5     1.012     0.539 -76.66   0
        47    784.2031    900.3934 300.1432412 +22.8772147     592.5847     69.21958      0.921     1.59    -12.86697     19.57888     153.6486         9     0.706     0.671  87.42   0
        48     77.0456    901.2574 299.9230053 +22.6651779     390.8038     69.44958      1.552     4.12    -10.94185     19.57888     38.93955         6     1.094     0.443 -28.84   0
        49    636.7660    898.0929 300.0980745 +22.8323200     245.9504     69.34352      1.680     4.01    -12.81735     19.57888     34.88489         6     1.117     0.413  60.23   0
        50    822.5579    893.7265 300.1573607 +22.8868067     502.3762     69.37889      1.300     2.76    -12.83227     19.57888     74.81475         6     0.818     0.486  81.07   0
        51    870.8405    884.6857 300.1753487 +22.8986937     174.8736     69.37889      0.860     2.10    -12.80425     19.57888      61.5015         5     0.699     0.443  14.89   0
        52    434.7936    880.6208 300.0409101 +22.7666921     2039.282     69.37889      1.114     1.98    -12.53054     19.57888     335.6211        19     0.921     0.883 -51.05   0
        53    159.8047    866.5798 299.9599964 +22.6800996     389.1528     69.36121      1.341     2.87    -11.60215     19.57888     60.61972         9     0.962     0.677  69.30   0
        54     68.4439    864.9982 299.9321335 +22.6522052     175.5067     69.37889      0.954     4.12    -12.08567     19.57888     43.30639         6     0.980     0.495 -87.37   0
        55    137.1283    863.4298 299.9539768 +22.6723863     743.3893     69.39657      1.084     2.19    -11.80821     19.57888     139.0604        10     0.840     0.703  29.56   0
        56   1008.7129    852.1145 300.2289296 +22.9306865     1022.649     69.52019      1.102     1.91    -13.15739     19.57888     206.8622        13     0.859     0.717 -48.65   0
        57     11.6366    853.2021 299.9183327 +22.6317606      98.4343     69.41424      1.057     2.51    -12.50104     19.57888     35.66276         5     0.717     0.449 -71.96   0
        58    963.0384    850.6914 300.2151513 +22.9165836      1061.98     69.39657      1.057     1.74    -12.98428     19.57888     218.8794        11     0.791     0.717 -77.40   0
        59    668.6217    850.7468 300.1234015 +22.8282953     232.0358     69.39657      1.074     3.49    -12.60135     19.57888     37.85907         5     0.737     0.476  80.73   0
        60    746.3716    844.7780 300.1495570 +22.8499071     274.4758     69.39657      0.971     1.94     -12.4782     19.57888     63.55537         5     0.679     0.453 -70.64   0
        61    168.8369    844.8377 299.9698772 +22.6765812     129.9385     69.46724      1.052     3.31    -11.89134     19.57888     45.78304         5     0.899     0.412  44.98   0
        62    614.7658    838.7045 300.1105530 +22.8086819     2353.305     69.39657      1.083     1.94     -12.6009     19.57888     436.5745        18     0.928     0.777  86.27   0
        63    416.8874    835.8126 300.0499218 +22.7484683     484.8274     69.34352      1.513     2.55     -12.0184     19.57888     57.62284         8     0.786     0.671 -33.57   0
        64    164.8296    832.6298 299.9726043 +22.6718789     641.1219     69.36121      1.132     2.63    -11.97253     19.57888     114.7826        12     0.960     0.762 -41.08   0
        65    635.3515    831.2021 300.1194028 +22.8127059     429.4883     69.37889      1.381     2.63    -12.50423     19.57888     64.09936         7     0.821     0.702  43.49   0
        66    184.3130    829.6031 299.9796424 +22.6768623     282.5159     69.32583      1.226     3.18     -11.9485     19.57888     41.96228         6     0.882     0.464 -89.27   0
        67   1007.4236    818.5485 300.2394506 +22.9206621     515.8331     69.41424      0.978     1.97    -13.23063     19.57888     91.42064         8     0.764     0.584  -0.10   0
        68    790.6162    818.2957 300.1719569 +22.8555781     2057.833     69.30813      1.055     1.82    -12.23936     19.57888     372.5847        18     0.910     0.865  78.80   0
        69    199.4629    812.6293 299.9898722 +22.6765464        266.3     69.41424      1.185     3.42    -11.96225     19.57888     43.85418         6     0.883     0.477  -5.67   0
        70    507.9323    811.0473 300.0863028 +22.7686907     315.1942     69.37889      1.036     2.46    -12.33949     19.57888     67.36529         7     0.722     0.631 -89.60   0
        71    154.0843    809.1829 299.9768943 +22.6619318     488.8861     69.36121      1.262     2.05     -12.1647     19.57888     84.38851         7     0.713     0.609 -14.45   0
        72    303.8354    801.1686 300.0260399 +22.7045980     26078.98     69.41424      1.195     1.93    -11.78648     19.57888     4709.925        58     1.108     1.054  82.63   0
        73    569.3662    803.8653 300.1077574 +22.7850651     280.4099     69.39657      1.166     1.92    -12.34724     19.57888     47.05049         5     0.684     0.446 -69.34   0
        74    561.5779    800.0852 300.1065633 +22.7816438     835.1346     69.34352      1.117     1.74    -12.30865     19.57888     171.9762        12     0.856     0.745 -64.00   0
        75    232.1298    799.0975 300.0044258 +22.6824761     225.6543     69.52019      1.155     4.75    -11.84376     19.57888     39.95507         6     1.060     0.604  77.30   0
        76    974.4138    799.0554 300.2355005 +22.9051687     463.7775     69.39657      1.001     1.75    -12.82169     19.57888     90.63932         7     0.664     0.598  50.93   0
        77    590.4095    796.0543 300.1168485 +22.7891381      522.703     69.39657      1.220     1.99    -12.25299     19.57888     83.28336         7     0.669     0.638  72.10   0
        78    744.4603    780.8062 300.1697764 +22.8309750     365.0824     69.34352      1.211     2.87    -11.94096     19.57888     64.89157         8     0.815     0.727  27.47   0
        79    353.5078    778.4106 300.0488870 +22.7129834     15355.44     69.34352      1.098     1.99     -11.5469     19.57888     2215.741        41     1.069     0.964 -80.92   0
        80    367.7948    778.9275 300.0531614 +22.7174200     935.4933     69.34352      1.216     2.03    -11.54525     19.57888     172.4071        15     0.947     0.807  77.50   0
        81    876.4855    774.0444 300.2131111 +22.8686267     1307.259     69.37889      1.045     1.77    -11.92598     19.57888      260.006        17     0.865     0.823 -53.25   0
        82    634.7493    770.0593 300.1391082 +22.7949820     593.7195     69.44958      1.254     2.85    -11.90891     19.57888     79.67226        10     0.931     0.726  73.05   0
        83    236.0270    770.2169 300.0150318 +22.6753667     365.6867     69.41424      1.084     2.25    -11.79746     19.57888     66.82397         7     0.685     0.655 -43.73   0
        84    481.5209    764.9476 300.0930826 +22.7475417     404.9824     69.41424      1.173     1.78    -11.59972     19.57888     75.82222         6     0.696     0.497  84.32   0
        85     40.7061    765.1712 299.9559967 +22.6152685     179.3235     69.32583      1.166     3.41    -12.10349     19.57888     39.03112         5     0.721     0.685 -55.60   0
        86    882.7716    761.6310 300.2191085 +22.8669477    -237.1574     69.39657     -4.492     2.57     -11.8473     19.57888     48.94818         5     0.710     0.457  16.67   0
        87    427.4423    759.9894 300.0778725 +22.7298908     282.8771     69.39657      1.147     3.87    -11.34883     19.57888     37.48743         5     1.025     0.418 -24.17   0
        88     68.7069    759.6762 299.9664792 +22.6221032     337.0221     69.53783      1.157     2.34    -12.16444     19.57888      50.7094         5     0.709     0.445  80.11   0
        89    233.5212    754.1533 300.0194781 +22.6700090     287.3631     69.39657      1.219     4.14    -11.77939     19.57888     55.27299         6     0.981     0.499 -88.42   0
        90    548.5760    740.7829 300.1218081 +22.7607293     696.7054     69.39657      1.201     2.83    -11.42766     19.57888     111.7916        11     1.092     0.664  75.20   0
        91    942.9042    739.3466 300.2451015 +22.8785773     2301.875     69.46724      1.065     1.69    -11.66783     19.57888     492.9276        16     0.826     0.782 -34.48   0
        92    468.2238    739.4400 300.0972427 +22.7362346     102.2159     69.43191      1.080     3.47    -11.15461     19.57888      26.1007         5     0.788     0.441  20.42   0
        93    931.3585    730.5966 300.2443484 +22.8726035     844.9472     69.41424      1.085     1.84    -11.62987     19.57888     153.1286        12     0.892     0.683  77.28   0
        94    294.3217    724.9425 300.0478769 +22.6798853     380.4589     69.44958      1.129     2.33    -11.46744     19.57888     59.33733         7     0.711     0.640 -85.34   0
        95    757.5992    721.9962 300.1929993 +22.8180353     1200.391     69.18413      1.148     1.93    -11.54955     19.57888     205.7336        15     1.115     0.759  26.42   0
        96    962.4667    720.7339 300.2572545 +22.8790966      768.774     69.44958      1.014     1.67    -11.56862     19.57888     148.5218        10     0.727     0.693 -76.48   0
        97    839.9392    707.9274 300.2232286 +22.8386865     310.4399     69.43191      1.266     2.69     -11.5073     19.57888     50.80737         7     0.835     0.543  46.93   0
        98    876.1129    698.9890 300.2374087 +22.8469653     71797.23     69.34352      1.154     1.78    -11.49333     19.57888     15301.29        99     1.164     1.071  74.10   0
        99    638.8949    702.7540 300.1622907 +22.7769112     269.9143     69.41424      1.636     4.45    -11.18727     19.57888      36.9627         6     1.074     0.524 -47.35   0
       100   1023.1367    700.6061 300.2827192 +22.8915005     661.8915     56.84218      1.085     1.93    -11.48212     19.57888     108.4036         9     0.735     0.661  52.66  24
       101    728.5406    699.0724 300.1914037 +22.8027408      402.573     69.43191      1.182     2.69    -11.45096     19.57888     74.92139         8     0.862     0.601  36.92   0
       102    909.1382    691.9335 300.2499968 +22.8548399     147.5859     69.43191      0.952     2.80    -11.47025     19.57888     43.35142         6     0.872     0.456  60.65   0
       103    562.3314    688.0898 300.1432263 +22.7497368     789.5226     69.53783      1.189     2.33    -10.93051     19.57888     126.7715        13     0.938     0.763  79.85   0
       104    743.6149    685.2222 300.2006031 +22.8032854     4502.104     69.39657      1.108     1.83    -11.42399     19.57888     824.3638        25     0.957     0.892  64.32   0
       105    245.2371    680.6699 300.0470168 +22.6524561     2462.102     69.37889      1.239     2.27    -11.23705     19.57888     331.1765        20     0.994     0.891  86.11   0
       106    327.3319    678.4371 300.0732627 +22.6764559     642.4575     69.37889      1.101     2.30    -10.99044     19.57888     92.89536        10     0.896     0.658  54.16   0
       107    202.8458    676.3675 300.0352417 +22.6384975      337.123     69.43191      1.339     2.46      -11.236     19.57888     51.19088         5     0.879     0.354  84.96   0
       108    535.5579    674.1873 300.1394148 +22.7377157     536.3565     69.39657      1.520     2.97    -10.79966     19.57888     69.53674         7     0.926     0.476  79.77   0
       109    527.1818    666.1772 300.1394128 +22.7329046     1586.428     69.39657      1.172     1.98    -10.74385     19.57888      286.949        16     0.885     0.824 -87.04   0
       110    517.3068    659.6924 300.1384485 +22.7280814     636.9156     69.55547      1.129     1.94    -10.70188     19.57888     131.8957        11     0.829     0.753  69.09   0
       111    445.4584    659.3903 300.1161928 +22.7064392     169.4919     69.36121      1.210     4.26    -10.77911     19.57888     27.59901         5     1.065     0.485   2.98   0
       112    180.7520    655.9639 300.0350105 +22.6260147     327.6609     69.41424      1.327     2.42    -11.19341     19.57888     49.54044         7     0.738     0.614 -81.10   0
       113    194.9725    654.6182 300.0398667 +22.6298977     244.7783     69.39657      1.083     2.19    -11.19161     19.57888     52.93446         7     0.693     0.645  -5.57   0
       114    442.1751    649.5446 300.1183726 +22.7026294      796.798     69.41424      1.175     2.28    -10.75139     19.57888     133.7583        14     0.948     0.809 -84.96   0
       115     96.1930    644.7286 300.0123943 +22.5974079     9482.605     69.36121      1.241     2.14    -11.18929     19.57888     1425.796        39     1.144     0.988  81.78   0
       116   1017.6317    646.6442 300.2985508 +22.8743503      315.788     69.44958      0.995     2.25    -11.17744     19.57888     69.10662         7     0.808     0.541  32.78   0
       117    859.1300    646.1969 300.2492834 +22.8267147     721.2728     69.34352      0.554     0.93    -11.09458     19.57888     415.0327         5     0.478     0.330  79.20   0
       118    526.8796    644.7600 300.1462825 +22.7266682     408.7921     69.37889      1.218     2.51     -10.6017     19.57888       73.979         9     0.862     0.655 -72.21   0
       119    944.8639    630.6078 300.2810754 +22.8479358     525.1472     69.37889      1.083     1.92    -10.95296     19.57888     116.9727         9     0.760     0.713 -65.87   0
       120     41.7157    630.6027 300.0000678 +22.5770019     424.7484     69.32583      1.478     4.59    -11.17773     19.57888     55.95536        11     1.063     0.866 -51.98   2
       121     42.2895    627.7256 300.0011812 +22.5763494     315.1702     69.55547      0.833     1.75    -11.17758     19.57888     83.26917         5     0.653     0.466 -15.59   3
       122    811.4700    629.0723 300.2399999 +22.8075096     190.5449     69.46724      0.935     3.25    -10.97275     19.57888      68.8146         5     1.050     0.424  30.60   0
       123    490.4178    625.8179 300.1410953 +22.7102948      159.402     69.39657      1.036     2.87    -10.45498     19.57888      45.0488         6     0.742     0.616  36.42   0
       124    885.2965    623.5862 300.2647900 +22.8280650      336.975     69.30813      1.042     1.95    -10.85632     19.57888     63.43699         5     0.633     0.488  -9.02   0
       125    447.5627    617.9854 300.1303089 +22.6951910     332.6364     69.39657      1.222     2.84    -10.59039     19.57888     53.94455         7     0.726     0.649  75.79   0
       126    595.1412    616.8238 300.1766105 +22.7391257     229.1103     69.39657      1.081     2.42    -10.42404     19.57888     44.82603         6     0.725     0.548 -58.88   0
       127    491.1626    613.9614 300.1451815 +22.7071160     510.6049     69.46724      1.405     3.15    -10.36973     19.57888     60.37038         9     0.908     0.683  80.59   0
       128    925.0657    608.9226 300.2819536 +22.8357734     1652.116     69.48489      1.125     1.73    -10.69454     19.57888     365.7807        14     0.833     0.758  85.45   0
       129    456.9301    609.0764 300.1361191 +22.6954450     784.3893     69.48489      1.199     2.35    -10.48972     19.57888     140.9554        11     0.915     0.658  84.21   0
       130   1022.9839    606.7195 300.3132008 +22.8644846    -458.3297     57.67767      0.000     2.48    -10.82684     19.57888     59.23301         7     0.703     0.657 -44.36  24
       131     18.9182    602.9655 300.0019726 +22.5622343      2529.29     69.36121      1.270     2.12    -11.18246     19.57888     409.7316        24     1.049     0.945  75.47   0
       132    964.4127    599.1152 300.2974089 +22.8447483     169.2245     69.34352      1.097     3.42    -10.72917     19.57888     34.81474         5     0.767     0.441  69.62   0
       133    320.3133    596.0023 300.0978807 +22.6507044     4530.424     69.32583      1.227     2.35    -10.93392     19.57888     633.0599        27     1.080     0.917 -83.39   0
       134    442.7789    592.9735 300.1369514 +22.6865791     4259.987     69.37889      1.232     2.05    -10.49784     19.57888     716.0644        25     1.030     0.916  74.10   0
       135    854.4183    586.7301 300.2671483 +22.8082245     956.5636     69.41424      1.226     2.04    -10.65832     19.57888     149.3352        11     0.799     0.744 -13.45   0
       136    938.9892    584.1123 300.2943598 +22.8328196     6066.231     69.34352      1.155     1.80    -10.67886     19.57888     1275.023        31     0.998     0.926  61.85   0
       137    503.3602    582.5469 300.1591885 +22.7017599     5610.013     69.37889      1.167     2.19    -10.19908     19.57888      730.515        27     1.023     0.926  73.88   0
       138    672.6044    577.8759 300.2133886 +22.7511753     184.1063     69.30813      1.133     4.43    -10.14344     19.57888     45.42102         6     1.171     0.477  48.29   0
       139    230.7625    577.9657 300.0759064 +22.6186575     605.7098     69.44958      1.148     2.13    -11.03271     19.57888     119.0629        10     0.815     0.702  33.61   0
       140    435.0097    570.7068 300.1417721 +22.6778591     2159.114     69.34352      1.234     2.04    -10.41707     19.57888      352.826        22     1.038     0.899  61.80   0
       141    777.8387    570.4460 300.2485804 +22.7805925     334.5415     69.44958      0.981     2.08    -10.43647     19.57888     96.68163         8     0.843     0.572 -56.79   0
       142    413.2981    569.0189 300.1355673 +22.6708615     593.8066     69.32583      1.240     2.71    -10.49299     19.57888     86.97635         9     0.907     0.641  52.16   0
       143    167.5846    568.6233 300.0593105 +22.5970167     459.0266     69.39657      1.388     3.17    -10.99338     19.57888     56.25763         5     0.730     0.447  68.91   0
       144    854.6978    565.8936 300.2740085 +22.8023238     811.7874      69.5731      1.272     2.33    -10.60691     19.57888     117.6426        12     0.869     0.790   2.74   0
       145    375.2068    564.3612 300.1252342 +22.6580974     250.7943     69.43191      1.413     2.34    -10.48308     19.57888     41.97555         5     0.721     0.437  20.43   0
       146    735.2738    563.0460 300.2377264 +22.7657071     421.3669     69.39657      1.294     2.78      -10.108     19.57888     52.22412         7     0.732     0.647 -77.29   0
       147    551.6158    558.2346 300.1821077 +22.7092553     98767.53     69.39657      1.238     2.16     -9.88881     19.57888     14728.18       121     1.277     1.248 -54.61   0
       148    237.6743    558.2416 300.0844651 +22.6150744     1681.147     69.37889      1.248     2.26    -10.95985     19.57888     233.0856        18     1.013     0.872  61.48   0
       149    442.3020    538.6450 300.1544608 +22.6708461     1332.854     69.39657      1.343     2.55     -10.2138     19.57888     158.3976        19     1.331     0.855  85.44   0
       150    759.0829    527.3841 300.2567332 +22.7626039     331.5867     69.36121      1.585     3.42    -9.962347     19.57888     36.35868         5     0.795     0.425  20.61   0
       151    839.0950    524.5856 300.2825718 +22.7857827     809.8162     69.32583      1.084     1.91    -10.40063     19.57888     143.7472        11     0.817     0.681  78.68   0
       152    710.4419    522.3010 300.2432345 +22.7465628     1218.237     69.37889      1.117     2.10    -9.787402     19.57888     194.6928        15     0.902     0.815  76.64   0
       153    497.5023    518.2879 300.1782500 +22.6815603      318.479      69.5731      1.085     2.54    -9.955815     19.57888     56.18792         7     0.862     0.535  33.13   0
       154    967.7142    516.0522 300.3254367 +22.8218744     588.0279     69.41424      1.104     2.17    -10.55218     19.57888     110.0029         7     0.697     0.629  76.13   0
       155    953.5029    515.1965 300.3212840 +22.8173704     419.4911     69.30813      1.160     2.76    -10.54242     19.57888     61.34957         7     0.897     0.486  80.89   0
       156    839.5364    515.0427 300.2858106 +22.7831739     968.4224     69.39657      1.167     2.07    -10.35147     19.57888     155.4498        10     0.840     0.659  27.37   0
       157    877.6204    509.8214 300.2993762 +22.7930875     2021.433     69.39657      1.132     1.86    -10.48038     19.57888     374.2662        17     0.920     0.835 -78.28   0
       158    109.5871    500.2722 300.0635037 +22.5600072      496.989     69.41424      1.442     2.50    -10.75901     19.57888     72.92471         7     0.875     0.486  83.56   0
       159    969.3149    500.1194 300.3311135 +22.8177761      406.918     69.53783      1.120     2.04     -10.5041     19.57888     75.85518         7     0.757     0.584 -71.77   0
       160    102.5493    490.6933 300.0644298 +22.5551478     239.7343     69.46724      1.329     3.15    -10.73245     19.57888     40.60329         5     0.748     0.439 -67.32   0
       161    965.7198    488.9967 300.3336069 +22.8135031     230.4956     69.30813      1.317     3.97    -10.46881     19.57888      40.7175         5     1.048     0.431  23.28   0
       162    651.0026    480.3448 300.2383580 +22.7166955      255.921     69.34352      1.221     3.10    -9.752633     19.57888     49.82471         7     0.850     0.639 -70.55   0
       163    965.7032    472.4545 300.3389768 +22.8087449     235.7423     69.48489      1.077     2.65    -10.41505     19.57888     48.53792         5     0.694     0.470 -18.86   0
       164    711.8509    472.1777 300.2599604 +22.7325912     430.0204     69.39657      1.277     3.43    -9.750049     19.57888      48.3289         9     0.910     0.709 -12.17   0
       165    868.8633    468.6475 300.3100258 +22.7786349     592.9789     69.41424      1.246     2.37     -10.3002     19.57888     73.57513         9     0.867     0.619 -63.55   0
       166    853.4314    464.8551 300.3064486 +22.7729211     336.0534     69.41424      1.224     3.18    -10.19304     19.57888     49.89029         8     0.824     0.686  -8.78   0
       167    597.5811    463.1171 300.2273235 +22.6957326     1597.628     69.36121      1.262     2.26    -9.773441     19.57888      245.755        16     0.977     0.851  85.73   0
       168    958.2328    461.5033 300.3402058 +22.8033599     338.9907     69.37889      1.007     2.85    -10.36253     19.57888     44.85177         5     0.727     0.435  25.03   0
       169   1008.7618    442.0378 300.3622860 +22.8129034     690.1303     69.46724      1.181     1.92    -10.50613     19.57888     126.8458         9     0.767     0.659  29.90   0
       170    967.2857    440.6621 300.3497995 +22.8000831     451.1312     69.52019      1.186     3.14    -10.31846     19.57888     86.21442        11     1.092     0.712 -85.14   0
       171    708.1501    436.8551 300.2702834 +22.7213373     361.8033     69.43191      1.142     2.41    -9.758301     19.57888     84.59829         9     0.863     0.619  67.50   0
       172    504.0863    437.4288 300.2065701 +22.6603240     243.7394     69.39657      1.315     2.99    -9.850016     19.57888     38.27922         5     0.736     0.452  20.34   0
       173    212.2575    434.9635 300.1166202 +22.5720834     328.6671     69.39657      1.206     4.08     -10.2644     19.57888     58.21396         8     0.932     0.639 -68.69   0
       174    274.6283    431.1116 300.1372573 +22.5896903     1722.277     69.37889      1.297     2.31     -10.0128     19.57888     254.7883        19     1.043     0.904 -65.65   0
       175   1007.4909    429.3624 300.3660075 +22.8088798     2170.461     69.37889      1.100     2.01    -10.50572     19.57888     310.7903        18     0.912     0.827 -84.09   0
       176    221.7461    425.9552 300.1224952 +22.5723457     3655.728     69.41424      1.296     2.13    -10.16445     19.57888     574.7728        26     1.089     0.977  61.58   0
       177    362.5672    420.1225 300.1681686 +22.6129152     2375.117     69.37889      1.295     2.23     -9.68802     19.57888     346.7328        24     1.092     0.960  67.87   0
       178    987.6815    420.2659 300.3627852 +22.8003315     874.4413     69.50254      1.197     2.27    -10.38824     19.57888     128.5484        15     1.079     0.778  -1.83   0
       179    606.7194    416.7090 300.2452442 +22.6851467     9137.166     69.52019      1.294     2.22     -9.79714     19.57888     1394.248        38     1.162     1.045  78.01   0
       180    940.3626    399.3325 300.3548312 +22.7801406     318.9247     69.37889      1.172     2.57    -10.04307     19.57888     56.86744         7     0.850     0.535  29.13   0
       181    161.3660    397.1612 300.1130843 +22.5459689     932.0467     69.43191      1.190     2.45    -10.20306     19.57888     134.7209        13     0.889     0.786  57.23   0
       182    547.3745    386.1718 300.2366904 +22.6585867     3348.103     69.37889      1.331     2.37    -9.820275     19.57888       384.37        29     1.178     1.012  74.87   0
       183    960.9794    386.3269 300.3654834 +22.7825789     588.3362     69.41424      1.238     2.57    -10.11908     19.57888     108.8354        13     0.929     0.844  26.67   0
       184    262.2600    385.5232 300.1482194 +22.5728984     370.0956     69.44958      1.231     3.36    -9.871964     19.57888     55.13391         5     0.768     0.426  24.06   0
       185    119.5963    378.8349 300.1060590 +22.5281787     198.4177     69.39657      1.106     3.24    -10.15252     19.57888     36.86426         5     0.860     0.490  88.11   0
       186    751.5053    374.9554 300.3038937 +22.7165508     468.8717     69.41424      1.355     3.98     -9.75356     19.57888     56.84216         9     0.894     0.732 -77.38   0
       187    453.9683    372.4282 300.2120887 +22.6266351     2983.868     69.39657      1.350     2.42    -9.638558     19.57888     407.8483        21     1.045     0.965  60.29   0
       188    845.9193    366.4414 300.3360758 +22.7423948     632.7674     69.36121      1.201     2.48    -9.914024     19.57888     109.7303        11     0.952     0.693  34.02   0
       189    438.5992    360.5901 300.2111519 +22.6186281     79.89846     69.21958      1.098     3.46    -9.517753     19.57888     23.97521         5     1.061     0.325 -68.72   0
       190    341.5414    351.8195 300.1838130 +22.5870050      1331.15     69.36121      1.292     2.21    -9.695355     19.57888     200.6762        15     0.930     0.846 -73.07   0
       191     60.0627    349.2007 300.0971901 +22.5018140      525.165     69.36121      1.244     2.79    -10.19676     19.57888     73.53173        10     0.905     0.685  55.54   0
       192    310.8652    341.2180 300.1777171 +22.5747620     14427.95     69.37889      1.308     2.26    -9.666143     19.57888     2076.543        44     1.182     1.044  71.65   0
       193    845.4897    338.2289 300.3451040 +22.7341593     631.0013     69.37889      1.140     2.29    -9.913973     19.57888     86.63673         8     0.700     0.693 -80.93   0
       194      7.2703    329.1546 300.0873048 +22.4802220     2374.363     69.37889      1.251     2.34    -10.40051     19.57888     348.6827        20     1.065     0.856  73.37  16
       195    760.9030    327.2363 300.3223177 +22.7056574     251.8961     69.39657      1.353     4.68    -9.670183     19.57888     35.65579         7     0.871     0.714 -47.76   0
       196    721.0954    320.7256 300.3120318 +22.6918587     872.4075     69.53783      1.303     2.31    -9.531267     19.57888     143.1676        14     0.924     0.873 -72.18   0
       197    936.2497    313.4426 300.3814424 +22.7542234     297.1093     69.43191      1.140     2.55    -10.00273     19.57888     43.91415         5     0.696     0.469  18.51   0
       198    383.1639    305.4943 300.2117983 +22.5861884     1016.703     69.39657      1.393     3.12    -9.442196     19.57888     131.3862        13     1.123     0.701  62.92   0
       199    822.5175    297.8515 300.3510558 +22.7156741     273.4261     69.41424      1.091     2.84    -9.913716     19.57888     44.49041         6     0.764     0.498  86.17   0
       200    458.9070    284.8783 300.2420523 +22.6029784     612.9249     69.52019      1.370     2.67    -9.246201     19.57888     95.09405        10     0.918     0.697  25.65   0
       201    703.7835    276.6560 300.3209478 +22.6740100     1138.472     69.36121      1.298     2.49    -9.389929     19.57888     149.7842        18     1.099     0.879  71.27   0
       202    964.9589    270.7852 300.4042432 +22.7505596     1588.775     69.41424      1.228     2.09    -9.973072     19.57888     257.0947        15     0.933     0.802  84.34   0
       203    412.0161    260.3947 300.2354131 +22.5818904       385.86     69.32583      1.622     3.66    -9.319081     19.57888     40.58546         7     0.873     0.666  67.80   0
       204    117.6435    254.6495 300.1457704 +22.4919621     282.6741     69.43191      1.048     2.81    -9.556577     19.57888     52.15033         7     0.938     0.463 -81.38   0
       205     87.0257    254.9382 300.1361657 +22.4828601     550.7372     69.39657      1.395     3.23    -9.644303     19.57888     77.64756        12     1.087     0.691  -8.37   0
       206    980.5542    251.2096 300.4154608 +22.7496020     221.2104     69.41424      1.138     4.19    -9.883867     19.57888     38.43827         7     1.090     0.459  40.51   0
       207    775.2898    237.8306 300.3558253 +22.6842773     202.2037     69.36121      1.150     3.37    -9.531304     19.57888     41.49762         5     0.859     0.445 -41.54   0
       208    873.3289    226.9368 300.3899118 +22.7105126      921.441     69.43191      1.210     2.60    -9.621515     19.57888     134.1344        13     0.937     0.792  25.16   0
       209    292.0565    224.7520 300.2096773 +22.5356896     1048.488     69.43191      1.361     2.63    -9.376314     19.57888     132.7342        16     1.046     0.856 -86.17   0
       210    369.7695    219.7580 300.2354627 +22.5575564     541.6921     69.43191      1.602     4.02    -9.423291     19.57888      51.7028         9     0.914     0.697 -24.15   0
       211    186.5602    211.7030 300.1811214 +22.5003077     410.6466     69.37889      1.504     3.26    -9.275602     19.57888     46.00799         8     0.873     0.699  45.23   0
       212    789.6649    208.1310 300.3699436 +22.6800479     366.5934     69.44958      1.420     3.81    -9.486525     19.57888     46.88046         8     0.964     0.687  60.18   0
       213    724.5391    208.4787 300.3495424 +22.6606386     831.7281     69.46724      1.286     2.39    -9.383324     19.57888     104.8178        12     0.860     0.810  32.08   0
       214    208.1252    205.6199 300.1897971 +22.5050290     183.9162     69.39657      1.200     4.08    -9.302692     19.57888     37.00126         6     0.760     0.634  62.61   0
       215    995.8932    200.6193 300.4366648 +22.7396492     403.8824     69.32583      1.160     2.44    -9.635486     19.57888     73.03513         7     0.810     0.586  67.04   0
       216    728.6368    199.8301 300.3536256 +22.6593808     366.9453     69.41424      1.301     1.93    -9.383324     19.57888       59.187         5     0.708     0.419  65.64   0
       217    649.0269    199.3053 300.3290027 +22.6353790     621.5472     69.32583      1.245     2.65    -9.341771     19.57888     79.69645        12     0.906     0.815  20.30   0
       218    844.5099    190.5946 300.3927250 +22.6914347     700.6772     69.30813      1.249     2.98    -9.442117     19.57888     97.97476        12     0.997     0.829  -6.46   0
       219    575.3163    191.0326 300.3087389 +22.6109153      595.248     69.36121      1.555     2.53    -9.208349     19.57888     73.37032        10     0.886     0.781  28.73   0
       220    856.4565    189.9599 300.3966541 +22.6948302      435.517     69.37889      1.559     3.09    -9.438245     19.57888     47.14061         9     0.902     0.653  23.66   0
       221   1017.4244    180.4419 300.4499279 +22.7402935     859.9339     69.44958      1.103     2.41    -9.539277     19.57888     114.5274        13     0.920     0.762  71.25   0
       222    973.2049    179.8927 300.4363163 +22.7268963     398.0053     69.29043      1.117     2.51    -9.566467     19.57888     77.24449         8     0.777     0.656  57.56   0
       223    207.3317    173.2457 300.2000557 +22.4954978     278.5571     69.37889      1.430     4.13    -9.245261     19.57888     45.62807         8     0.999     0.788  39.14   0
       224     69.4554    168.3339 300.1588127 +22.4527378     1180.286     69.44958      1.348     3.06    -9.412815     19.57888     130.0815        15     1.113     0.818  86.46   0
       225     18.7601    165.3754 300.1440286 +22.4366822     338.6132     69.43191      1.297     3.39    -9.704972     19.57888     37.19772         5     1.102     0.302  53.93   0
       226    892.2505    164.7049 300.4160061 +22.6982891     442.6639     69.46724      1.449     2.30    -9.408975     19.57888      71.3164         8     0.852     0.575  84.55   0
       227    226.7468    161.5361 300.2098892 +22.4979582     2688.609     69.43191      1.329     2.33    -9.240768     19.57888     353.3578        25     1.077     0.991 -84.68   0
       228     10.9685    155.6895 300.1447516 +22.4315655     629.4375     69.36121      1.277     2.84    -9.700827     19.57888     80.28249        11     0.917     0.777 -79.48   0
       229    210.2478    152.1997 300.2077905 +22.4903306      284.846     69.39657      1.437     3.81    -9.186697     19.57888        31.86         5     0.965     0.431  43.98   0
       230   1023.8162    148.5001 300.4622865 +22.7330212     1352.301     53.11617      0.952     2.39    -9.245969     19.57888     347.6508        12     1.198     0.427  89.55  24
       231    870.7201    142.8255 300.4163945 +22.6855514     1689.771     69.37889      1.214     2.28    -9.232664     19.57888     268.1692        16     0.974     0.803  84.90   0
       232    974.3352    141.3989 300.4491597 +22.7161657      1218.68     69.41424      1.145     2.22    -9.156199     19.57888     183.1838        15     0.972     0.806  55.19   0
       233    420.4281    138.2148 300.2776793 +22.5493244     445.3908     69.41424      1.421     3.46    -8.969048     19.57888     46.77664         5     0.984     0.351 -67.73   0
       234    344.3438    129.6719 300.2567870 +22.5240653     436.7265     69.41424      1.530     3.70    -8.995357     19.57888     42.80724         7     0.955     0.649  83.32   0
       235    110.4051    127.4746 300.1847887 +22.4532926     338.0126     69.32583      1.310     5.08    -9.195771     19.57888     36.77879         9     1.152     0.658  88.04   0
       236    471.6069    125.6275 300.2976852 +22.5610473     1006.585     69.39657      1.465     2.72    -9.043213     19.57888     107.7057        16     0.998     0.904  80.61   0
       237    399.9382    125.6049 300.2753967 +22.5395614     177.4913     69.37889      1.082     3.45    -8.927925     19.57888     41.16288         5     0.773     0.581  81.63   0
       238    214.7047    121.3286 300.2191909 +22.4828041     220.7937     69.50254      1.358     4.81    -9.039814     19.57888     27.25975         6     0.894     0.734 -11.05   0
       239    760.0093    114.9259 300.3909479 +22.6443756     128.6112     69.39657      1.142     4.29    -9.187692     19.57888     48.26799         6     0.971     0.541  89.94   0
       240    245.7495    105.3802 300.2340137 +22.4875329     2853.394     69.37889      1.340     2.47    -8.940281     19.57888     366.0148        24     1.086     0.982  73.18   0
       241     96.9123    104.5913 300.1880202 +22.4426779     459.7277     69.32583      1.422     3.21    -9.196062     19.57888     46.15847         6     0.909     0.501 -75.53   0
       242    491.6341     90.6037 300.3152784 +22.5569872     3083.881     69.39657      1.345     2.43    -8.932174     19.57888     402.4673        23     1.058     0.972 -83.75   0
       243    376.8281     90.5495 300.2795804 +22.5225661     295.2719     69.41424      1.382     1.89    -8.831661     19.57888     48.27077         5     0.660     0.471  20.18   0
       244    686.1586     81.3036 300.3788514 +22.6125919     248.3856     69.41424      1.331     4.30    -8.588551     19.57888     41.60005         6     1.039     0.626  79.76   0
       245    744.3123     80.0929 300.3973576 +22.6296614     469.6155     69.55547      1.317     3.37    -8.832904     19.57888      51.4292         5     0.782     0.421  72.83   0
       246    184.6144     74.1627 300.2251387 +22.4602406     235.2053     69.39657      1.258     3.45    -8.874969     19.57888     39.74659         5     0.731     0.471 -77.37   0
       247    543.2233     72.8040 300.3371069 +22.5673306     178.1437     69.36121      1.245     3.96    -8.668857     19.57888     30.24088         6     0.804     0.559 -48.90   0
       248    619.9998     70.6541 300.3617044 +22.5897137     3270.236     69.30813      1.333     2.43    -8.539996     19.57888     442.8622        23     1.034     0.985  78.29   0
       249    394.7049     69.9509 300.2918219 +22.5220073      772.738     69.44958      1.291     3.21    -8.727693     19.57888     110.6154        12     0.999     0.821  12.79   0
       250    660.9937     68.1091 300.3752944 +22.6012619     383.6351     69.30813      1.378     4.12    -8.395072     19.57888     39.96914         8     0.953     0.616  61.30   0
       251    677.3628     63.9861 300.3817292 +22.6049798       275.91     69.39657      1.240     3.21    -8.323265     19.57888     41.91431         7     0.847     0.610 -17.89   0
       252    143.6854     62.1579 300.2163143 +22.4445223     193.0907     69.36121      1.165     4.56    -8.897737     19.57888     43.58682         8     0.946     0.624  74.20   0
       253    946.9460     61.2982 300.4666050 +22.6849304     199.5455     69.48489      1.078     2.72    -8.475672     19.57888     45.99111         6     0.839     0.530  87.82   0
       254    715.8135     59.1681 300.3952674 +22.6151112     193.7743     69.37889      1.123     3.32    -8.368161     19.57888     45.01463         5     0.952     0.335  42.13   0
       255    664.2113     55.3931 300.3804207 +22.5985708     1327.767     69.27272      1.246     2.38    -8.239644     19.57888     183.0334        16     1.016     0.839  60.84   0
       256    678.6530     53.5304 300.3855222 +22.6023609       301.98     69.39657      1.553     4.63    -8.200651     19.57888     38.86595         6     1.014     0.601  61.66   0
       257    750.7111     46.9688 300.4100947 +22.6220554     770.5777     69.36121      1.332     2.53    -8.175591     19.57888     109.7902        12     0.880     0.826  86.71   0
       258    688.6310     40.1062 300.3929835 +22.6014907      249.733     69.32583      1.381     3.28    -8.023764     19.57888     43.13729         6     0.872     0.607  23.86   0
       259    494.1038     39.4952 300.3326234 +22.5430431     563.5853      69.5731      1.306     2.58    -8.615921     19.57888     78.40373         9     0.871     0.652 -74.27   0
       260    398.1671     37.9590 300.3032744 +22.5138549     483.9893     69.44958      1.590     3.79    -8.611749     19.57888      58.7469        12     1.093     0.889  57.76   0
       261     67.0796     39.2447 300.1999473 +22.4149741     262.6124     69.37889      1.309     4.35    -8.738449     19.57888     37.42133         7     0.769     0.700 -16.17   0
       262    169.5652     27.8930 300.2354676 +22.4424437     1871.198     69.34352      1.294     2.51     -8.67569     19.57888     232.0574        17     1.054     0.815  59.33   0
       263    730.5693     20.1744 300.4125099 +22.6083205      355.455     69.39657      1.171     3.20    -7.654305     19.57888     52.85072         8     0.924     0.624 -85.29   0
       264    285.4985     19.7270 300.2741498 +22.4748512      421.138     69.53783      1.214     3.12    -8.610876     19.57888     79.86644        11     0.988     0.843  87.43   0
       265    209.8593   1016.5135 299.9267436 +22.7380973     1642.551     69.50254     10.318    14.71     14.64908     19.57888     53.89028        43     2.723     2.208 -11.03  19
       266    219.1471   1008.5524 299.9322218 +22.7386063     2771.865     69.43191     13.813    30.24     12.02623     19.57888     66.25742       215     5.260     4.826 -26.21  19
       267    238.7733    998.5866 299.9415656 +22.7416461     4060.301     69.39657      8.140    30.03     4.140383     19.57888     98.00351       326     8.218     3.354  67.64  18
       268    227.9682    991.5452 299.9405004 +22.7363829     1723.057     69.41424      7.473    10.72     5.886352     19.57888     55.04984        39     2.129     1.824  63.42   3
