#   1 NUMBER                 Running object number                                     
#   2 X_IMAGE                Object position along x                                    [pixel]
#   3 Y_IMAGE                Object position along y                                    [pixel]
#   4 ALPHA_J2000            Right ascension of barycenter (J2000)                      [deg]
#   5 DELTA_J2000            Declination of barycenter (J2000)                          [deg]
#   6 FLUX_APER              Flux vector within fixed circular aperture(s)              [count]
#   7 FLUXERR_APER           RMS error vector for aperture flux(es)                     [count]
#   8 FLUX_RADIUS            Fraction-of-light radii                                    [pixel]
#   9 FWHM_IMAGE             FWHM assuming a gaussian core                              [pixel]
#  10 BACKGROUND             Background at centroid position                            [count]
#  11 THRESHOLD              Detection threshold above background                       [count]
#  12 FLUX_MAX               Peak flux above background                                 [count]
#  13 ISOAREA_IMAGE          Isophotal area above Analysis threshold                    [pixel**2]
#  14 A_IMAGE                Profile RMS along major axis                               [pixel]
#  15 B_IMAGE                Profile RMS along minor axis                               [pixel]
#  16 THETA_IMAGE            Position angle (CCW/x)                                     [deg]
#  17 FLAGS                  Extraction flags                                          
         1    790.3885     16.8554 300.4333945 +22.6230987     1092.598     69.44417      1.198     2.20    -8.941387      19.5973     168.8834        14     0.895     0.828  48.27   0
         2    496.0659     14.7013 300.3424254 +22.5343356     322.1587     69.55027      1.526     4.35    -9.167253      19.5973     32.52065         6     0.922     0.584  87.79   0
         3    173.8911     12.1769 300.2430358 +22.4370665     490.7495     69.39105      1.300     3.32    -9.387873      19.5973     66.66185         9     0.986     0.685 -82.89   0
         4    965.2768     10.3601 300.4900253 +22.6735808    -154.2653     69.44417      1.172     3.64    -9.129913      19.5973     66.65425         9     1.123     0.579 -83.90   0
         5    739.0443      9.4046 300.4198106 +22.6055834     463.1444     69.47955      1.289     2.42    -8.571635      19.5973     71.18964         9     0.866     0.631  73.99   0
         6    634.1661   1016.0098 300.0600939 +22.8632317     4167.369     69.42647      1.088     1.68    -12.92369      19.5973     935.3499        24     0.976     0.853  21.07   2
         7    200.0124   1016.0532 299.9250206 +22.7328919     2710.051     69.47955     10.074    23.65     9.433285      19.5973     57.59673       163     4.498     3.454 -30.00  19
         8     80.6017    937.9347 299.9133459 +22.6746386     1872.687     69.46186     14.152    19.71    -8.409492      19.5973     55.68044        72     3.882     2.779  10.48   3
         9     78.2717    982.4785 299.8981245 +22.6867011     2524.354     69.56794     26.528    76.99    0.5431152      19.5973     62.84927      1175    14.466    11.369 -78.14  18
        10    532.1352    977.7126 300.0407980 +22.8216250     192.1159     69.55027      1.013     3.25    -12.91873      19.5973     52.07797         5     0.852     0.452 -49.85   0
        11    927.0630    999.7725 300.1566429 +22.9464472     320.5343     69.46186      1.056     1.90    -13.63874      19.5973     79.20499         6     0.701     0.520 -41.20   0
        12    108.2606    975.1824 299.9098153 +22.6936197     760.7194     69.40876      4.537     3.96     3.237777      19.5973     33.25245         5     1.316     0.342  64.14   2
        13    210.9409   1022.1693 299.9264260 +22.7379271     1618.264     61.62409      3.928    12.34     9.511562      19.5973     55.47131        42     2.355     1.799   1.56  27
        14    804.7347    976.5697 300.1260667 +22.9030956     184.6829     69.47955      1.004     3.41    -13.57174      19.5973     31.03911         5     0.749     0.450  20.19   0
        15    639.7560   1013.7435 300.0625724 +22.8642592     4539.428     69.46186      1.048     1.72     -12.9233      19.5973     937.4654        24     0.927     0.833 -67.83   3
        16    560.9990    973.9954 300.0509923 +22.8292222     761.1323     69.28471      1.048     1.80    -12.91276      19.5973     192.6413         9     0.723     0.681  72.89   0
        17    454.6461    970.4391 300.0190515 +22.7962792      553.423     69.51492      1.081     1.84    -12.90599      19.5973     121.8591         8     0.726     0.687 -71.81   0
        18    385.5096    968.4939 299.9981767 +22.7749657     3270.529     69.62092      1.010     1.83    -12.88908      19.5973     539.2953        19     0.880     0.809 -54.93   0
        19    109.8424    968.0201 299.9126379 +22.6920428      1133.85     69.49724      9.489     9.67     1.352494      19.5973     41.53946        20     1.722     1.516 -76.83   0
        20    168.0283   1009.1588 299.9173255 +22.7213089     1247.704     69.47955     10.336    13.15     11.28029      19.5973     38.76301        32     3.024     1.591  57.27  19
        21    417.9897    955.2720 300.0125840 +22.7809260     195.1334     69.46186      1.187     2.56     -12.8836      19.5973     59.28216         6     0.789     0.604 -40.47   0
        22    239.2750   1003.8338 299.9412020 +22.7411831     4200.469     69.46186      9.832    32.37    0.7383799      19.5973     103.1674       502     9.161     4.684  62.51  18
        23     61.8419    988.3091 299.8911234 +22.6834355     2166.045     69.46186     14.417    17.04    -2.391372      19.5973     55.10681        66     3.118     2.589 -55.89   3
        24     52.2026   1005.4824 299.8825393 +22.6854591     1293.425     69.37334      8.156     9.69    -3.144007      19.5973     34.73308        21     1.968     1.330 -26.41   3
        25    931.7313    947.1418 300.1752322 +22.9327404     1098.104     69.47955      1.076     1.81    -13.21838      19.5973     231.9153        13     0.871     0.787  79.56   0
        26     77.6250   1018.0815 299.8863341 +22.6967066     2378.465     69.44417     18.729    35.62     8.043674      19.5973     57.81855       278     7.500     4.694  -1.00  27
        27    176.8126   1017.2673 299.9174155 +22.7262710     1123.114     69.46186      4.944     6.46     12.18671      19.5973     41.52721        10     1.293     0.906 -84.65  19
        28    720.3548    935.2177 300.1132375 +22.8659161     326.2863     69.47955      1.005     1.80    -12.88502      19.5973     55.95004         5     0.660     0.459  73.50   0
        29    755.3878    930.0315 300.1258394 +22.8749378     459.8965     69.46186      0.922     1.60    -12.89851      19.5973     132.1941         6     0.678     0.483  82.07   0
        30    777.5765    923.7689 300.1347911 +22.8797967     5516.854     69.44417      1.005     1.67    -12.94004      19.5973     1123.773        28     0.951     0.845 -48.66   0
        31    823.1164    923.8895 300.1489429 +22.8934912      177.486      69.5856      1.153     4.38    -13.03894      19.5973     41.61457         6     1.137     0.529 -77.73   0
        32    652.5193    983.1396 300.0765104 +22.8593109     3453.493     69.51492      1.106     1.90    -12.89232      19.5973     579.6791        21     0.979     0.822  47.17   0
        33    482.5815    912.1849 300.0467041 +22.7879589     178.6564     69.44417      1.041     1.98      -12.776      19.5973     40.84028         5     0.669     0.467 -70.45   0
        34    220.6938   1014.8940 299.9318258 +22.7387717     3087.291     69.62092     11.168    27.93     6.922848      19.5973     70.58387       284     5.384     4.893  52.05  27
        35     78.9217    906.8352 299.9229444 +22.6652227     287.3419     69.40876      1.331     2.65     -11.0532      19.5973     43.27486         5     0.763     0.498 -53.61   0
        36    786.2227    905.9955 300.1432696 +22.8772895     727.0923     69.42647      1.032     1.75    -12.88143      19.5973     170.5983         9     0.714     0.660  39.46   0
        37    968.9302    904.7296 300.2006360 +22.9317192     182.5295     69.51492      1.010     2.57    -13.22088      19.5973     52.18208         5     0.765     0.399  17.31   0
        38    638.3350    903.1624 300.0981249 +22.8321109     322.9731     69.44417      0.927     2.06     -12.5961      19.5973     54.06029         5     0.694     0.447  73.29   0
        39    824.3384    899.5251 300.1572532 +22.8868648     452.1485     69.51492      1.002     2.23    -12.96936      19.5973     92.81098         6     0.766     0.501  53.96   0
        40    932.8506    896.1865 300.1921659 +22.9184481     76.10181     69.49724      0.951     2.30    -13.01847      19.5973     42.35346         6     0.717     0.554 -49.34   0
        41    872.5328    890.6193 300.1751730 +22.8987624     320.2072     69.42647      1.189     2.19    -12.99465      19.5973     60.57325         5     0.663     0.472 -69.73   0
        42    723.9133    889.7222 300.1291526 +22.8539288     371.6318     69.60326      0.974     1.91    -12.43789      19.5973     86.84986         6     0.665     0.555  56.00   0
        43    436.6084    886.2363 300.0408435 +22.7667184     2117.393     69.46186      1.045     1.81    -12.57316      19.5973     418.9874        17     0.860     0.832 -15.43   0
        44    735.4267    886.7881 300.1336941 +22.8565405     313.1727     69.46186      0.988     2.08    -12.40857      19.5973     60.88248         5     0.670     0.473 -72.37   0
        45    161.6159    871.8724 299.9600126 +22.6800394     419.3578     69.46186      1.097     2.13    -11.72549      19.5973     96.22144         8     0.805     0.626  31.10   0
        46    139.0077    868.9307 299.9539446 +22.6724067     704.9968     69.44417      1.196     2.17    -11.97899      19.5973     135.4253        10     0.786     0.734 -86.42   0
        47   1010.6016    857.6802 300.2289435 +22.9307031     1075.804     69.37334      1.048     1.88    -12.92274      19.5973     221.2154        10     0.794     0.675  66.12   0
        48    964.9192    856.1052 300.2152087 +22.9165554     931.6193     69.60326      0.961     1.64    -12.89114      19.5973     266.3045         9     0.704     0.634 -38.83   0
        49    616.6402    844.1835 300.1105607 +22.8086799     2327.185     69.47955      1.040     1.76     -12.2056      19.5973     487.8385        19     0.977     0.765 -57.30   0
        50    418.8487    841.3732 300.0499151 +22.7485213     258.6623     69.47955      1.041     2.06     -12.3229      19.5973     57.49193         5     0.684     0.457 -18.23   0
        51    166.8970    838.1640 299.9726202 +22.6719631     757.2518     69.46186      1.106     2.09    -12.28834      19.5973     139.9207        10     0.772     0.708 -58.81   0
        52    637.2846    836.6337 300.1194454 +22.8127071     369.3868     69.42647      0.885     1.75    -12.17482      19.5973     80.51954         5     0.657     0.445 -80.84   0
        53    792.5528    823.8474 300.1719723 +22.8556098      1948.93     69.49724      0.973     1.58    -12.38913      19.5973     446.0882        15     0.783     0.748 -86.31   0
        54   1009.4912    824.0016 300.2395551 +22.9206986     532.7988     69.37334      0.960     1.75    -12.76285      19.5973     121.5403         8     0.681     0.639 -36.00   0
        55    509.4578    816.2421 300.0862850 +22.7685043     356.7802     69.44417      0.960     2.50    -12.24548      19.5973     62.36294         5     0.694     0.480  74.59   0
        56    156.0345    814.5049 299.9769408 +22.6619194     335.1198     69.46186      0.944     1.82    -12.28256      19.5973     104.9045         8     0.709     0.632  64.74   0
        57    571.1584    809.7402 300.1076056 +22.7851518     309.0312     69.44417      1.168     2.28    -12.18363      19.5973     50.97231         7     0.721     0.631  -6.06   0
        58    305.7011    806.6389 300.0260227 +22.7045980     26242.67     69.47955      1.068     1.78    -12.44128      19.5973     4992.185        61     1.083     0.998  68.15   0
        59    563.4981    805.5138 300.1065957 +22.7816409     829.1387     69.62092      1.016     1.96    -12.16499      19.5973     130.8426        12     0.785     0.716  75.69   0
        60    976.4504    804.4251 300.2356190 +22.9051720     429.0078     69.47955      0.964     2.43    -12.56008      19.5973     89.32204         6     0.816     0.451 -72.03   0
        61    233.9975    804.5240 300.0044180 +22.6824662     289.6808     69.37334      1.059     2.43    -12.43139      19.5973     50.58007         6     0.751     0.498   3.10   0
        62    592.6672    801.6556 300.1169317 +22.7892850     491.2497     69.51492      1.037     2.56    -12.11125      19.5973     69.98698         8     0.824     0.624 -60.42   0
        63    603.3140    799.9264 300.1208091 +22.7919829     277.1277      69.5856      0.966     2.53    -12.09697      19.5973     73.95908         6     0.890     0.433  77.63   0
        64    746.3893    786.3419 300.1697893 +22.8309994     384.2622     69.42647      1.112     2.12    -12.16436      19.5973     57.11545         5     0.653     0.479  78.28   0
        65    355.4198    783.8727 300.0488894 +22.7129926     15381.89     69.46186      1.084     1.82    -12.16875      19.5973     2754.508        44     1.017     0.973 -72.00   0
        66    369.7625    784.4821 300.0531522 +22.7174721     1030.571     69.42647      1.026     1.79    -12.15267      19.5973     181.0288        10     0.735     0.667  83.19   0
        67    878.3372    779.5313 300.2131253 +22.8686099     1424.197     69.51492      0.998     1.71     -12.2216      19.5973     254.8837        16     0.855     0.804 -39.85   0
        68    366.3740    778.2167 300.0541361 +22.7146581     348.4636     69.47955      1.045     2.74    -12.13393      19.5973     51.61738         6     0.711     0.619 -22.45   0
        69    636.5759    775.8405 300.1390007 +22.7950488     401.5693     69.49724      1.011     2.21    -12.02436      19.5973     82.49746         7     0.716     0.594  86.26   0
        70    237.8355    775.7780 300.0149608 +22.6753761     258.7744     69.47955      1.027     2.65    -12.35693      19.5973     59.92906         6     0.705     0.587  47.70   0
        71    483.4941    770.6441 300.0930367 +22.7476322     395.2269     69.47955      1.037     1.99    -11.82902      19.5973     67.58241         5     0.639     0.480  70.53   0
        72     42.5256    771.1187 299.9557886 +22.6153973     244.2209     69.56794      0.984     2.32    -12.25275      19.5973     48.23544         6     0.739     0.495  82.97   0
        73    884.8431    767.2993 300.2191321 +22.8670481    -425.5918     69.46186      0.908     1.75    -12.19988      19.5973     55.31881         5     0.686     0.428 -17.62   0
        74    429.2981    765.3555 300.0778932 +22.7298527     324.6913     69.46186      1.201     3.68    -11.99786      19.5973     42.13777         7     0.941     0.640  86.51   0
        75    235.8055    760.0173 300.0194554 +22.6702475     306.6097     69.42647      1.266     2.59    -12.30893      19.5973     48.09383         7     0.809     0.644 -29.40   0
        76    944.7989    744.8658 300.2451218 +22.8785793     2209.808     69.44417      1.031     1.67    -12.25256      19.5973     517.0698        18     0.875     0.814 -18.28   0
        77    550.1970    745.9161 300.1218395 +22.7605497     583.9069     69.39105      1.148     1.99    -11.59136      19.5973     104.1357         9     0.737     0.688  27.62   0
        78    631.7966    740.7324 300.1489308 +22.7835394     97.21797     69.44417      1.000     3.54    -11.92262      19.5973     29.97912         5     0.726     0.695 -70.45   0
        79    933.1205    736.0717 300.2443404 +22.8725529     850.0737     69.56794      0.991     1.81    -12.17841      19.5973     194.9413        10     0.746     0.647 -89.03   0
        80    296.3579    730.2647 300.0479564 +22.6798909      362.887     69.44417      1.048     2.30     -11.9984      19.5973      68.4147         9     0.804     0.696  11.80   0
        81    759.5272    727.5925 300.1929903 +22.8180739     1181.936     69.44417      0.997     1.88    -12.07996      19.5973     198.4014        14     0.838     0.736 -87.28   0
        82    964.3622    726.3275 300.2572515 +22.8791188     730.6725     69.42647      0.919     1.72    -12.22837      19.5973     175.5733         9     0.714     0.627  19.55   0
        83    144.8880    713.9485 300.0061792 +22.6297442     270.8948     69.49724      1.134     1.70     -12.2536      19.5973     76.83514         6     0.677     0.523  46.58   0
        84    842.0242    712.9215 300.2234698 +22.8385963     182.4396     69.44417      1.187     3.29    -11.90104      19.5973     48.82277         6     0.784     0.746  10.77   0
        85    877.9971    704.4970 300.2374224 +22.8469611     72821.95     69.37334      1.010     1.60    -11.77064      19.5973      15223.6        93     1.084     1.030  80.52   0
        86    730.5038    704.8011 300.1913593 +22.8028278     230.1513     69.37334      0.912     2.14    -11.96238      19.5973     71.95869         7     0.780     0.549  -3.21   0
        87    910.7123    697.1880 300.2499984 +22.8546686     190.0829     69.40876      1.043     2.00    -11.71367      19.5973      50.8885         5     0.705     0.429 -75.06   0
        88    564.3665    693.3295 300.1433505 +22.7497091     720.4703     69.46186      1.054     2.59    -11.38186      19.5973      121.916        12     0.858     0.750  77.80   0
        89    745.4935    690.6656 300.2006256 +22.8032641      4593.26      69.5856      1.031     1.79    -11.92283      19.5973     845.8485        22     0.924     0.821  64.71   0
        90    247.0842    686.0074 300.0470267 +22.6524089     2523.698     69.39105      1.174     1.94    -11.67867      19.5973     477.3029        21     0.921     0.866  65.86   0
        91    329.1171    683.8653 300.0732299 +22.6764137     530.4449     69.56794      1.011     1.77    -11.47725      19.5973       127.81         9     0.811     0.606  67.19   0
        92    537.4299    679.1626 300.1395714 +22.7375635     358.2928     69.47955      1.219     2.66    -11.29504      19.5973     64.20258         7     0.852     0.574  39.14   0
        93    528.9698    671.6083 300.1393941 +22.7328578     1526.887     69.46186      1.072     1.80      -11.265      19.5973     307.0843        14     0.861     0.740  34.65   0
        94    519.2346    665.3088 300.1384119 +22.7281297     724.2916     69.44417      1.080     1.92    -11.21473      19.5973     128.5283        11     0.841     0.679  37.90   0
        95    182.4742    661.8105 300.0348101 +22.6260767     278.8771     69.46186      0.973     2.49    -11.84853      19.5973     69.14642         5     0.710     0.461 -69.31   0
        96    197.0128    659.9460 300.0399347 +22.6299059     311.6854     69.47955      1.005     2.38    -11.71603      19.5973     73.55331         8     0.894     0.558 -68.78   0
        97    966.1949    656.2250 300.2806177 +22.8595312     254.0256     69.44417      0.837     1.64    -11.78834      19.5973     74.09576         6     0.677     0.508  45.46   0
        98    443.9946    655.0991 300.1183164 +22.7026292     883.6319     69.35562      1.190     2.04      -11.134      19.5973     161.0292        12     0.839     0.771  67.09   0
        99   1019.7673    652.2146 300.2986306 +22.8744329     510.0219     69.21372      1.225     2.71    -12.30564      19.5973     99.14048         7     0.976     0.490 -16.83  16
       100     98.0570    650.2423 300.0123393 +22.5974188     9389.503     69.42647      1.178     1.95    -11.92156      19.5973     1699.834        31     0.991     0.945  68.77   0
       101     18.6350    651.7059 299.9871934 +22.5739938     158.0681     69.44417      1.085     2.66     -11.5079      19.5973     57.86945         7     0.917     0.474 -83.78   0
       102    528.9518    650.3178 300.1463099 +22.7267421     436.7731     69.47955      1.050     2.01    -11.12717      19.5973     113.0939        10     0.823     0.656  85.96   0
       103    222.8378    656.6660 300.0490281 +22.6367164     352.8727     69.44417      1.075     3.39    -11.50429      19.5973     50.28251         5     0.747     0.445  15.15   0
       104    946.7712    636.5152 300.2809682 +22.8480482     481.3859     69.46186      0.954     1.78     -11.4321      19.5973     127.4946         8     0.784     0.568 -86.87   0
       105     44.0104    634.4183 300.0006938 +22.5766562     770.8122     69.42647      1.673     5.24    -11.50495      19.5973     90.90724        15     1.552     0.688 -84.55   0
       106    110.3014    634.8674 300.0211409 +22.5966860     148.7328     69.55027      1.088     4.77    -11.67945      19.5973     30.17722         6     0.935     0.690 -21.47   0
       107    491.9161    631.0339 300.1410516 +22.7100987     270.4214     69.42647      1.172     4.20    -10.99882      19.5973     52.73576         6     0.898     0.560   0.33   0
       108    887.2640    628.9689 300.2648674 +22.8280461     398.6122     69.47955      1.295     1.79    -11.14995      19.5973     72.35512         7     0.676     0.608  58.20   0
       109    449.0719    623.3155 300.1302279 +22.6950317      385.554     69.56794      0.973     1.89    -10.95222      19.5973     71.88789         5     0.676     0.442  16.21   0
       110    596.9683    622.1909 300.1766273 +22.7390682     254.3306     69.46186      0.886     1.89    -10.95414      19.5973     58.63903         5     0.739     0.442 -57.57   0
       111    644.6564    620.4606 300.1920394 +22.7528719     287.3063      69.5326      1.213     3.57    -11.08456      19.5973     45.34711         6     0.922     0.411  19.96   0
       112    493.4370    619.1862 300.1453759 +22.7071547     499.3535     69.46186      1.423     2.83    -10.92884      19.5973     66.42879         7     0.805     0.622  27.83   0
       113    926.9404    614.4603 300.2819539 +22.8357694     1459.174      69.5326      0.988     1.68    -11.18833      19.5973      309.491        13     0.772     0.715 -40.62   0
       114    458.7438    614.6132 300.1360660 +22.6954357     753.1595     69.44417      1.066     2.19    -10.90612      19.5973     149.8258        11     0.811     0.747  -8.07   0
       115     20.7837    608.3922 300.0019386 +22.5622210     2490.391     69.39105      1.164     2.02    -11.30177      19.5973     400.8437        21     1.004     0.874 -81.43   0
       116    322.2826    601.4150 300.0979056 +22.6507095     4421.372     69.44417      1.131     2.01    -10.93897      19.5973     666.9999        24     0.964     0.898  48.66   0
       117    444.6537    598.4135 300.1369469 +22.6865601     4310.378     69.46186      1.128     2.00    -10.73564      19.5973     691.7612        24     0.976     0.901  69.31   0
       118    856.2042    592.0946 300.2671709 +22.8081452     1029.257     69.37334      1.188     2.00     -10.8469      19.5973      180.281        12     0.905     0.733  89.46   0
       119    940.8572    589.5592 300.2943873 +22.8327861     6066.824     69.44417      1.025     1.68    -11.08344      19.5973     1203.136        27     0.907     0.877  85.19   0
       120    505.2303    587.9346 300.1592036 +22.7017222     5643.595     69.46186      1.188     2.10    -10.54014      19.5973     914.7696        26     0.993     0.921  54.99   0
       121    674.7393    583.9819 300.2132650 +22.7514183     215.5769     69.40876      1.025     2.41    -10.90439      19.5973     49.17259         7     0.713     0.649  57.46   0
       122    232.7132    583.4459 300.0758960 +22.6186781     737.5576     69.44417      1.099     1.95    -10.89547      19.5973      119.096        10     0.796     0.674  41.50   0
       123    436.9022    576.1339 300.1417757 +22.6778409     2177.976     69.55027      1.194     1.95    -10.48513      19.5973     374.8609        22     0.974     0.908  38.78   0
       124    779.4088    576.0092 300.2484646 +22.7805070     299.7509     69.35562      1.021     2.36    -10.76108      19.5973     65.55795         7     0.690     0.661 -41.84   0
       125    415.2583    574.5232 300.1355651 +22.6708863     572.2415     69.49724      1.024     2.04    -10.54252      19.5973      119.861         9     0.847     0.608  77.23   0
       126    169.7375    574.0724 300.0593679 +22.5970905      357.335     69.49724      1.204     2.52    -10.88627      19.5973     64.00874         7     0.732     0.697 -32.87   0
       127    856.5490    571.3119 300.2740329 +22.8022786     853.4594     69.49724      1.264     2.76    -10.74431      19.5973     102.6919        14     0.934     0.880  -1.62   0
       128    553.4863    563.6658 300.1821110 +22.7092279     98637.25     69.55027      1.156     2.07    -10.20344      19.5973     16347.94       125     1.232     1.193 -55.32   0
       129    737.0386    568.3651 300.2377471 +22.7656108     512.5144     69.51492      1.426     2.47    -10.70811      19.5973     62.67352         7     0.732     0.608  28.12   0
       130    239.7047    563.7864 300.0844579 +22.6151364     1639.082     69.39105      1.124     2.02    -10.74487      19.5973     297.3059        16     0.928     0.815  70.72   0
       131    805.5469    559.5446 300.2619607 +22.7836126     192.0667     69.49724      1.003     3.68    -10.69057      19.5973     42.49338         6     0.908     0.451  15.55   0
       132    288.6738    546.8033 300.1052013 +22.6249570     228.2727     69.37334      1.259     2.10    -10.58476      19.5973     42.29576         5     0.714     0.431  71.18   0
       133    444.1243    543.9463 300.1544823 +22.6707691     1341.308     69.49724      1.288     2.37    -10.07287      19.5973     188.6109        16     1.016     0.803  74.25   0
       134    841.0858    530.0655 300.2826165 +22.7857956     855.7007     69.55027      1.127     1.78    -10.60335      19.5973     184.3108        11     0.792     0.741 -35.36   0
       135    712.2349    527.7605 300.2432145 +22.7465141     1385.441     69.49724      1.209     2.07    -10.51445      19.5973      224.563        15     0.990     0.787  55.84   0
       136    616.9929    524.4098 300.2146395 +22.7169995     313.2247     69.32018      1.468     4.37     -10.2128      19.5973     45.53015         7     0.974     0.610  53.30   0
       137    499.8337    523.6847 300.1784021 +22.6816609     382.4769     69.42647      1.149     3.50    -9.794438      19.5973     46.19557         7     0.896     0.706  82.49   0
       138    969.6188    521.6360 300.3254300 +22.8218874     621.6628     69.46186      1.022     2.23    -10.83267      19.5973     107.7143        11     0.874     0.697 -23.12   0
       139    841.3047    519.8962 300.2859891 +22.7829398     1275.357     69.63857      1.515     3.65    -10.59406      19.5973     156.9875        18     1.582     0.740  80.52   0
       140    879.4572    515.2275 300.2993990 +22.7930314     2057.305     69.46186      1.035     1.86    -10.60657      19.5973     372.6825        14     0.797     0.766  47.05   0
       141    971.2386    505.7452 300.3310984 +22.8178061     340.6065     69.46186      1.193     2.61    -10.77824      19.5973     59.97462         6     0.728     0.548 -54.17   0
       142    111.7242    505.7927 300.0635253 +22.5600954     452.1115     69.39105      1.134     2.12    -10.75563      19.5973     87.27048         9     0.801     0.668  83.65   0
       143    711.5250    490.0062 300.2552597 +22.7354579      258.149     69.39105      1.224     2.26    -10.35284      19.5973     43.91917         6     0.744     0.497 -84.67   0
       144    652.9725    485.8275 300.2383792 +22.7167065     372.4047     69.42647      1.207     2.26    -10.18715      19.5973     64.25908         7     0.696     0.649  74.70   0
       145    713.7075    478.0651 300.2598188 +22.7326823     464.2204     69.56794      1.382     1.76    -10.30703      19.5973     73.60948         7     0.662     0.618 -76.63   0
       146    871.0568    474.0604 300.3101549 +22.7786861     522.2302      69.5326      1.206     2.55    -10.56065      19.5973     104.2483        10     0.880     0.806  47.86   0
       147    855.2756    470.2978 300.3064578 +22.7728764     286.5961     69.60326      1.176     2.14    -10.56155      19.5973     57.33195         5     0.698     0.438  80.57   0
       148    599.5012    468.6849 300.2272966 +22.6957538     1608.945     69.62092      1.154     2.07    -9.813994      19.5973     255.5384        18     0.960     0.858 -80.32   0
       149    959.8927    467.1219 300.3401080 +22.8033074     247.5715     69.60326      1.195     2.56    -10.65868      19.5973     50.25474         7     0.804     0.632 -30.15   0
       150   1010.6193    447.3248 300.3623603 +22.8128125     557.2993     69.46186      0.977     1.79    -10.72555      19.5973     122.7366         9     0.736     0.649  63.12   0
       151    969.0087    446.2622 300.3497271 +22.8000431     600.8281     69.40876      1.158     2.02    -10.66383      19.5973     114.5823        10     0.817     0.689  89.37   0
       152    882.7160    447.1929 300.3225174 +22.7744591     302.6543     69.39105      1.077     2.27    -10.58401      19.5973     50.76957         6     0.702     0.587  21.23   0
       153    710.1436    442.5284 300.2702521 +22.7214065     438.6562     69.47955      1.117     2.30     -10.1907      19.5973     88.41231         8     0.813     0.619  51.94   0
       154    214.0180    441.0786 300.1163360 +22.5722234     340.3835     69.46186      1.322     3.21    -10.55884      19.5973     49.19314         7     0.913     0.565  12.05   0
       155    276.5201    436.5597 300.1372350 +22.5896763      1813.24     69.44417      1.175     2.23    -10.13435      19.5973     272.5106        17     0.986     0.838 -83.49   0
       156   1009.4377    434.6795 300.3660992 +22.8088238     2083.338     69.42647      1.055     1.75    -10.70554      19.5973     416.1476        16     0.899     0.789  73.07   0
       157    223.7656    431.4607 300.1224897 +22.5723878     3610.029     69.47955      1.207     2.18    -10.55343      19.5973     533.5962        22     1.010     0.888  62.36   0
       158    364.5014    425.6060 300.1681540 +22.6129211      2374.65     69.35562      1.147     2.13    -9.791256      19.5973      337.343        20     0.996     0.887 -82.88   0
       159    989.4514    425.8952 300.3627184 +22.8003125     825.8577      69.5326      1.002     1.70    -10.67264      19.5973     177.2429        10     0.797     0.634  56.88   0
       160    608.5569    422.1748 300.2452232 +22.6851115     9108.517     69.49724      1.216     2.19       -9.732      19.5973     1315.752        38     1.106     0.998  75.78   0
       161    625.0638    423.0766 300.2500705 +22.6903185     339.8139      69.5326      1.455     3.05    -9.772898      19.5973     40.44754         7     0.841     0.651  56.27   0
       162    805.2659    412.6043 300.3096101 +22.7413148     287.4074     69.46186      1.273     3.49    -10.57812      19.5973     35.17236         6     0.723     0.652  70.25   0
       163    942.1260    404.6032 300.3548743 +22.7800169     426.3519     69.37334      1.084     2.04    -10.62086      19.5973     100.3358         8     0.783     0.624 -63.85   0
       164    163.4101    402.3541 300.1131822 +22.5459291     928.9424     69.47955      1.146     2.39    -10.51203      19.5973     123.2046        14     0.965     0.780  58.48   0
       165    549.2745    391.6667 300.2366734 +22.6585790     3083.718      69.5326      1.210     2.21    -9.677241      19.5973      434.378        23     1.009     0.940  47.40   0
       166    962.9756    391.7973 300.3655351 +22.7825812     585.7004     69.40876      1.061     1.73    -10.62869      19.5973     138.3069         9     0.834     0.566 -23.94   0
       167    121.5819    384.2281 300.1060696 +22.5281791     130.2932     69.46186      1.015     2.24    -10.57561      19.5973     48.70274         5     0.693     0.455 -68.68   0
       168    753.5787    380.5844 300.3039019 +22.7166272     611.3343     69.44417      1.226     3.27    -10.14538      19.5973     90.55998        11     1.007     0.745  73.27   0
       169    455.8463    377.9547 300.2120471 +22.6266319     2995.207     69.49724      1.284     2.10    -9.682594      19.5973     484.3238        22     0.995     0.948  24.26   0
       170    945.1335    372.3696 300.3662799 +22.7716527     300.5392     69.46186      1.170     2.23    -10.60913      19.5973     57.49835         5     0.712     0.439  21.00   0
       171    847.7619    372.1906 300.3359796 +22.7424336      641.624     69.47955      1.165     2.17     -10.4989      19.5973     103.1015         9     0.770     0.686  16.65   0
       172    820.7923    359.8298 300.3315870 +22.7308017     284.1399     69.46186      1.228     3.63    -10.39029      19.5973     42.09715         6     0.773     0.545  47.63   0
       173    343.5542    357.1978 300.1838520 +22.5870018     1261.874     69.46186      1.325     2.56    -9.786629      19.5973     150.5965        16     0.941     0.927   3.79   0
       174     61.9355    354.4205 300.0972160 +22.5017312     444.7328     69.44417      1.135     3.15    -10.66364      19.5973      70.2601         9     0.932     0.663 -83.96   0
       175    312.7943    346.6985 300.1776941 +22.5747635     14456.73     69.35562      1.272     2.19    -9.794858      19.5973     2319.311        43     1.132     1.055  68.92   0
       176    847.2651    343.8275 300.3450342 +22.7341334     656.6267     69.44417      1.221     2.45     -10.3967      19.5973     104.3934        10     0.842     0.738  73.56   0
       177      9.0894    334.4842 300.0872735 +22.4801553       2353.2      69.5856      1.202     2.32    -10.47476      19.5973     344.4802        19     0.965     0.885  69.90   0
       178    187.0530    332.9474 300.1430650 +22.5331042     135.3295     69.49724      1.168     2.06    -10.03638      19.5973     44.00057         5     0.589     0.582  69.95   0
       179    411.4566    331.8760 300.2131957 +22.6000921     307.3508     69.49724      1.322     3.56    -9.741536      19.5973     40.70568         5     0.938     0.652 -15.72   0
       180    723.0557    326.1865 300.3120543 +22.6918514     987.4467     69.46186      1.221     2.70    -9.784372      19.5973     132.3114        13     0.953     0.780  48.24   0
       181    938.4634    318.3952 300.3817246 +22.7541395     328.7737     69.42647      1.220     3.09    -10.52358      19.5973     71.43408         5     0.790     0.422 -66.58   0
       182    385.0945    310.9167 300.2117982 +22.5861701     1085.753     69.63857      1.443     3.33      -9.7148      19.5973     117.9578        16     1.221     0.798  86.21   0
       183    824.1768    303.2180 300.3510216 +22.7155456     299.6588     69.46186      1.198     1.89    -10.05905      19.5973     61.21032         6     0.719     0.503  49.42   0
       184    706.5159    301.3456 300.3149657 +22.6797579     168.9951     69.51492      1.213     4.71    -9.726631      19.5973     37.60275         7     0.880     0.716 -77.20   0
       185    460.9737    290.2323 300.2421215 +22.6029782     630.2172     69.46186      1.481     3.17    -9.699023      19.5973     71.86711        12     1.020     0.792 -44.58   0
       186    705.6183    282.0283 300.3209566 +22.6739382     1174.648     69.44417      1.262     2.50    -9.673027      19.5973     152.0105        16     0.994     0.860  36.49   0
       187    966.7265    276.3033 300.4042027 +22.7505019     1604.288      69.5856      1.121     1.85    -10.38421      19.5973     275.7997        18     0.952     0.844  10.19   0
       188     88.8123    260.2271 300.1361398 +22.4827664     650.0705     69.46186      1.509     3.35    -9.872181      19.5973     70.05242        13     1.022     0.869 -48.15   0
       189    119.5955    260.0301 300.1457683 +22.4919434     281.3155     69.44417      1.326     3.73    -9.895822      19.5973     41.25729         6     0.817     0.489 -86.14   0
       190    173.0968    252.4436 300.1648568 +22.5058124     290.8869     69.47955      1.573     4.03    -9.836783      19.5973     38.26552         6     0.974     0.487   6.81   0
       191    777.3492    243.3215 300.3558689 +22.6843031     365.9429     69.46186      1.157     2.84    -9.643454      19.5973       49.888         5     0.726     0.450  73.85   0
       192    875.2238    232.5328 300.3898768 +22.7105161     812.0465     69.44417      1.097     2.31    -9.955041      19.5973      146.289        11     0.923     0.658  73.39   0
       193    293.9186    230.0521 300.2096848 +22.5356147     1081.524     69.49724      1.293     2.45    -9.601711      19.5973     154.3675        15     0.975     0.830  43.66   0
       194    371.8310    225.1796 300.2354984 +22.5575736     538.8466     69.46186      1.440     2.69    -9.585138      19.5973     64.84839        11     0.866     0.814  45.36   0
       195    773.1881    224.4265 300.3607042 +22.6776257     323.7975     69.46186      1.598     4.92     -9.55854      19.5973     39.57581         6     1.247     0.550 -37.03   0
       196    188.6832    217.0975 300.1811709 +22.5003405     374.9889     69.62092      1.345     3.24    -9.722459      19.5973     46.54228         7     0.760     0.630  75.02   0
       197    726.4171    213.9778 300.3495216 +22.6606126     863.5637     69.44417      1.252     2.55    -9.420673      19.5973     105.6729        12     0.899     0.764  34.29   0
       198    791.6091    213.3898 300.3700262 +22.6799708     321.3625     69.35562      1.246     2.81    -9.514663      19.5973     52.73774         5     0.728     0.479 -80.11   0
       199    209.9064    210.3774 300.1899485 +22.5047755     240.3186     69.37334      1.339     4.68    -9.706627      19.5973     34.90009         7     1.002     0.621  87.26   0
       200    997.8150    206.1781 300.4366580 +22.7396455     394.0963     69.46186      1.004     2.03    -9.910304      19.5973     78.41351         8     0.759     0.602  50.63   0
       201    730.4630    205.3736 300.3535741 +22.6593516     283.0559     69.46186      1.067     2.40     -9.37356      19.5973     50.27211         5     0.687     0.482 -75.03   0
       202    651.1479    204.6858 300.3290900 +22.6353934     618.7607     69.47955      1.290     2.69    -9.317109      19.5973     90.72566        11     0.959     0.752   7.59   0
       203    846.4009    196.1948 300.3926834 +22.6914374      745.326     69.28471      1.241     2.37      -9.5824      19.5973     93.41921         9     0.774     0.729 -63.92   0
       204    577.2599    196.4786 300.3087439 +22.6108972     417.5403     69.49724      1.195     3.05    -9.263477      19.5973     67.24339         8     0.901     0.753  22.63   0
       205    858.4675    195.3158 300.3967301 +22.6947982     345.5339     69.56794      1.195     2.38    -9.623028      19.5973     54.85372         5     0.692     0.454 -66.66   0
       206   1019.3041    185.8833 300.4499466 +22.7402419     748.4773     69.63857      1.123     2.10    -9.729339      19.5973     149.2393         9     0.777     0.685  66.17  16
       207    974.9832    185.4662 300.4362573 +22.7268536      573.954     69.44417      1.155     2.30     -9.72029      19.5973     99.25912         8     0.745     0.688 -43.01   0
       208    209.2910    178.9941 300.1999392 +22.4955809     394.9676     69.37334      1.454     2.43     -9.68401      19.5973     60.79004         7     0.722     0.639  77.46   0
       209     71.1696    173.6521 300.1587492 +22.4526274      936.238     69.49724      1.216     2.45    -9.256917      19.5973     134.8911        14     0.920     0.841  66.96   0
       210    894.4606    170.1786 300.4161073 +22.6983486     251.4423     69.42647      1.019     2.46    -9.509088      19.5973     70.48636         6     0.760     0.498 -88.83   0
       211    228.6398    166.9558 300.2098596 +22.4979258     2900.081      69.5326      1.328     2.22    -9.667437      19.5973     421.3058        23     1.115     0.931  81.50   0
       212     12.9134    161.4753 300.1446031 +22.4316597     674.5499      69.5856      1.285     2.85     -9.12201      19.5973     103.9746        14     1.016     0.844  65.86   0
       213    212.0085    157.4088 300.2077865 +22.4901982     384.6031     69.32018      1.195     3.74    -9.639445      19.5973     62.38447         6     1.047     0.445 -31.96   0
       214    872.5909    148.2912 300.4163899 +22.6855066     1528.983     69.39105      1.136     2.13    -9.321136      19.5973     232.5958        17     0.934     0.858  49.20   0
       215    976.2066    146.9918 300.4491216 +22.7161546     1263.336     69.32018      1.150     1.93    -9.432231      19.5973     265.3416        13     0.830     0.766   7.99   0
       216    345.9861    135.2355 300.2566399 +22.5239944     500.8023     69.46186      2.016     4.57    -9.180041      19.5973     38.51661         7     1.041     0.574 -19.50   0
       217    112.1944    132.4617 300.1848569 +22.4531068     224.9535     69.44417      1.336     3.44    -9.252739      19.5973     38.58045         7     0.851     0.630  75.79   0
       218    473.4179    130.7893 300.2977301 +22.5609078     836.1385     69.42647      1.300     2.75    -9.133015      19.5973     112.2964        14     0.928     0.885  33.95   0
       219    247.5492    110.9104 300.2339179 +22.4875013      2978.02     69.47955      1.332     2.38    -9.165135      19.5973     413.2961        28     1.164     0.979  77.81   0
       220     98.7626    109.6204 300.1880917 +22.4425218     301.0335     69.47955      1.223     3.82    -9.222149      19.5973     46.88618         6     0.995     0.422  86.48   0
       221    493.5332     96.0800 300.3152485 +22.5569623     2985.351     69.56794      1.298     2.36     -9.06986      19.5973     400.0425        24     1.056     0.990 -86.77   0
       222    379.1030     95.9534 300.2796824 +22.5226364     214.3506     69.49724      1.219     2.39    -9.087103      19.5973     61.97137         8     0.830     0.617  47.93   0
       223    745.9675     85.7453 300.3972128 +22.6296066     443.1107     69.47955      1.295     1.74    -8.964411      19.5973     71.33102         7     0.677     0.609  16.46   0
       224    838.7156     84.2836 300.4265919 +22.6569582     226.3571      69.5856      1.146     2.64    -9.047727      19.5973     44.81793         5     0.734     0.435 -78.25   0
       225    186.4758     79.7592 300.2250345 +22.4602469     183.7656     69.42647      1.132     2.56    -9.139477      19.5973     43.64819         5     0.718     0.453  67.83   0
       226    545.1505     78.6011 300.3369847 +22.5674041     225.2038     69.44417      1.359     4.43    -9.008009      19.5973     26.77687         5     1.161     0.482  -4.72   0
       227    621.8969     76.0729 300.3617011 +22.5896673     2989.549      69.5856      1.281     2.35    -8.784784      19.5973      449.439        22     1.028     0.955  78.64   0
       228    396.8330     75.1904 300.2919318 +22.5219849     735.6756     69.44417      1.305     2.36    -9.084211      19.5973     120.9679        13     1.013     0.764 -66.78   0
       229    662.8958     73.3283 300.3753602 +22.6011583     417.3986     69.56794      1.252     3.01    -8.754446      19.5973     64.40358        10     0.883     0.781  -9.03   0
       230    145.6861     67.9129 300.2161984 +22.4446165     241.8135      69.5856      1.105     1.93     -9.20664      19.5973     68.99134         5     0.689     0.437  73.01   0
       231    949.0340     66.9501 300.4666094 +22.6849984     211.6156     69.49724      1.112     4.08    -9.096691      19.5973     43.22625         6     1.008     0.532  16.40   0
       232    717.5698     64.9122 300.3951212 +22.6151129     349.9217     69.44417      1.640     4.71    -8.805945      19.5973     33.50876         8     1.044     0.602  67.56   0
       233    666.0333     60.9642 300.3803471 +22.5985437     1357.978     69.49724      1.275     2.50    -8.706827      19.5973     208.6076        16     0.986     0.827  59.67   0
       234    306.9180     61.9280 300.2682639 +22.4912285     296.6582      69.5856      1.360     3.64    -9.203136      19.5973     35.75977         5     0.633     0.603  -9.10   0
       235    752.3552     52.5818 300.4099580 +22.6219842     855.0378     69.47955      1.371     2.73    -8.840584      19.5973     91.14244        13     0.994     0.799  37.12   0
       236    690.6810     45.7231 300.3929671 +22.6015437     267.3611     69.56794      1.128     3.14    -8.670938      19.5973     44.62204         8     0.895     0.605 -80.30   0
       237    496.1641     45.2697 300.3325446 +22.5431499      514.025     69.46186      1.194     2.40    -9.129829      19.5973     87.08689         9     0.901     0.606  22.65   0
       238     69.1466     44.8326 300.1998994 +22.4150413     278.1815     69.47955      1.194     3.42     -9.36097      19.5973      42.2718         6     0.766     0.551 -38.26   0
       239    400.1600     43.0905 300.3033759 +22.5137594     387.7975     69.46186      1.455     4.66    -9.154634      19.5973     51.99492         7     0.985     0.626  72.78   0
       240    171.4849     33.3126 300.2354355 +22.4424150     1876.421      69.5856      1.281     2.39    -9.311162      19.5973     221.3467        19     1.082     0.856  85.34   0
       241    739.2452     33.4642 300.4120722 +22.6125617     302.6392     69.47955      1.303     2.10    -8.690712      19.5973     52.78843         5     0.665     0.491  11.04   0
       242    732.7797     25.5692 300.4126176 +22.6083556     475.9786     69.46186      1.355     2.50    -8.639155      19.5973     76.22785         9     0.860     0.686  33.06   0
       243    287.2489     25.3107 300.2740201 +22.4748153     516.5191     69.46186      1.160     2.32    -9.340385      19.5973     83.03497        11     0.808     0.798  35.42   0
       244    770.3228     20.5046 300.4259581 +22.6181404      266.786      69.5856      1.434     4.40    -8.822924      19.5973      37.6876         8     1.103     0.537  68.76   0
       245     75.8256    948.8110 299.9083227 +22.6763202     1984.248     69.46186     20.741    33.91     -6.55914      19.5973     52.55355       254     5.991     5.329  17.70   3
       246    547.8710   1020.8578 300.0316497 +22.8387213     1221.938     66.55239      1.052     1.69    -12.91983      19.5973     289.0777        11     0.743     0.712  85.25  16
       247    174.4493   1022.0993 299.9151080 +22.7269456     1430.477     61.90266      4.100    10.75     13.68707      19.5973     57.48908        27     3.002     1.072  19.31  26
       248    734.2178   1016.4030 300.0911273 +22.8933682     459.8514     69.37334      1.243     3.89    -14.02594      19.5973     56.64849         8     1.114     0.598  57.49  16
