#   1 NUMBER                 Running object number                                     
#   2 X_IMAGE                Object position along x                                    [pixel]
#   3 Y_IMAGE                Object position along y                                    [pixel]
#   4 ALPHA_J2000            Right ascension of barycenter (J2000)                      [deg]
#   5 DELTA_J2000            Declination of barycenter (J2000)                          [deg]
#   6 FLUX_APER              Flux vector within fixed circular aperture(s)              [count]
#   7 FLUXERR_APER           RMS error vector for aperture flux(es)                     [count]
#   8 FLUX_RADIUS            Fraction-of-light radii                                    [pixel]
#   9 FWHM_IMAGE             FWHM assuming a gaussian core                              [pixel]
#  10 BACKGROUND             Background at centroid position                            [count]
#  11 THRESHOLD              Detection threshold above background                       [count]
#  12 FLUX_MAX               Peak flux above background                                 [count]
#  13 ISOAREA_IMAGE          Isophotal area above Analysis threshold                    [pixel**2]
#  14 A_IMAGE                Profile RMS along major axis                               [pixel]
#  15 B_IMAGE                Profile RMS along minor axis                               [pixel]
#  16 THETA_IMAGE            Position angle (CCW/x)                                     [deg]
#  17 FLAGS                  Extraction flags                                          
         1    678.5703      9.2443 300.3928681 +22.6014470     415.6206     69.24312      1.351     3.09    -8.439204     19.52564     58.24156         8     0.805     0.755 -41.03   0
         2    484.3660      8.3774 300.3326804 +22.5430380     607.7745      69.2255      1.343     3.16    -8.153458     19.52564     89.74886        12     1.086     0.755  86.62   0
         3     57.0580      8.7037 300.1997045 +22.4150839     129.8937     69.27835      0.991     3.32    -8.386492     19.52564     39.60651         5     0.773     0.414 -17.18   0
         4    388.3786      6.7969 300.3033245 +22.5138295      345.533     69.15497      1.205     2.38    -8.742532     19.52564     58.15379         7     0.783     0.579  60.16   0
         5    622.3912    979.4713 300.0600741 +22.8632537     4026.105     69.19025      1.146     2.02    -12.96541     19.52564     555.9945        22     0.971     0.885  73.20   3
         6     94.7258    933.8713 299.9108128 +22.6917712     1553.962     69.27835     26.344    31.08    -1.420026     19.52564     51.48854       160     6.281     4.271 -10.14   3
         7     66.7345    947.8474 299.8975682 +22.6873685     2775.277      69.2255     27.826    90.46   -0.3055259     19.52564     61.50304      1674    17.837    12.728 -88.14  27
         8    627.9266    977.2502 300.0625209 +22.8642775     4629.447      69.2255      1.220     1.96    -12.96401     19.52564      814.006        27     1.040     0.966 -64.65   3
         9    722.8270    980.0002 300.0911812 +22.8935394     277.1593     69.17261      1.055     2.27    -12.97048     19.52564     61.93398         5     0.627     0.551   0.03   0
        10    166.0649    979.6387 299.9180771 +22.7263127     680.7025     69.19025      4.299     4.48     17.95358     19.52564     31.87837         5     1.312     0.435 -31.31   1
        11    187.1811    997.8815 299.9186990 +22.7378825     1157.157     69.19025      3.837    10.44     23.90509     19.52564      38.4752        21     2.462     1.234  48.50   2
        12    156.2128    968.7673 299.9185553 +22.7202383     1115.078     69.19025      5.524     7.91     13.67735     19.52564     43.70349        14     1.618     1.081   5.46   2
        13    157.9509    990.4785 299.9120263 +22.7269820     1562.331     69.20787      6.994    16.75     22.61591     19.52564      46.7357        41     3.045     2.560  32.50   2
        14    344.0645    991.3889 299.9695845 +22.7831315     448.1489     69.13733      1.632     4.27    -12.75109     19.52564     36.25243         7     0.934     0.632  50.79   0
        15    199.2519    986.6929 299.9260935 +22.7383013     1449.958     69.26073      7.655     9.33     18.25126     19.52564     57.36742        25     1.695     1.434  71.20   3
        16     67.1771    914.4022 299.9085930 +22.6779180     2130.617     69.15497     20.743    36.41    -6.681058     19.52564     52.27361       268     7.805     4.713 -16.65   3
        17    915.4921    963.0688 300.1567365 +22.9464675      284.497     69.33116      1.169     2.92     -13.4153     19.52564     49.14281         8     0.755     0.717  10.35   0
        18    226.9801    966.5670 299.9412646 +22.7408601     3826.486     69.20787      8.676    29.77     7.029017     19.52564     102.1775       380     7.871     4.234  59.31   2
        19    133.5330    950.7394 299.9173778 +22.7082605     944.4073     69.24312      7.374     8.76     6.015735     19.52564     29.14002        14     1.675     1.279  80.35   0
        20    640.6582    946.5767 300.0764729 +22.8592980     3412.845     69.20787      1.216     2.19    -12.93628     19.52564     480.6455        23     1.024     0.959 -81.93   0
        21    188.6111    978.8779 299.9253312 +22.7328659     2164.888     69.19025     16.189    20.46     15.66126     19.52564     57.40981       100     4.726     2.461 -36.38   3
        22     72.6876   1006.5088 299.8803177 +22.7059640     3193.313     69.36635     17.612    78.58     18.91347     19.52564     130.3255      1552    13.885    12.340  66.70  27
        23    102.1865    944.2258 299.9097597 +22.6969792     919.4158     69.20787      4.023     3.75     3.036217     19.52564     34.78389         5     1.042     0.387 -87.42   1
        24    231.8136    940.7447 299.9511740 +22.7349101     150.5786     69.20787      1.017     2.46    -4.333209     19.52564     55.26035         5     0.687     0.666  82.56   0
        25    209.1936    978.1484 299.9319655 +22.7388381     2594.614     69.20787     13.102    30.07     13.61293     19.52564     73.98886       240     5.241     4.790 -20.94   3
        26    549.0975    937.3030 300.0509864 +22.8291645     790.1467     69.40151      1.169     1.95    -12.93276     19.52564     152.2081        11     0.837     0.737 -86.74   0
        27    442.9682    933.9166 300.0190617 +22.7963426     611.3943     69.19025      1.287     2.47    -12.48798     19.52564     78.64045         9     0.780     0.714 -57.68   0
        28    373.7003    931.9334 299.9981597 +22.7749823     3198.152     69.29596      1.191     1.90    -12.42089     19.52564     576.0431        24     1.016     0.956  74.26   0
        29    535.8541    984.4962 300.0314981 +22.8387261     1073.199     69.27835      1.130     2.18    -13.05099     19.52564     195.0005        13     0.924     0.766  89.48   0
        30    219.2939    992.7382 299.9303541 +22.7460528     727.6765     69.29596      1.931     6.59     19.17595     19.52564     72.85275        18     1.811     1.038  -5.46   0
        31    919.8299    910.6328 300.1751617 +22.9327154     1165.236      69.2255      1.118     2.07    -12.88536     19.52564     174.7885        12     0.838     0.791  50.20   0
        32    406.4648    918.7032 300.0126582 +22.7810234     271.3014     69.31356      1.109     2.24    -12.38365     19.52564     49.22717         5     0.688     0.470  70.45   0
        33    137.0651   1001.3770 299.9019880 +22.7238318     465.5506     69.19025      1.925     7.62     27.29801     19.52564     31.64773        11     1.556     1.043 -76.27   0
        34    120.7612   1001.1047 299.8970112 +22.7188566     935.9482     69.19025      3.380    10.77     27.29801     19.52564     38.55515        15     2.509     1.289 -49.44   2
        35    521.0404    894.2996 300.0562529 +22.8084099     265.3163     69.19025      1.232     3.02    -12.54324     19.52564     46.10376         5     0.802     0.505 -58.55   0
        36    743.5337    893.3820 300.1258332 +22.8748951     511.3926     69.19025      1.047     2.23     -12.5365     19.52564     73.68241         5     0.649     0.481 -72.36   0
        37    765.7441    887.2656 300.1347439 +22.8798012     5550.978     69.26073      1.135     1.88    -12.45777     19.52564     1048.919        29     1.004     0.887 -80.25   0
        38    811.4826    887.3970 300.1489533 +22.8935560     270.0395     69.13733      0.882     3.72    -12.46764     19.52564     36.51313         6     0.994     0.399 -70.72   0
        39    956.4517    886.7316 300.1943614 +22.9368331      256.294     69.19025      1.402     3.47    -12.67375     19.52564     33.86881         5     1.007     0.346  67.74   0
        40     77.3201    878.9037 299.9232977 +22.6707916     444.9227     69.31356      1.313     3.11    -8.682288     19.52564     56.94721         8     0.965     0.578 -68.02   0
        41    774.3221    869.3645 300.1432435 +22.8772359     666.6837     69.17261      1.063     2.07    -12.25542     19.52564     118.9512        10     0.759     0.729  -2.05   0
        42    626.8920    866.5467 300.0982388 +22.8322063     259.4454     69.26073      1.010     4.09    -12.42124     19.52564     45.41856         6     0.987     0.489   6.18   0
        43    812.4349    862.6190 300.1573154 +22.8867291     390.0005      69.2255      1.030     2.21    -12.21387     19.52564     71.75742         6     0.815     0.429  19.24   0
        44    860.7733    854.2650 300.1751001 +22.8988255     204.2768     69.19025      0.980     2.59     -12.3755     19.52564     52.16784         6     0.703     0.628  62.52   0
        45    712.2268    852.9590 300.1292380 +22.8539040     397.6099     69.26073      1.126     1.90    -12.13303     19.52564     81.39597         7     0.760     0.546  68.44   0
        46    424.8906    849.6211 300.0408758 +22.7667413     2028.048     69.13733      1.126     1.99    -12.12193     19.52564     347.5589        19     0.931     0.839 -79.55   0
        47    149.9512    835.2401 299.9600721 +22.6800870     358.9169     69.24312      1.322     3.58    -10.05446     19.52564     60.91244         9     1.098     0.738  50.15   0
        48    163.2081    982.3414 299.9163094 +22.7262292     1205.322     69.19025      4.635     6.11     19.04835     19.52564     38.18896        11     1.440     0.729  28.46   2
        49    127.0554    832.3546 299.9538970 +22.6723852     643.6176     69.24312      1.150     2.76     -10.2209     19.52564     110.4367        10     0.896     0.717 -21.25   0
        50    998.7745    821.3492 300.2288412 +22.9307445     1008.207      69.2255      1.144     2.13    -12.31027     19.52564     179.7858        14     0.864     0.831   2.66   0
        51    953.1032    819.7192 300.2151286 +22.9165867     1098.841     69.33116      1.143     1.86    -12.29489     19.52564       215.88        12     0.830     0.749 -84.01   0
        52    736.7478    813.5330 300.1497075 +22.8499421     189.2952      69.2255      0.996     2.81    -11.76356     19.52564     54.74794         7     0.815     0.646 -80.56   0
        53    604.7101    807.6295 300.1105060 +22.8086461     2419.991     69.17261      1.058     1.80    -12.11785     19.52564     446.7388        18     0.840     0.833  34.25   0
        54    406.7351    805.1050 300.0497138 +22.7485244     176.3355     69.31356      1.061     2.16    -11.58502     19.52564     68.17017         5     0.749     0.395 -72.03   0
        55    154.9231    801.3542 299.9726428 +22.6718657     575.2781     69.19025      1.099     2.11    -11.31154     19.52564     105.6272         9     0.775     0.703  70.34   0
        56    625.3247    800.2128 300.1193381 +22.8127012     351.6739      69.2255      1.071     2.34    -11.98172     19.52564     73.49011         8     0.833     0.595 -84.95   0
        57    997.7529    787.3021 300.2396021 +22.9206596      590.464     69.24312      1.021     2.32    -12.08976     19.52564     95.81481         9     0.840     0.639 -72.51   0
        58    780.7623    787.2915 300.1719598 +22.8556076     1997.276     69.19025      1.025     1.66    -11.51121     19.52564     420.7349        16     0.858     0.772 -89.13   0
        59    497.7114    779.8954 300.0862232 +22.7685896     379.1205     69.38393      1.077     2.41    -11.38224     19.52564     81.91145         6     0.815     0.541  26.64   0
        60    144.0531    777.9917 299.9768660 +22.6619045     472.4342     69.20787      1.131     2.23    -11.33783     19.52564     99.38047         9     0.789     0.683  14.90   0
        61    293.8398    770.0322 300.0260135 +22.7045844     26380.17     69.24312      1.164     1.85    -11.40608     19.52564     5286.699        61     1.065     1.057 -29.44   0
        62    559.2734    773.1690 300.1075730 +22.7851277     262.8911     69.20787      1.092     2.41    -11.39911     19.52564     58.56038         5     0.683     0.655  -0.58   0
        63    551.7848    769.2026 300.1065323 +22.7817432     841.0677      69.0667      1.183     1.74    -11.33244     19.52564     169.0736         9     0.789     0.575  76.96   0
        64    964.4619    768.2975 300.2354033 +22.9052234     406.3549     69.29596      1.063     2.28    -11.81373     19.52564     83.28056         8     0.816     0.642  86.85   0
        65    222.2250    767.6447 300.0045264 +22.6824046     231.3418      69.2255      1.047     2.34    -11.28398     19.52564     44.14601         5     0.726     0.431 -20.80   0
        66    580.5934    765.0643 300.1168469 +22.7891972     500.4074     69.17261      1.150     2.14    -11.42779     19.52564     92.19682         8     0.842     0.574  47.52   0
        67    591.2080    763.4368 300.1206811 +22.7919139     458.8344     69.20787      1.319     2.27     -11.4444     19.52564     60.21681         6     0.737     0.496  -1.01   0
        68    697.1255    759.6215 300.1549063 +22.8225848     112.1002     69.20787      0.875     2.64    -11.26123     19.52564      42.7426         5     0.709     0.461 -16.27   0
        69    734.5386    749.9426 300.1697097 +22.8310253     309.4993     69.27835      0.956     1.74    -11.15912     19.52564     76.04892         6     0.686     0.495 -82.77   0
        70    343.5653    747.2524 300.0488870 +22.7129738     15651.29      69.2255      1.086     1.81    -11.26082     19.52564     2781.361        42     1.007     0.984 -72.51   0
        71    357.8388    747.7405 300.0531675 +22.7173970     1001.166     69.20787      1.072     1.82    -11.25733     19.52564     201.7748        12     0.811     0.745 -83.64   0
        72    866.4407    743.0566 300.2130541 +22.8685933      1415.48     69.19025      1.064     1.76    -11.25021     19.52564     259.1827        16     0.927     0.775  47.56   0
        73    354.6689    741.3319 300.0542663 +22.7146075     385.8448     69.26073      1.437     4.13    -11.20848     19.52564      45.4892         6     0.744     0.656 -74.29   0
        74    624.6180    739.2515 300.1389517 +22.7949933     330.8835     69.19025      0.841     1.62     -11.1218     19.52564     96.21729         5     0.663     0.410 -15.82   0
        75    226.1358    738.9205 300.0150860 +22.6753416     419.5004     69.31356      1.230     1.95    -11.28356     19.52564     78.99231         8     0.746     0.627  47.53   0
        76    471.6619    733.8668 300.0930908 +22.7475681     352.5923     69.24312      0.990     2.21    -11.17229     19.52564     84.18285         8     0.845     0.560 -76.58   0
        77     59.0099    728.3036 299.9666087 +22.6221271     235.2803     69.13733      1.506     4.65     -11.4474     19.52564     47.44549         7     1.204     0.586  16.74   0
        78    516.6567    711.9078 300.1142363 +22.7547645     365.4481     69.26073      0.898     1.82    -11.04936     19.52564     74.37379         5     0.658     0.454  73.17   0
        79    932.9910    708.3593 300.2450892 +22.8785756     2198.671     69.20787      1.032     1.69    -11.16907     19.52564     479.9219        18     0.861     0.809  55.51   0
        80    538.6357    709.4392 300.1218804 +22.7606487     701.6205     69.27835      1.044     1.94    -10.98716     19.52564     129.5975         9     0.811     0.597 -82.20   0
        81    458.0798    709.0148 300.0969482 +22.7363627     202.1331     69.20787      1.188     3.65    -11.08411     19.52564     33.45145         5     0.634     0.604  -1.82   0
        82    921.3215    699.7283 300.2442580 +22.8725991     844.9638     69.31356      0.991     1.92    -11.10477     19.52564     171.7784        11     0.865     0.670   7.78   0
        83    284.4734    693.9200 300.0478586 +22.6799434     477.5863     69.31356      1.257     2.46    -11.11037     19.52564     60.94567         6     0.749     0.499  87.86   0
        84    747.8775    691.0507 300.1930222 +22.8181164      1330.41     69.20787      1.179     1.83     -11.0162     19.52564     266.2565        19     1.268     0.819   0.65   0
        85    952.6439    689.9137 300.2572172 +22.8791669     753.3103     69.19025      1.013     1.94    -11.10815     19.52564     141.3472        10     0.770     0.678  17.41   0
        86    133.3994    677.7828 300.0061495 +22.6299741     357.5988     69.11967      1.202     3.38    -11.25763     19.52564     51.31773         7     0.816     0.651 -13.39   0
        87    830.1720    676.6267 300.2233576 +22.8386443     279.3302     69.17261      1.306     1.90    -10.98614     19.52564     60.84618         5     0.713     0.406 -26.67   0
        88    866.1971    667.9641 300.2374039 +22.8469542     72406.62      69.2255      1.080     1.63    -10.88879     19.52564     17092.55        85     1.065     1.019  85.92   0
        89   1013.1804    669.7498 300.2826555 +22.8915141     644.7222     69.19025      1.088     1.80     -11.0991     19.52564     124.9781         8     0.722     0.608  52.98   0
        90    718.5404    668.2480 300.1912988 +22.8027737     244.6499     69.26073      0.991     1.96    -10.96757     19.52564     69.83967         5     0.671     0.429  60.62   0
        91    898.8721    660.6464 300.2499699 +22.8546452     320.3633     69.19025      1.379     2.44    -10.88741     19.52564     63.17319         5     0.824     0.504 -51.91   0
        92    552.5927    657.0507 300.1432630 +22.7497988     687.8821     69.20787      0.952     1.81    -10.65939     19.52564      153.992         8     0.783     0.544  73.57   0
        93    733.6866    654.1456 300.2006034 +22.8032652     4592.523     69.24312      1.052     1.65    -10.97841     19.52564     1022.635        24     0.899     0.819  49.40   0
        94    235.3053    649.4365 300.0470382 +22.6524292     2349.177     69.20787      1.074     1.93    -11.13398     19.52564      397.146        17     0.909     0.782 -80.48   0
        95    317.4316    647.4485 300.0732191 +22.6765020     524.3429     69.24312      1.076     2.42    -10.81588     19.52564      96.9204         9     0.839     0.719  44.54   0
        96    525.5956    642.7940 300.1394955 +22.7376102      334.585      69.0667      1.028     2.38    -10.58493     19.52564     85.05688         7     0.873     0.490 -87.27   0
        97    517.1950    635.0085 300.1394124 +22.7328561      1634.29      69.0667      1.100     1.84    -10.54179     19.52564     341.9481        16     0.817     0.813  71.02   0
        98    507.4043    628.6905 300.1384194 +22.7281064     713.0536     69.11967      1.125     2.15    -10.52171     19.52564     112.6121        10     0.788     0.726 -61.64   0
        99    170.7940    624.9661 300.0349433 +22.6260508     354.5358     69.20787      1.268     2.63    -11.16953     19.52564     55.30869         7     0.802     0.658  29.12   0
       100    184.7396    623.7056 300.0396872 +22.6298745     340.7045     69.29596      1.305     4.32    -11.16459     19.52564     62.12368         6     0.945     0.605 -22.20   0
       101    210.5269    620.0001 300.0489069 +22.6365501     371.0351     69.08437      1.347     2.68    -11.15315     19.52564     53.56012         6     0.770     0.497  84.96   0
       102    432.2000    618.5092 300.1183275 +22.7026282     911.6654     69.08437      1.125     1.88    -10.51529     19.52564     157.6173        13     0.875     0.736  41.23   0
       103   1007.9853    615.4506 300.2986929 +22.8743560      315.988     69.20787      0.963     1.87    -11.14144     19.52564     81.89597         7     0.663     0.617 -39.61   0
       104     86.2321    613.5926 300.0123663 +22.5974093     9698.729     69.20787      1.171     2.08    -11.15607     19.52564     1438.345        34     1.020     0.972  47.92   0
       105      7.2436    615.0643 299.9873536 +22.5741209     453.3582     69.20787      1.329     3.15    -11.25214     19.52564     57.29323         7     0.855     0.592  69.05   0
       106    517.0563    613.7377 300.1462852 +22.7267092     445.1275     69.26073      0.989     1.82    -10.33809     19.52564     108.8153         7     0.682     0.594  21.13   0
       107    935.2083    599.9227 300.2810450 +22.8480894     549.5612     69.17261      1.100     1.88    -10.70679     19.52564     117.7806        10     0.814     0.684  66.75   0
       108     32.1736    597.8347 300.0006972 +22.5766643     852.9965      69.2255      1.773     4.75    -11.09814     19.52564     73.50488        21     1.485     1.018  89.88   0
       109    801.8459    598.2399 300.2400194 +22.8076408     202.3125     69.27835      1.062     3.07    -10.86056     19.52564     45.73622         6     0.745     0.610  75.29   0
       110    875.3314    592.3368 300.2648431 +22.8279680     310.1626     69.26073      1.155     2.99    -10.56065     19.52564     56.65267         5     0.741     0.445  75.04   0
       111    437.2704    587.0604 300.1301294 +22.6951235     294.4626     69.24312      0.981     2.09    -10.29222     19.52564     72.24567         5     0.719     0.415  74.44   0
       112    603.0511    583.4329 300.1829084 +22.7437960     241.0844      69.2255      1.131     2.20    -10.04136     19.52564     47.32714         6     0.734     0.492  -5.77   0
       113    481.6924    582.6152 300.1453973 +22.7071704     420.4049     69.13733      1.025     2.42    -10.10497     19.52564     70.47206         7     0.768     0.610  75.00   0
       114    915.1611    578.0358 300.2819100 +22.8357943     1586.631     69.27835      1.025     1.68    -10.59556     19.52564     387.4114        12     0.798     0.672  56.92   0
       115    446.9842    578.0378 300.1360848 +22.6954473     779.6267     69.20787      1.071     1.89    -10.18675     19.52564     176.1132         9     0.723     0.696  -4.38   0
       116   1013.0757    575.9178 300.3131341 +22.8645210     333.3343     69.31356      1.160     2.59    -11.14385     19.52564      73.7187         6     0.872     0.433  47.51   0
       117      9.0101    571.8253 300.0019578 +22.5622533     2444.393     69.20787      1.242     2.21    -10.84251     19.52564     378.9156        21     0.990     0.917  81.40   0
       118    310.4095    564.8430 300.0978909 +22.6506947     4385.658      69.2255      1.099     1.90    -10.49064     19.52564     763.2731        23     0.932     0.851  82.28   0
       119    432.8312    561.8972 300.1369280 +22.6865700     4421.948     69.17261      1.101     1.76    -10.13835     19.52564     959.4589        23     0.931     0.834  53.67   0
       120    844.5469    555.6615 300.2671700 +22.8082071     1038.275     69.26073      1.095     1.99    -10.53661     19.52564     158.9298        15     0.958     0.793 -20.11   0
       121    929.0871    553.0903 300.2943616 +22.8327995     6003.063     69.36635      1.072     1.61    -10.54671     19.52564     1473.693        25     0.872     0.853 -89.74   0
       122    493.4848    551.4875 300.1591857 +22.7017716     5664.469     69.33116      1.015     1.84    -9.710711     19.52564      904.499        26     0.919     0.888  82.52   0
       123    148.9489    549.9025 300.0525557 +22.5979649     1710.521     69.27835      0.400   -19.61    -10.58486     19.52564     1469.101         6     0.358     0.243  60.92   0
       124    220.8420    547.0090 300.0758403 +22.6187066     624.6602      69.2255      1.168     1.96    -10.54353     19.52564     122.5206        11     0.903     0.697  46.66   0
       125    425.1028    539.6984 300.1417389 +22.6778806      2242.25     69.38393      1.123     1.78    -10.06299     19.52564     411.0417        19     0.906     0.858 -39.60   0
       126    767.8813    539.4301 300.2485536 +22.7805693     316.6234     69.20787      0.909     1.68    -10.46953     19.52564     89.49921         6     0.662     0.535  59.58   0
       127    403.2215    538.1623 300.1354306 +22.6708772     754.3682      69.2255      1.299     1.95    -10.17317     19.52564     123.1285        11     0.848     0.773 -33.78   0
       128    157.3480    537.1745 300.0593025 +22.5968341     545.0497      69.2255      1.466     3.81    -10.53565     19.52564      55.6898         7     0.978     0.546  23.26   0
       129    844.7899    535.0245 300.2739538 +22.8023511     859.3953     69.20787      1.207     2.39    -10.49099     19.52564      131.873        11     0.838     0.810 -82.81   0
       130    725.4620    531.9907 300.2377553 +22.7657190     334.3676     69.13733      0.915     1.64    -10.32283     19.52564     90.81648         6     0.661     0.497  85.24   0
       131    541.7193    527.1664 300.1821038 +22.7092525     100561.3     69.17261      1.108     1.75    -9.599204     19.52564     20298.62       123     1.185     1.141 -51.37   0
       132    227.8830    527.2125 300.0844630 +22.6151394     1670.659     69.17261      1.179     1.96    -10.50879     19.52564     298.1923        16     0.880     0.841  50.54   0
       133    793.6144    522.8500 300.2619614 +22.7835184       160.95      69.2255      0.844     2.09    -10.42987     19.52564      39.6179         5     0.691     0.452  69.70   0
       134    432.2970    507.3726 300.1544831 +22.6707593     1280.768     69.15497      1.080     1.83    -9.853633     19.52564     221.8434        15     0.868     0.821 -86.76   0
       135    829.2328    493.4690 300.2826109 +22.7857506     734.7244     69.19025      0.957     1.78    -10.40037     19.52564     161.0792         9     0.755     0.586 -75.71   0
       136    700.5054    491.2834 300.2432107 +22.7465470     1178.143     69.38393      1.025     1.93    -9.825133     19.52564     216.5608        12     0.842     0.683  57.21   0
       137    944.8732    488.6197 300.3202387 +22.8190024     144.9292     69.20787      0.841     2.08    -10.45025     19.52564     43.54007         5     0.700     0.440  22.06   0
       138    605.5328    488.0270 300.2146907 +22.7171450     176.7768     69.19025      1.002     2.86    -9.397257     19.52564     50.19897         6     0.756     0.603  35.65   0
       139    957.6999    485.1536 300.3253650 +22.8218485      613.429      69.2255      1.036     1.60    -10.44256     19.52564     152.5641         9     0.735     0.630  21.47   0
       140    829.7839    484.0273 300.2858510 +22.7832030      939.847      69.2255      1.082     1.83    -10.38338     19.52564     182.2764        11     0.844     0.676 -30.88   0
       141    582.6519    481.8751 300.2095656 +22.7085193     323.0364      69.2255      1.135     1.96     -9.41358     19.52564     58.50013         6     0.748     0.470 -82.51   0
       142    421.4920    480.8395 300.1597436 +22.6599026     195.2153     69.20787      1.072     2.46    -9.765101     19.52564     42.56009         5     0.722     0.462 -69.89   0
       143    867.6166    478.7117 300.2993711 +22.7930108     2030.023     69.13733      1.010     1.65    -10.41587     19.52564     438.0062        13     0.769     0.725 -50.48   0
       144    959.2900    469.0941 300.3310797 +22.8177093     387.3322     69.36635      1.165     2.60    -10.36693     19.52564     66.85619         9     0.913     0.671  70.59   0
       145     99.6606    468.9536 300.0635463 +22.5599544     467.5068     69.24312      1.164     2.63    -10.53268     19.52564     75.88964         8     0.876     0.572  77.66   0
       146    640.9429    449.1785 300.2383408 +22.7166016     361.0777      69.2255      0.970     1.66    -9.440928     19.52564     85.85506         6     0.664     0.510 -63.59   0
       147    955.3329    441.6125 300.3387754 +22.8086254     347.3942     69.19025      1.160     2.26    -10.21805     19.52564     51.27257         5     0.667     0.476 -12.65   0
       148    702.0292    441.2045 300.2599580 +22.7326186     332.6716     69.17261      1.056     2.25    -9.724556     19.52564     88.74928         7     0.784     0.588 -18.01   0
       149    859.1697    437.4892 300.3101326 +22.7786347     399.6761     69.17261      1.005     2.14    -10.03283     19.52564     97.31942         7     0.832     0.490  -8.62   0
       150    843.7551    433.7770 300.3065338 +22.7729500     278.0781     69.24312      1.203     3.88    -9.997795     19.52564     61.13268         8     0.963     0.668 -52.06   0
       151    587.6943    432.0415 300.2273275 +22.6957195     1635.097      69.2255      1.124     1.80    -9.278325     19.52564     320.7768        16     0.904     0.770  85.98   0
       152    744.9099    412.1197 300.2827662 +22.7371122     1027.998     69.31356      0.515     0.97    -9.846277     19.52564     658.0728         6     0.476     0.398 -55.87   0
       153    998.9692    410.9111 300.3623597 +22.8128693     726.2902     69.19025      1.008     1.68    -10.48042     19.52564     182.3627        10     0.761     0.627 -87.59   0
       154    957.4905    409.7242 300.3498087 +22.8001058     417.5695     69.34875      0.975     2.01    -10.10584     19.52564     97.33465         8     0.802     0.575  72.04   0
       155    870.8418    410.3722 300.3225812 +22.7743384     219.6723      69.2255      1.034     2.25    -9.854666     19.52564     52.09167         6     0.710     0.577  78.68   0
       156    698.2812    405.9198 300.2702538 +22.7213590     539.9675     69.33116      1.175     2.32     -9.72974     19.52564     96.49564         8     0.818     0.623  85.56   0
       157    202.4089    404.1609 300.1165251 +22.5721888     395.7142      69.2255      0.993     2.13    -10.23717     19.52564     60.02576         5     0.682     0.464  70.97   0
       158    264.6993    400.0501 300.1372249 +22.5896919      1963.94     69.29596      1.166     1.94    -9.969417     19.52564     342.5775        17     0.899     0.834 -87.27   0
       159    997.7368    398.3044 300.3660708 +22.8088761     2273.306     69.29596      1.095     1.80    -10.47941     19.52564     402.8503        19     0.904     0.851  -0.22   0
       160    211.8747    394.8480 300.1224925 +22.5723554     3729.686     69.20787      1.193     1.93    -10.16902     19.52564     682.9463        23     1.013     0.870  49.39   0
       161    977.7319    389.3633 300.3627358 +22.8003148     940.4442     69.19025      1.065     2.03    -10.30252     19.52564     165.1853        13     0.855     0.811 -88.75   0
       162    352.7424    389.0382 300.1681811 +22.6129337     2337.117     69.20787      1.187     2.02     -9.79349     19.52564     411.4858        22     1.030     0.867  74.01   0
       163    596.8306    385.6736 300.2452350 +22.6851402     9108.116      69.2255      1.103     1.77    -9.201535     19.52564     1798.925        31     0.974     0.908  77.44   0
       164    614.0716    385.6930 300.2505972 +22.6903129     453.4404     69.34875      1.778     5.03    -9.227681     19.52564     39.61446         7     1.454     0.493 -51.59   0
       165    930.5160    368.1968 300.3548869 +22.7800899     435.7962     69.13733      1.211     1.59    -9.874313     19.52564      82.8964         5     0.609     0.499 -84.92   0
       166    151.5025    365.7757 300.1131709 +22.5459037     967.7679     69.11967      1.109     2.14    -10.24056     19.52564     151.4056        15     1.046     0.771  45.05   0
       167    950.9019    355.3229 300.3654255 +22.7824942     468.1206     69.33116      1.066     2.16    -10.06292     19.52564     94.08386        10     0.836     0.692  49.50   0
       168    537.5350    355.0865 300.2367092 +22.6585830     3222.769     69.29596      1.125     1.94    -9.233203     19.52564     536.5864        24     1.020     0.934 -63.46   0
       169    252.1965    354.3599 300.1481774 +22.5728279     437.2885      69.2255      1.030     2.09    -9.944421     19.52564     65.60661         7     0.691     0.613  13.55   0
       170    110.1618    347.7650 300.1061739 +22.5283346     206.6544     69.27835      1.329     3.37    -10.20279     19.52564     30.98354         5     0.953     0.346  44.23   0
       171    651.0591    345.1596 300.2752809 +22.6897529     290.4009     69.20787      1.362     4.56    -9.653134     19.52564     43.63852         7     0.897     0.659 -61.42   0
       172    741.7983    344.0217 300.3039163 +22.7166132     477.2497     69.13733      1.084     2.01    -9.858422     19.52564      88.1683         7     0.712     0.569  84.36   0
       173    444.0609    341.4237 300.2120547 +22.6266407     3059.866     69.20787      1.154     1.93     -9.73662     19.52564     492.0528        22     0.999     0.893  41.07   0
       174     83.7807    340.8760 300.1002146 +22.5184441     451.3781     69.20787      0.536    -0.13    -10.19861     19.52564     389.4711         5     0.508     0.327   5.53   0
       175    836.0217    335.8564 300.3359312 +22.7424921     689.0873      69.2255      1.074     1.87    -9.845982     19.52564     128.9268         9     0.698     0.679 -80.87   0
       176    933.2869    335.5160 300.3663654 +22.7715251     359.6162     69.31356      1.120     2.46    -10.04385     19.52564     50.00757         5     0.699     0.457  22.50   0
       177    331.7333    320.6028 300.1838722 +22.5869868     1196.839     69.20787      1.170     2.21     -9.88038     19.52564     199.9745        15     0.871     0.861  79.73   0
       178     50.0724    317.9061 300.0972018 +22.5017412     536.0731     69.33116      1.238     2.46    -10.15624     19.52564     91.02074        10     0.881     0.690 -86.48   0
       179    301.0040    310.0971 300.1777270 +22.5747570     14602.39     69.11967      1.205     1.96    -9.975796     19.52564      2669.47        41     1.052     0.965  75.54   0
       180    835.5839    307.4651 300.3450148 +22.7342006      611.788     69.19025      1.034     2.35    -9.847289     19.52564     101.8718         9     0.854     0.617  68.12   0
       181    399.6270    295.4169 300.2131692 +22.6001091     284.2205      69.2255      1.335     3.96     -9.84066     19.52564       37.563         6     0.927     0.483 -88.96   0
       182    175.1210    296.3531 300.1430542 +22.5330634     260.0538      69.2255      1.307     3.33    -10.13441     19.52564      35.6781         6     0.751     0.609 -55.32   0
       183    711.3964    289.8576 300.3120337 +22.6919406     1023.173     69.17261      1.193     2.27    -9.855394     19.52564      161.616        14     0.932     0.777  42.94   0
       184    519.5585    284.7090 300.2539671 +22.6329805     219.7776     69.20787      1.306     3.44    -9.764709     19.52564     34.51316         5     0.722     0.475  74.59   0
       185    926.5768    282.2797 300.3815607 +22.7542105     249.4261     69.17261      1.021     2.17    -10.44119     19.52564     46.66092         5     0.659     0.483 -76.61   0
       186    373.0726    274.5261 300.2116911 +22.5861498     1074.197     69.26073      1.359     2.93    -9.845281     19.52564     136.0172        17     1.106     0.982 -89.13   0
       187    812.1906    267.1263 300.3508215 +22.7155991     322.3139     69.20787      1.049     1.88    -9.859511     19.52564     69.45603         6     0.664     0.543  62.20   0
       188    694.5934    264.7821 300.3149407 +22.6797008     221.4032     69.17261      1.029     2.86    -9.830769     19.52564     33.42801         5     0.718     0.458  71.22   0
       189    448.9217    253.7352 300.2420392 +22.6029138     596.3712     69.29596      1.275     2.99    -9.754146     19.52564     101.3121         9     0.969     0.615  40.97   0
       190    693.8763    245.6289 300.3209354 +22.6739818      1041.44     69.19025      1.126     1.92    -9.808763     19.52564     188.9405        14     0.905     0.737  83.64   0
       191    955.0591    239.8671 300.4042127 +22.7505436     1592.688     69.24312      1.133     1.77    -10.29412     19.52564     344.6649        11     0.776     0.727  80.50   0
       192   1023.8743    227.7905 300.4295972 +22.7676718     369.5856     52.60196      0.681     1.78    -9.706729     19.52564     145.4149         5     0.678     0.325  83.81  24
       193    107.8738    224.0368 300.1456324 +22.4921392     277.6141     69.15497      1.124     2.63    -9.998202     19.52564     53.81419         8     0.825     0.636  39.11   0
       194     77.0690    223.7770 300.1361459 +22.4828262     664.7062      69.2255      1.409     2.84    -10.02093     19.52564     95.54237        14     1.010     0.868 -36.40   0
       195    970.8434    220.6364 300.4153782 +22.7497390     327.1393     69.26073      1.193     2.33    -10.05607     19.52564     52.51135         5     0.680     0.626 -88.98   0
       196    160.9882    215.4308 300.1649310 +22.5055966     222.3954     69.20787      1.172     3.47    -9.957935     19.52564     45.52682         6     0.901     0.571  89.40   0
       197    765.4333    206.7583 300.3558474 +22.6842425     295.0012     69.26073      1.040     3.32    -9.740483     19.52564     57.95755         5     0.961     0.356  67.28   0
       198    355.8056    206.5475 300.2283866 +22.5614516     133.3542     69.17261      1.046     3.40    -9.776349     19.52564      33.4465         5     0.738     0.466  17.72   0
       199    863.6395    195.9352 300.3899686 +22.7105395     1085.509     69.17261      1.126     1.93    -9.803889     19.52564      192.915        14     0.881     0.779 -76.10   0
       200    282.0912    193.3143 300.2097562 +22.5355551     1012.268     69.36635      1.147     2.08    -9.768723     19.52564     173.1164        13     0.936     0.726  65.58   0
       201    359.8776    188.3051 300.2355739 +22.5574328     548.8513     69.33116      1.406     3.21    -9.718218     19.52564     74.31189        11     0.932     0.834 -44.15   0
       202    762.1696    187.6013 300.3610482 +22.6777582     311.7582     69.17261      1.183     3.09    -9.638458     19.52564     44.80788         6     0.734     0.612  48.10   0
       203    176.7558    180.7485 300.1810874 +22.5003675     385.8061     69.24312      0.988     2.05    -9.776682     19.52564     81.64124         6     0.717     0.515  49.06   0
       204    714.7648    177.4928 300.3495590 +22.6606551     774.3032     69.15497      1.070     1.85    -9.596434     19.52564     148.4039        11     0.831     0.661  78.97   0
       205    779.5633    176.7156 300.3700013 +22.6798377     327.8146     69.19025      1.200     2.63    -9.579493     19.52564     63.95763         9     0.864     0.736  61.45   0
       206    198.3736    174.0132 300.1899925 +22.5049152     388.5312     69.20787      1.637     3.09    -9.726923     19.52564      44.4766         6     0.792     0.482 -85.77   0
       207    986.1556    170.0453 300.4365748 +22.7397728     404.2301     69.24312      1.029     1.89    -9.284407     19.52564     93.27036         8     0.759     0.600 -48.41   0
       208    718.6987    168.7053 300.3536364 +22.6593074     373.0243     69.38393      1.248     2.62    -9.556381     19.52564     61.84946         8     0.882     0.605 -66.55   0
       209    639.3010    168.1844 300.3290737 +22.6353765     559.5558     69.11967      1.122     2.35     -9.60269     19.52564     107.8301        10     0.873     0.635  36.11   0
       210    834.6839    159.6607 300.3927154 +22.6914396     676.1472     69.33116      1.099     1.90    -9.486827     19.52564     122.2191        12     0.809     0.762  75.63   0
       211    565.3825    159.9388 300.3087323 +22.6108636     501.5916     69.15497      1.122     2.33     -9.58225     19.52564     72.43912         9     0.812     0.666  35.79   0
       212    846.6107    158.6126 300.3967733 +22.6947093      376.238     69.10203      1.083     2.28    -9.482257     19.52564     79.37317         6     0.815     0.441  72.34   0
       213   1007.4846    149.5363 300.4498836 +22.7402579      693.137     69.29596      0.998     2.09     -8.98143     19.52564     132.2005        12     0.820     0.718  69.11   0
       214    963.5363    148.9156 300.4363773 +22.7269248     528.6481     69.29596      0.987     2.53    -9.199624     19.52564     120.1961         7     0.841     0.551 -67.69   0
       215    197.8678    142.3359 300.2001142 +22.4956680     299.2123     69.26073      1.169     2.88    -9.573851     19.52564     52.08392         8     0.920     0.568 -60.66   0
       216     59.4452    136.9959 300.1588324 +22.4526319      1139.31     69.20787      1.265     2.53    -9.384356     19.52564      160.008        14     0.935     0.819  61.14   0
       217    882.3873    133.8026 300.4159774 +22.6982862     422.9655     69.04904      1.214     2.69    -9.365373     19.52564     58.28729         7     0.770     0.658  28.28   0
       218    216.8623    130.4264 300.2098829 +22.4979423      2714.79     69.20787      1.227     2.20     -9.45488     19.52564      394.707        22     1.050     0.860  74.36   0
       219      1.3246    124.9890 300.1446749 +22.4317562     376.3102      53.7491      0.970     2.08    -9.026953     19.52564      92.0924         6     0.731     0.468  89.05  24
       220    199.8337    121.2159 300.2075778 +22.4901928     336.5585     69.19025      1.216     2.42    -9.423627     19.52564     47.51112         6     0.693     0.571 -31.49   0
       221   1015.5900    117.6441 300.4627609 +22.7335097     8881.568      69.2255      1.084     1.99    -8.665488     19.52564     1514.191        31     0.992     0.894  79.95   0
       222    860.7955    111.7899 300.4163887 +22.6854918     1808.482      69.0667      1.132     1.82    -9.278305     19.52564     350.5465        14     0.871     0.731  78.29   0
       223    964.4713    110.4174 300.4491611 +22.7161314     1315.537      69.2255      1.064     2.02     -8.95684     19.52564     202.0972        16     0.945     0.782  59.35   0
       224    410.2585    106.6878 300.2777308 +22.5490860     181.1525     69.27835      1.128     2.51    -8.886348     19.52564     46.04887         6     0.697     0.612  56.40   0
       225    334.4946     98.9179 300.2566829 +22.5241503     362.3187     69.36635      1.256     2.87    -9.091927     19.52564     46.92445         6     0.772     0.500  88.36   0
       226    461.6487     94.2199 300.2977666 +22.5609014     870.4467      69.2255      1.214     2.17    -8.769114     19.52564     113.7991        12     0.855     0.768  85.75   0
       227    523.6119     93.4227 300.3173108 +22.5792355     218.8159     69.20787      1.098     4.04    -9.138403     19.52564     33.80846         6     0.958     0.487  89.06   0
       228    235.7839     74.2922 300.2339761 +22.4874932     2810.064     69.13733      1.179     2.20    -8.975246     19.52564     408.8697        21     1.013     0.862  61.11   0
       229     86.8594     73.5400 300.1879351 +22.4426345     296.0474     69.27835      1.223     2.64    -9.058205     19.52564     48.31803         5     0.727     0.434  24.79   0
       230    481.7772     59.5185 300.3152878 +22.5569600     3058.247     69.17261      1.164     2.08    -8.537865     19.52564     484.2417        21     1.018     0.856  77.01   0
       231    734.2536     49.0340 300.3973100 +22.6295603     298.4975      69.2255      1.101     2.66    -8.617174     19.52564     51.94833         7     0.700     0.673  60.98   0
       232    532.9757     41.7437 300.3369895 +22.5671880     168.4512     69.20787      0.921     4.37    -8.614601     19.52564      59.0147         7     1.345     0.441  40.40   0
       233    610.2028     39.6259 300.3617212 +22.5897090     3056.511     69.15497      1.177     2.08    -8.752564     19.52564     494.2762        21     1.022     0.826  74.65   0
       234    385.1923     38.4716 300.2920606 +22.5219762     780.9792     69.19025      1.222     2.43     -8.81881     19.52564     105.9129        12     0.857     0.810  79.22   0
       235    651.3069     36.9662 300.3753851 +22.6012537     465.4358     69.15497      1.279     2.75    -8.718316     19.52564     63.24842        10     0.867     0.750  26.94   0
       236    667.4426     32.9779 300.3817045 +22.6049388     265.2507     69.24312      1.655     4.64    -8.677198     19.52564     42.17347         6     0.913     0.766  12.29   0
       237    133.9236     30.7398 300.2164411 +22.4444537     83.43829     69.26073      1.120     2.59    -8.563861     19.52564     53.39724         6     0.863     0.436  38.02   0
       238    705.6668     28.7026 300.3949983 +22.6151550     269.1972     69.29596      1.116     2.19    -8.584231     19.52564      50.7191         5     0.668     0.469  83.78   0
       239    654.3488     24.3737 300.3804168 +22.5985443     1312.295      69.2255      1.168     2.19    -8.585005     19.52564     189.2089        16     1.034     0.764  71.67   0
       240    669.4854     23.0014 300.3855765 +22.6026822     459.3798     69.13733      1.594     5.64    -8.576544     19.52564     55.46281        10     1.324     0.678  59.95   0
       241    740.8875     15.9336 300.4101130 +22.6220284     729.1883     69.29596      1.193     2.31    -8.486337     19.52564     125.8777        10     0.831     0.699  82.43   0
       242    956.2906   1017.7833 300.1516385 +22.9744076      375.501     69.13733      1.346     2.34     -14.0475     19.52564     50.79648         6     0.706     0.611 -52.34   0
       243    721.4504   1006.7592 300.0820381 +22.9008038      155.723      69.2255      1.001     3.45    -12.99771     19.52564     29.47176         5     0.741     0.465 -72.04   0
       244    284.1268   1005.1268 299.9464738 +22.7690726     404.9124     69.26073      1.218     2.85    -9.212834     19.52564     84.78534        10     0.909     0.759  35.04   0
