#   1 NUMBER                 Running object number                                     
#   2 X_IMAGE                Object position along x                                    [pixel]
#   3 Y_IMAGE                Object position along y                                    [pixel]
#   4 ALPHA_J2000            Right ascension of barycenter (J2000)                      [deg]
#   5 DELTA_J2000            Declination of barycenter (J2000)                          [deg]
#   6 FLUX_APER              Flux vector within fixed circular aperture(s)              [count]
#   7 FLUXERR_APER           RMS error vector for aperture flux(es)                     [count]
#   8 FLUX_RADIUS            Fraction-of-light radii                                    [pixel]
#   9 FWHM_IMAGE             FWHM assuming a gaussian core                              [pixel]
#  10 BACKGROUND             Background at centroid position                            [count]
#  11 THRESHOLD              Detection threshold above background                       [count]
#  12 FLUX_MAX               Peak flux above background                                 [count]
#  13 ISOAREA_IMAGE          Isophotal area above Analysis threshold                    [pixel**2]
#  14 A_IMAGE                Profile RMS along major axis                               [pixel]
#  15 B_IMAGE                Profile RMS along minor axis                               [pixel]
#  16 THETA_IMAGE            Position angle (CCW/x)                                     [deg]
#  17 FLAGS                  Extraction flags                                          
         1    120.6796     13.5810 300.2566597 +22.4138251     552.1621      69.4212      1.312     2.65    -8.768797     19.58583     74.53633        10     0.834     0.788  19.54   0
         2     45.2315   1015.2317 299.9077993 +22.6784649     1983.651     69.45655     15.977    28.29    -7.650596     19.58583     49.46421       178     7.785     2.855 -33.43  27
         3     74.0393   1023.2526 299.9141343 +22.6894148     580.4787     56.23282      3.209     3.89    -6.705614     19.58583     34.58025         5     1.191     0.364 -12.05  24
         4     30.1900   1020.1985 299.9015115 +22.6753699     1423.149     68.24418      7.054    13.17    -7.643273     19.58583     42.92191        36     2.743     1.759 -37.70  27
         5     49.6653    999.8286 299.9141906 +22.6753843     1693.021      69.4212     10.765    18.91    -8.378482     19.58583     54.24524        74     4.517     2.200   2.91  19
         6     48.6721   1022.5732 299.9064775 +22.6816012     1348.292     59.74673      6.707    11.38    -7.147384     19.58583     46.53835        39     2.778     1.299  -9.64  27
         7     57.8364   1019.8899 299.9101971 +22.6835851     1556.256     68.94212     10.253    16.29    -7.152325     19.58583     58.08294        49     3.366     2.192 -28.44  19
         8     89.3813   1017.6990 299.9207074 +22.6924315     703.6404     69.35043      4.366     4.93    -6.720923     19.58583     29.99424         8     1.427     0.482  51.52  16
         9    898.4064   1009.0984 300.1752361 +22.9327375     1056.289     69.31503      1.538     3.61    -13.15149     19.58583     97.66765        18     1.102     1.047  65.29   0
        10     39.9367   1008.2562 299.9084260 +22.6748765      1903.37     69.47423     10.966    23.13    -8.113989     19.58583     56.50208        99     4.192     3.544 -69.34  19
        11   1013.5881    996.3175 300.2153095 +22.9635995     292.6243     69.38583      1.358     4.08    -12.99085     19.58583     30.11743         5     0.969     0.491 -87.33   0
        12    687.0550    997.0046 300.1133250 +22.8658849     416.3161     69.40351      1.255     3.78    -13.11949     19.58583      51.9883         7     1.006     0.535 -31.74   0
        13     57.5282    995.8229 299.9179364 +22.6765983     1022.574     69.45655      8.858    10.76    -8.464151     19.58583     38.60791        16     2.403     1.343  34.10   1
        14    744.0935    985.7455 300.1347557 +22.8797625     5603.605     69.47423      1.354     2.64    -12.99343     19.58583     640.1616        34     1.159     1.085 -84.49   0
        15    721.7640    991.8779 300.1258039 +22.8748248     564.1149     69.38583      1.357     4.02    -13.05996     19.58583      63.6904        11     0.955     0.835  21.21   0
        16    752.6604    967.7614 300.1432792 +22.8771719     691.2498      69.4212      1.317     3.47    -12.80579     19.58583     84.72788        15     1.143     0.902 -44.27   0
        17    935.5644    967.0072 300.2005237 +22.9317971     280.5273     69.43888      1.683     5.11    -12.87634     19.58583     29.16767         6     1.019     0.726  29.68   0
        18    790.9080    961.4589 300.1572464 +22.8868332     384.3947     69.49189      1.218     5.45    -12.83298     19.58583     46.45377         9     1.179     0.711 -31.76   0
        19    690.1647    951.5991 300.1290753 +22.8537918     233.8752     69.38583      1.074     4.39    -12.57595     19.58583     36.75839         7     0.882     0.622 -83.74   0
        20    702.1414    948.9068 300.1336816 +22.8566114      305.469     69.47423      1.344     3.90    -12.54036     19.58583     42.55902         6     0.928     0.471  56.05   0
        21    403.1649    948.1194 300.0408858 +22.7666912      2078.17     69.36813      1.333     2.59    -12.61624     19.58583      267.642        20     0.989     0.961 -80.82   0
        22    128.3075    933.6758 299.9601494 +22.6800466     336.8448     69.58015      1.299     4.05    -11.47899     19.58583     43.26207         8     0.967     0.609  64.13   0
        23    105.4963    930.9872 299.9539384 +22.6724271     883.1315     69.33273      1.489     3.57    -11.53411     19.58583     113.4475        16     1.256     0.889  17.12   0
        24    977.1605    919.6917 300.2288953 +22.9306830     1244.551      69.4212      1.605     3.27     -12.6168     19.58583     102.4115        17     1.084     0.959  70.04   0
        25    931.4966    918.1639 300.2151552 +22.9165572     1096.493      69.4212      1.368     2.86    -12.60884     19.58583     123.4668        16     1.025     0.897  58.65   0
        26    714.5989    912.0517 300.1495576 +22.8497729     280.3386     69.38583      1.434     4.44     -12.2369     19.58583     38.45354         5     0.972     0.576 -13.26   0
        27    583.1160    906.2203 300.1105157 +22.8086653     2383.094     69.36813      1.280     2.29    -12.30624     19.58583     322.3554        21     0.992     0.937  36.11   0
        28    385.4516    903.2737 300.0499724 +22.7485172     254.0398     69.43888      1.111     3.39    -12.11704     19.58583     46.48172         5     0.807     0.412  66.31   0
        29    133.3088    900.4868 299.9725040 +22.6720374     695.4919     69.58015      1.405     3.28    -11.93606     19.58583     88.64142        12     0.998     0.837 -37.46   0
        30    603.3420    898.5582 300.1193056 +22.8125341     478.1346      69.4212      1.311     4.02    -12.25721     19.58583     57.55185        10     1.096     0.862  16.28   0
        31    152.8100    897.2031 299.9796311 +22.6769509     150.6523     69.24415      0.998     3.59    -11.97071     19.58583     32.55082         5     1.133     0.328  78.57   0
        32    759.1652    885.8051 300.1719817 +22.8556050     2122.902      69.4212      1.295     2.32    -12.27874     19.58583     304.4791        19     1.029     0.897  45.59   0
        33    975.9954    885.9683 300.2395081 +22.9206517       616.22     69.40351      1.377     2.78    -12.48149     19.58583     64.34743         9     0.783     0.730  62.31   0
        34    167.7738    880.4254 299.9897399 +22.6766345      316.036     69.38583      1.472     3.72    -11.98412     19.58583     43.76564         8     0.844     0.772  83.29   0
        35    475.9722    878.3377 300.0862456 +22.7685263     307.1835      69.4212      1.477     4.38    -11.94544     19.58583     37.69207         7     0.885     0.618  30.90   0
        36    122.1266    876.7594 299.9767510 +22.6618803     472.3387     69.40351      1.418     3.58    -12.06161     19.58583     66.59808         9     0.903     0.822  34.53   0
        37    272.1618    868.6949 300.0259990 +22.7046048     26534.74     69.40351      1.316     2.44     -11.9828     19.58583     3424.675        62     1.180     1.169 -82.62   0
        38    530.1373    867.5517 300.1066101 +22.7816814     761.0775     69.45655      1.156     2.18      -12.234     19.58583     129.5346        12     0.867     0.786 -68.69   0
        39    943.0050    866.5253 300.2355493 +22.9051818     392.6981     69.35043      1.215     3.44    -12.40587     19.58583      47.1758         8     0.770     0.728 -71.36   0
        40    558.9153    863.6122 300.1168486 +22.7891835     450.7071     69.36813      1.296     3.88    -12.29763     19.58583     65.37029         9     1.054     0.684  37.80   0
        41    570.1462    862.0072 300.1208665 +22.7920917     283.4485      69.4212      1.221     2.79    -12.25139     19.58583     47.76119         6     0.856     0.469 -61.72   0
        42    675.3895    858.1352 300.1548926 +22.8225440        245.9     69.36813      1.094     3.51    -11.81651     19.58583     44.31222         5     0.815     0.437  71.68   0
        43    321.8522    845.9654 300.0488428 +22.7130001     15529.74     69.43888      1.285     2.22    -11.80789     19.58583     2474.802        46     1.129     1.081  86.88   0
        44    712.9390    848.3534 300.1697698 +22.8309965     385.8852     69.45655      1.285     2.57    -11.92303     19.58583     54.55437         7     0.787     0.604  20.27   0
        45    336.1300    846.4642 300.0531200 +22.7174276     1067.192     69.45655      1.243     2.26    -11.75991     19.58583     146.1764        14     0.920     0.834  62.78   0
        46    844.8738    841.5349 300.2130929 +22.8685938      1422.91     69.45655      1.241     2.22    -12.19629     19.58583     199.5205        14     0.859     0.822  84.40   0
        47    332.9081    840.4534 300.0540737 +22.7147372     385.6417     69.47423      1.335     2.18     -11.7565     19.58583     56.33648         6     0.736     0.493   7.19   0
        48    603.1329    837.4286 300.1391322 +22.7949336     429.7691      69.4212      1.275     3.31    -11.93253     19.58583     70.67308         8     1.038     0.550 -71.79   0
        49    204.5375    837.7332 300.0150542 +22.6754324     332.4405     69.47423      1.247     2.84    -11.85276     19.58583     57.70649         7     0.920     0.476  79.18   0
        50    449.6392    832.6857 300.0929070 +22.7475326     373.1708     69.40351      1.228     2.65    -11.72681     19.58583     65.66666         8     0.903     0.580 -20.59   0
        51      9.4806    833.1901 299.9559411 +22.6155744     207.5475     69.36813      1.322     2.75    -12.17634     19.58583     34.19003         5     0.727     0.467  71.42   0
        52    850.9465    829.1895 300.2190022 +22.8668701     201.6957      69.4212      1.240     3.64    -12.09633     19.58583     35.69735         6     0.902     0.469 -36.70   0
        53    828.8305    823.7998 300.2138637 +22.8586936     167.8065     69.38583      1.181     2.62    -11.99501     19.58583     47.10316         5     0.848     0.411  46.01   0
        54    202.3191    822.3834 300.0193585 +22.6703663     318.4731     69.43888      1.324     3.65    -11.81422     19.58583     44.01461         6     0.730     0.657 -30.79   0
        55    494.8243    810.7359 300.1141065 +22.7547908     376.0215     69.40351      1.194     2.52    -11.70884     19.58583     53.16404         7     0.818     0.560 -37.46   0
        56    911.3321    806.8828 300.2450815 +22.8785647     2227.416     69.52721      1.269     2.19    -11.93762     19.58583     334.0222        21     1.031     0.901 -75.55   0
        57    517.0002    808.1662 300.1218432 +22.7607052     672.1388     69.38583      1.170     2.11    -11.74512     19.58583     141.8491        10     0.903     0.662  24.53   0
        58    899.7858    798.0972 300.2443405 +22.8725818     752.7822     69.31503      1.259     2.54    -11.86689     19.58583     110.4815        10     0.813     0.748  14.47   0
        59    262.7767    792.0889 300.0480038 +22.6798245     454.1148     69.35043      1.310     2.99    -11.62939     19.58583     82.14463         8     0.913     0.660 -76.47   0
        60    726.1309    789.4908 300.1930292 +22.8180581     1333.416     69.56252      1.240     2.06    -11.51265     19.58583     197.2065        17     1.099     0.882   8.82   0
        61    930.8619    788.4042 300.2571815 +22.8791116     767.8939      69.4212      1.153     2.44    -11.83863     19.58583     114.3591        10     0.806     0.722  65.78   0
        62    808.4215    775.7096 300.2231489 +22.8387704     271.0663     69.35043      1.293     3.53    -11.59163     19.58583     42.48385         5     0.753     0.477 -77.49   0
        63    111.6717    776.3091 300.0061809 +22.6299509     263.4131     69.58015      1.065     3.43    -11.61779     19.58583     56.57738         5     0.755     0.450 -77.23   0
        64    844.5333    766.4770 300.2374053 +22.8469434     73509.79     69.50955      1.139     2.00    -11.56902     19.58583     10802.13        98     1.199     1.089  83.41   0
        65    991.2781    768.3864 300.2825313 +22.8914664      643.048     69.43888      1.239     2.87    -11.86982     19.58583     94.07409        12     0.963     0.817 -27.65   0
        66    696.8349    766.8047 300.1912840 +22.8027637      347.234      69.4212      1.148     2.77    -11.42467     19.58583      74.2204         8     1.016     0.481  54.10   0
        67    883.5823    764.5893 300.2501899 +22.8581044     1611.498     69.38583      0.735     3.16    -11.62422     19.58583     940.8224         8     0.808     0.360 -48.15   0
        68    530.9639    755.5031 300.1433191 +22.7497839      702.737      69.4212      1.128     2.08    -11.20027     19.58583     141.1242        10     0.837     0.677  36.86   0
        69    712.0298    752.6816 300.2006103 +22.8032652     4602.923     69.43888      1.126     1.87    -11.36378     19.58583     881.7936        25     0.925     0.884  68.33   0
        70    213.4940    748.0346 300.0470143 +22.6524039     2351.949     69.38583      1.292     2.19     -11.2388     19.58583     362.1765        22     1.056     0.964  84.62   0
        71    295.7167    746.1988 300.0731695 +22.6765490     561.6791     69.31503      1.169     2.35    -11.24599     19.58583     105.9918         9     0.871     0.672 -68.77   0
        72    153.9174    743.1953 300.0300749 +22.6331376      1323.13     69.35043      0.613     1.53    -11.29344     19.58583     697.2485         6     0.597     0.318  79.28   0
        73    503.8779    741.2697 300.1395191 +22.7375769      392.367     69.52721      1.147     2.62    -11.02402     19.58583     59.34651         5     0.754     0.473  46.91   0
        74    495.4618    733.6453 300.1393798 +22.7328653     1625.893     69.45655      1.073     2.05    -10.95153     19.58583     279.9387        16     0.897     0.781  53.68   0
        75    485.5894    727.3591 300.1383522 +22.7281009     814.0875      69.4212      1.196     2.03      -10.884     19.58583     115.3982        12     0.952     0.771  56.35   0
        76    149.0562    723.7908 300.0348747 +22.6261154     420.3409     69.40351      1.351     3.73    -11.21393     19.58583     57.67447        10     0.903     0.872  80.95   0
        77    204.0583    722.9844 300.0522280 +22.6423896      759.622     69.40351      0.420     1.70    -11.09619     19.58583     657.3234         5     0.377     0.249  36.65   0
        78    163.6408    722.2444 300.0399091 +22.6300488     231.5483     69.49189      1.070     3.46    -11.18754     19.58583     39.68512         5     0.757     0.457 -76.01   0
        79    410.4924    717.3204 300.1182535 +22.7026972     966.5005     69.52721      1.129     1.96    -10.96542     19.58583     169.0295        14     0.897     0.851  79.62   0
        80    189.1469    719.1505 300.0488409 +22.6368157     282.3904     69.45655      1.277     4.02    -11.11799     19.58583     28.86419         6     0.788     0.588  50.22   0
        81     64.4957    712.2799 300.0123497 +22.5974366     9955.442     69.52721      1.333     2.34    -11.30176     19.58583     1364.047        40     1.160     1.116 -24.43   0
        82    986.2023    713.7914 300.2987056 +22.8742649     470.2112     69.24415      1.234     2.94     -11.3485     19.58583     77.00388         8     0.969     0.519 -59.36   0
        83    495.4836    712.6473 300.1462151 +22.7268470     522.6547      69.4212      1.117     3.38    -10.74892     19.58583     76.07234         8     0.993     0.578 -61.97   0
        84    913.5355    698.4161 300.2810487 +22.8480770     469.8271     69.40351      1.094     2.51    -11.32124     19.58583     78.11658         7     0.771     0.607 -89.98   0
        85     10.5168    696.3540 300.0007648 +22.5766692     763.7605     69.40351      1.721     4.37    -11.39402     19.58583     64.97921        15     1.370     0.729 -72.89   0
        86    780.2277    696.7320 300.2400506 +22.8076453     205.2353     69.40351      0.960     2.72    -11.11013     19.58583     45.74483         6     0.723     0.576 -52.03   0
        87    458.9961    692.9733 300.1412595 +22.7102595     79.69963     69.38583      1.052     2.86    -10.59732     19.58583     32.33458         5     0.626     0.593  -0.15   0
        88    853.8351    691.1917 300.2647892 +22.8281134      428.568     69.40351      1.345     2.64    -11.20041     19.58583     64.60456         9     0.930     0.625 -29.56   0
        89    415.4963    685.2727 300.1302307 +22.6950040     298.3514     69.54486      1.118     3.14    -10.60198     19.58583     49.12428         7     0.862     0.596 -18.37   0
        90    563.4888    683.5111 300.1768539 +22.7388781     176.3598     69.58015      1.180     3.07    -10.54835     19.58583     44.10634         6     0.870     0.436 -71.08   0
        91    610.7753    682.1885 300.1920042 +22.7526759     301.4834      69.4212      0.988     2.19    -10.74794     19.58583     55.81796         7     0.799     0.555  67.28   0
        92    581.2468    681.5759 300.1830108 +22.7436471     214.4861     69.43888      0.952     2.19    -10.61145     19.58583     69.76397         6     0.827     0.431 -88.87   0
        93    459.7755    681.1974 300.1453308 +22.7071144     446.0564     69.36813      1.212     2.06    -10.47358     19.58583     72.97575         6     0.717     0.518 -32.47   0
        94    425.2428    676.6414 300.1360690 +22.6954507     753.6198     69.50955      1.060     2.19    -10.48525     19.58583      131.724        12     0.918     0.688 -73.61   0
        95    893.4872    676.3932 300.2819603 +22.8357450     1625.579     69.33273      1.082     2.03     -11.1956     19.58583     251.9166        16     0.908     0.830 -86.04   0
        96    991.7686    674.5630 300.3131980 +22.8646639     213.4688      69.4212      1.089     2.87    -10.90408     19.58583     51.38907         6     0.779     0.494   4.74   0
        97    288.6391    663.4617 300.0978720 +22.6506958     4493.207      69.4212      1.109     2.04    -10.96616     19.58583     708.6134        27     0.992     0.908  78.10   0
        98    411.1538    660.4025 300.1369659 +22.6865662     4501.242      69.4212      1.120     1.92    -10.47447     19.58583     785.8186        26     0.986     0.885  53.45   0
        99   1015.8219    655.2117 300.3269915 +22.8663098     517.7335     69.40351      1.225     3.47    -10.83124     19.58583     73.47943         7     0.914     0.571 -37.04   0
       100    822.8419    654.0657 300.2672019 +22.8081645     981.8301     69.40351      1.166     1.94     -10.9002     19.58583     184.1115        13     1.036     0.736 -77.38   0
       101    907.4593    651.5901 300.2943803 +22.8328073     6099.363     69.38583      1.081     1.90    -10.98121     19.58583     997.3469        29     0.973     0.936 -73.94   0
       102    471.7265    650.0405 300.1591790 +22.7017579     5732.619     69.40351      1.108     1.76    -10.33707     19.58583     1221.048        27     0.942     0.868  49.11   0
       103    641.2396    645.8329 300.2133095 +22.7513728     405.8379     69.45655      1.363     2.56    -10.67019     19.58583     60.69394         7     0.927     0.536 -16.52   0
       104    199.0087    645.5803 300.0758249 +22.6186776     691.9891     69.38583      1.173     2.50    -10.78319     19.58583     98.31937         8     0.760     0.678  74.05   0
       105    403.4298    638.2035 300.1417800 +22.6778804     2205.753     69.38583      1.097     1.96     -10.4505     19.58583     375.2699        19     0.903     0.828  78.21   0
       106    746.7535    637.7933 300.2487853 +22.7806900     324.1733     69.43888      1.159     2.97    -10.83945     19.58583      71.9048         9     1.023     0.671 -76.70   0
       107    381.7393    636.7401 300.1355092 +22.6709554     617.2466     69.45655      1.113     2.16    -10.53289     19.58583     100.2708         8     0.703     0.672  -4.70   0
       108    135.6885    635.9402 300.0592831 +22.5969144     419.6782     69.49189      1.317     3.83    -10.93745     19.58583      46.4276         9     0.963     0.674  64.95   0
       109    823.0846    633.4708 300.2739731 +22.8023227     745.8087     69.52721      1.257     2.61     -10.7629     19.58583     119.1604        12     0.945     0.747 -52.33   0
       110    703.7725    630.6465 300.2377204 +22.7657564     423.4031     69.45655      1.026     2.38    -10.74664     19.58583     66.62577         6     0.701     0.586  89.94   0
       111    520.0068    625.7017 300.1821148 +22.7092497     100710.9     69.31503      1.107     1.74    -10.30206     19.58583     21024.32       127     1.207     1.168  67.02   0
       112    206.0095    625.7104 300.0844595 +22.6150793     1713.305     69.35043      1.237     2.29    -10.67373     19.58583     257.4191        19     1.016     0.885  40.17   0
       113    410.6212    605.9166 300.1545120 +22.6707727     1204.946     69.38583      1.142     1.81    -10.33156     19.58583     229.4022        15     0.872     0.786 -88.93   0
       114    727.7661    594.5021 300.2569431 +22.7625688     202.7602     69.40351      1.064     2.41    -10.57311     19.58583     43.14344         5     0.703     0.455  22.71   0
       115    807.4777    592.1586 300.2825391 +22.7857815     906.0817     69.40351      1.084     1.86    -10.59087     19.58583     155.6408         9     0.741     0.644 -21.27   0
       116    678.7682    589.8891 300.2431815 +22.7465600     1288.698     69.38583      1.071     1.79    -10.31155     19.58583     263.8688        11     0.787     0.682  52.58   0
       117    923.3445    587.1536 300.3202797 +22.8190564     320.8763     69.45655      1.178     1.82    -10.53876     19.58583     56.81446         5     0.677     0.445  71.01   0
       118    466.4217    585.6937 300.1784446 +22.6817012     293.0808     69.35043      1.016     2.20    -10.07457     19.58583     60.48759         5     0.692     0.427  62.93   0
       119    936.0283    583.5399 300.3254088 +22.8218176      576.074     69.43888      1.084     2.13    -10.55361     19.58583     115.7808         9     0.793     0.680 -78.18   0
       120    921.4020    582.6743 300.3211301 +22.8171876     353.7125     69.33273      1.191     3.25    -10.53753     19.58583     56.77105         5     0.787     0.497 -43.41   0
       121    807.9405    582.2236 300.2859125 +22.7830668     1106.945      69.4212      1.208     2.09    -10.58198     19.58583     180.2405        16     1.213     0.795  82.08   0
       122    399.6992    579.0911 300.1598333 +22.6597998     79.45112     69.58015      1.143     2.09    -10.26039     19.58583     50.86326         5     0.726     0.415 -70.86   0
       123    846.0351    577.1851 300.2994216 +22.7930330     2062.969      69.4212      1.085     1.76    -10.57753     19.58583     452.2095        17     0.867     0.817 -83.41   0
       124    583.4212    573.7465 300.2187402 +22.7133473     154.9951      69.4212      1.236     3.82    -9.902658     19.58583     27.36214         5     0.810     0.685  38.01   0
       125     78.0748    567.9885 300.0634704 +22.5601413     499.7787     69.43888      1.305     2.76    -10.89682     19.58583     58.76122         9     0.782     0.750  13.22   0
       126    937.8336    567.4349 300.3312061 +22.8177314     376.7076     69.45655      1.085     2.17    -10.53582     19.58583     82.48027         7     0.749     0.616  32.99   0
       127    619.5387    547.8782 300.2383914 +22.7167461     290.3431     69.49189      1.013     2.24    -9.637401     19.58583     75.90547         7     0.773     0.577 -65.73   0
       128    679.9167    540.0765 300.2597280 +22.7326008     435.8543     69.50955      1.143     3.19    -9.840864     19.58583     80.07887        10     0.946     0.729 -42.30   0
       129    934.0213    539.9418 300.3389525 +22.8086904     310.5487      69.4212      1.055     1.83    -10.47811     19.58583     75.27208         7     0.780     0.496  54.10   0
       130    837.4380    536.0582 300.3101082 +22.7786436     440.8305      69.4212      0.990     1.92    -10.48755     19.58583     100.9538         8     0.685     0.678  86.05   0
       131    821.9609    532.5392 300.3064285 +22.7729962     331.2679      69.4212      1.026     2.23    -10.46704     19.58583      57.4881         6     0.739     0.493   7.77   0
       132    565.9524    530.6462 300.2273087 +22.6957375     1479.517     69.43888      1.061     1.75    -9.494996     19.58583     310.9271        13     0.844     0.709  52.57   0
       133    977.1295    509.4301 300.3623090 +22.8128337     641.4284      69.4212      1.122     2.44     -10.3131     19.58583     107.2468         9     0.893     0.606  49.25   0
       134    935.7244    508.2257 300.3497898 +22.8000874     532.5576     69.43888      1.051     2.09    -10.30778     19.58583     88.92117         8     0.786     0.602  84.71   0
       135    849.1797    509.0961 300.3225288 +22.7744155     288.5317     69.33273      1.243     2.56    -10.30298     19.58583     50.04279         6     0.828     0.485  54.74   0
       136    676.4791    504.3410 300.2702691 +22.7213084     533.8074     69.45655      1.018     2.50    -9.744665     19.58583     91.86726        10     0.900     0.687  60.81   0
       137    472.5626    505.1689 300.2065223 +22.6604295     186.4545      69.4212      1.090     2.79    -9.440316     19.58583     44.42077         6     0.729     0.630  24.57   0
       138    180.7054    502.6864 300.1165741 +22.5722004     254.6881      69.5978      0.980     1.79    -10.26961     19.58583     58.04044         5     0.661     0.451  13.09   0
       139    242.9081    498.5899 300.1372376 +22.5896814     1729.003     69.36813      1.142     2.13    -10.16073     19.58583     292.2318        18     0.965     0.849 -83.92   0
       140    976.0900    496.7610 300.3661014 +22.8088816     2085.349     69.40351      1.115     1.75    -10.24923     19.58583     452.6781        18     0.918     0.821 -88.69   0
       141    190.0972    493.4202 300.1225031 +22.5723591     3721.994     69.35043      1.186     2.12    -10.20187     19.58583     579.6783        23     0.996     0.878  61.31   0
       142    330.8557    487.6550 300.1681332 +22.6129173     2510.832     69.45655      1.154     1.98    -9.836279     19.58583     437.3989        21     0.991     0.879  88.87   0
       143    955.9347    487.6921 300.3627630 +22.8002396     898.2152     69.52721      1.118     1.79    -10.20133     19.58583     185.9176        12     0.852     0.721  83.08   0
       144    575.1131    484.1550 300.2452658 +22.6851349     9071.784     69.40351      1.107     1.72    -9.292312     19.58583      1977.95        32     0.969     0.891  83.42   0
       145    592.0483    484.8920 300.2502984 +22.6904219     389.6003     69.45655      1.562     3.23    -9.338937     19.58583     50.14507         7     0.916     0.592  75.31   0
       146    195.2045    471.6131 300.1311744 +22.5676346     107.9679     69.27959      1.181     3.41    -10.09446     19.58583     28.70855         5     0.737     0.455 -17.43   0
       147    129.7263    464.4191 300.1131649 +22.5459315     878.7311      69.4212      1.243     2.38    -10.29097     19.58583     131.5054        16     1.143     0.793  56.97   0
       148    515.7339    453.6953 300.2366787 +22.6585927     3226.874     69.54487      1.070     1.74    -9.201728     19.58583     659.8417        18     0.876     0.792 -89.07   0
       149    929.3626    453.8852 300.3654612 +22.7825670      441.828     69.40351      1.015     1.98    -10.13469     19.58583     122.8745         8     0.750     0.621   3.50   0
       150    230.4571    453.1180 300.1481387 +22.5729003     360.2285     69.47423      0.929     2.04    -9.913412     19.58583     71.79536         7     0.786     0.529   4.63   0
       151    719.8829    442.5319 300.3038678 +22.7165604     561.8698     69.52721      1.049     1.88    -9.688981     19.58583      109.938         8     0.773     0.572  50.68   0
       152    422.3977    439.9947 300.2120871 +22.6266826     3045.493     69.24415      1.068     1.80    -9.462676     19.58583      601.274        18     0.892     0.826 -74.86   0
       153    814.3391    434.1960 300.3360041 +22.7424605     743.9175     69.40351      1.099     1.72    -9.895279     19.58583     145.1101         8     0.767     0.582  76.75   0
       154    786.9619    421.8683 300.3314775 +22.7307184     351.5248     69.38583      1.238     2.03    -9.791945     19.58583     67.90996         6     0.704     0.537  57.40   0
       155    309.8681    419.2284 300.1838335 +22.5869865     1235.043     69.40351      1.179     2.04    -9.556168     19.58583     218.7382        14     0.878     0.792  67.70   0
       156     28.1542    416.5267 300.0971692 +22.5017253     529.8877      69.4212      1.513     2.60    -10.08018     19.58583     60.33887         8     0.789     0.653  72.57   0
       157    279.2373    408.6667 300.1777400 +22.5747715     14587.96     69.40351      1.160     2.02    -9.629573     19.58583      2506.36        43     1.100     0.937  65.69   0
       158    813.7975    405.8209 300.3450517 +22.7341454     647.0289     69.36813      1.002     1.91    -9.735939     19.58583     157.2424         9     0.802     0.587 -85.59   0
       159    729.0673    395.0651 300.3221459 +22.7056760     253.8016     69.47423      1.181     3.02    -9.529528     19.58583      59.0045         8     0.964     0.644 -55.40   0
       160    377.7383    393.7945 300.2132001 +22.6000329      240.466     69.40351      1.082     2.71    -9.294587     19.58583     39.42346         6     0.741     0.544  45.44   0
       161    689.5647    388.3018 300.3120380 +22.6918996     827.2499      69.4212      0.971     2.03    -9.325712     19.58583      167.498         9     0.800     0.607 -69.46   0
       162    904.9930    381.1656 300.3814833 +22.7543706     206.5095      69.4212      0.962     2.23    -9.712351     19.58583     71.67793         6     0.777     0.557  89.77   0
       163    351.5207    373.0488 300.2117827 +22.5862184     1076.898      69.4212      1.309     2.99    -9.274715     19.58583     151.7376        18     1.318     0.726  64.70   0
       164    790.7081    365.5795 300.3509255 +22.7156672     308.7377     69.35043      1.018     2.58    -9.413654     19.58583     52.73932         7     0.851     0.535  57.38   0
       165    427.3036    352.1667 300.2421355 +22.6029381     536.2466      69.4212      1.089     2.09    -9.232958     19.58583     103.1202         9     0.776     0.677 -31.03   0
       166    672.1045    344.0383 300.3209734 +22.6739534     1023.872     69.40351      1.097     1.69    -9.193886     19.58583     242.0023         9     0.694     0.687  39.05   0
       167    933.3019    338.2068 300.4042590 +22.7504990     1652.457     69.31503      1.128     2.04    -9.500874     19.58583     279.1461        18     0.999     0.797  85.98   0
       168    994.5950    332.7962 300.4251288 +22.7672928     231.6845     69.26187      0.967     2.88    -9.923257     19.58583      31.9831         5     0.723     0.454  70.67   0
       169   1002.7254    326.2834 300.4297791 +22.7678542      787.767     69.50955      1.063     2.28     -9.90446     19.58583     147.4135         9     0.802     0.678 -75.89   0
       170     86.2255    322.3263 300.1457921 +22.4921185     336.2266     69.43888      1.308     3.22    -9.462622     19.58583     51.96165         7     0.877     0.573  54.30   0
       171     55.0820    322.5909 300.1360325 +22.4828546     644.2216     69.36813      1.314     3.00    -9.648367     19.58583     72.37638        12     0.969     0.804 -23.80   0
       172    139.0580    314.4180 300.1647732 +22.5056922     100.1128     69.38583      1.148     3.86    -9.306777     19.58583     36.72486         5     0.875     0.488   5.60   0
       173    743.5959    305.3580 300.3558001 +22.6842529     301.9929     69.43888      1.022     1.91     -9.36884     19.58583     63.31035         5     0.631     0.482 -77.22   0
       174    841.8793    294.2851 300.3900199 +22.7105018     1018.097     69.56252      1.153     1.82    -9.388663     19.58583     191.7804        13     0.909     0.785 -65.48   0
       175    260.3756    292.0659 300.2097339 +22.5356491     1071.352     69.40351      1.093     2.25    -9.106994     19.58583     179.8447        13     0.887     0.740  71.71   0
       176    338.4883    287.0301 300.2356562 +22.5576171     517.3503     69.40351      1.304     3.08    -9.106609     19.58583     65.45867        11     0.967     0.738 -15.33   0
       177    740.0031    285.9640 300.3609767 +22.6776038     199.8434     69.43888      1.037     1.53    -9.388111     19.58583     71.32856         5     0.550     0.543   0.93   0
       178    155.0753    279.3106 300.1811460 +22.5004195     407.0959     69.56252      1.241     2.45    -9.219543     19.58583     65.43037         9     0.868     0.651 -64.85   0
       179    757.9138    275.5209 300.3699466 +22.6799664     340.4127     69.56252      0.987     2.03    -9.353762     19.58583     64.30527         5     0.693     0.516  77.59   0
       180    692.9222    275.8867 300.3495823 +22.6606079     783.0057     69.56252      1.138     1.89     -9.27977     19.58583     165.2984        10     0.806     0.683  64.25   0
       181    176.5443    272.2598 300.1901060 +22.5048325     268.2708     69.49189      1.079     2.03    -9.157597     19.58583     50.36938         5     0.659     0.477 -71.65   0
       182    964.5054    268.3894 300.4366549 +22.7397685     362.7494     69.36813      0.981     2.06     -9.46793     19.58583     80.66917         6     0.713     0.520  46.68   0
       183    696.9356    267.3511 300.3536030 +22.6593572     502.6065     69.43888      1.345     2.13    -9.251055     19.58583     70.39861         9     0.834     0.624  63.37   0
       184    617.3382    266.4967 300.3290922 +22.6352712     579.9578     69.50955      1.035     2.00    -9.060051     19.58583      102.902        10     0.820     0.627  81.45   0
       185    543.6149    258.3062 300.3087995 +22.6108338     480.1765     69.35043      1.174     2.38    -8.726757     19.58583     83.46204         9     0.867     0.633  62.73   0
       186    812.9763    258.0118 300.3927870 +22.6914219     735.7662      69.4212      1.184     2.05    -9.252444     19.58583      142.087        10     0.822     0.659  75.66   0
       187    825.0898    257.2421 300.3968118 +22.6948276     333.4001     69.43888      0.996     1.97    -9.290174     19.58583     84.01513         6     0.718     0.511  43.23   0
       188    985.7503    248.0560 300.4498801 +22.7402810     775.9608     69.45655      1.133     1.74    -9.482267     19.58583     167.5811        13     0.931     0.706  82.50   0
       189    941.6636    247.3389 300.4363651 +22.7268790     484.5474     69.45655      1.065     2.62    -9.441139     19.58583     107.1985        10     0.886     0.695  77.40   0
       190    175.5466    240.5369 300.2000915 +22.4954280     337.6073     69.47423      1.073     2.55    -9.091012     19.58583     56.36303         6     0.832     0.436 -70.20   0
       191     37.6599    235.8638 300.1587703 +22.4527452     1044.573     69.45655      1.295     2.41    -9.516273     19.58583     144.0831        17     1.086     0.830 -71.19   0
       192    860.5493    232.4004 300.4159262 +22.6983028     368.5478     69.38583      1.089     2.47    -9.406433     19.58583     61.62975         6     0.833     0.424  68.72   0
       193    195.0572    228.9765 300.2099065 +22.4979584     2834.192      69.4212      1.266     2.16    -9.038233     19.58583     445.2324        24     1.064     0.930  80.25   0
       194    178.5058    219.9289 300.2076986 +22.4903997     298.8314     69.52721      1.187     1.74    -9.024233     19.58583     55.86035         6     0.688     0.500  88.58   0
       195    993.8748    216.0733 300.4627940 +22.7335157     8925.672     69.47423      1.181     1.98    -9.438506     19.58583     1658.408        32     1.084     0.898  86.21   0
       196    839.0709    210.1732 300.4164453 +22.6854830     1651.854      69.4212      1.119     1.80    -9.210823     19.58583     342.9305        16     0.998     0.699  83.28   0
       197    942.7770    208.8340 300.4492089 +22.7161410     1472.143     69.43888      1.157     2.05    -9.326894     19.58583     281.2657        13     0.881     0.725  76.74   0
       198    312.5182    197.4697 300.2566458 +22.5241182      188.713     69.52721      0.917     3.46    -8.812809     19.58583     47.05453         6     0.925     0.398  68.75   0
       199    316.5924    196.1570 300.2583387 +22.5249622     155.4859     69.43888      1.040     3.45    -8.799783     19.58583     26.14355         5     0.798     0.431 -69.44   0
       200     78.8344    194.8031 300.1848829 +22.4533072     261.7745      69.4212      1.069     2.06    -9.157982     19.58583     53.40472         6     0.727     0.519  40.30   0
       201    439.9943    192.8383 300.2977990 +22.5609848     846.8129     69.43888      1.170     2.15    -8.554639     19.58583     169.8029        12     0.935     0.681 -86.05   0
       202    368.0190    193.2859 300.2752637 +22.5395481      206.148     69.36813      1.105     3.64    -8.687675     19.58583     40.35493         7     0.733     0.683 -28.31   0
       203    213.9700    172.8067 300.2340103 +22.4875020     2882.792      69.4212      1.232     2.14    -8.758307     19.58583     475.9119        24     1.087     0.860  65.97   0
       204   1004.4142    173.4288 300.4799193 +22.7244057     1677.512     69.43888      1.040     1.94    -9.260752     19.58583     298.9152        16     0.900     0.815  80.28   0
       205     64.9872    171.8774 300.1880196 +22.4425757     321.5889     69.43888      1.270     4.66    -9.170913     19.58583     46.76048         7     1.230     0.500  46.53   0
       206    460.0316    158.0911 300.3153072 +22.5570063     3052.786     69.36813      1.187     2.07    -8.490398     19.58583     533.2735        20     0.966     0.829  68.82   0
       207    345.4156    157.8102 300.2797437 +22.5225869     208.7594     69.35043      1.198     1.98    -8.479517     19.58583     54.23473         5     0.653     0.482 -76.43   0
       208    712.6094    147.8535 300.3972631 +22.6297079     532.7375      69.4212      1.456     3.07    -8.792321     19.58583     65.81278        10     0.973     0.723  88.42   0
       209    588.3783    138.0350 300.3617609 +22.5896862     3122.798     69.43888      1.138     1.96    -8.468238     19.58583     548.3021        18     0.960     0.792  64.15   0
       210    363.2128    137.2331 300.2919542 +22.5220093     749.5861     69.40351      1.197     2.46    -8.445377     19.58583     131.5635        12     0.935     0.724  54.03   0
       211    629.3914    135.5778 300.3753278 +22.6012619     445.7374      69.4212      0.996     2.21    -8.484263     19.58583     75.17915         6     0.756     0.488 -88.66   0
       212    111.9205    129.5995 300.2163145 +22.4445099     352.2201     69.29731      1.300     3.40    -8.728057     19.58583     48.26544         5     0.842     0.398  22.67   0
       213    632.5545    122.9314 300.3804152 +22.5985746     1337.483     69.40351      1.083     1.87    -8.405359     19.58583     238.5399        13     0.867     0.750  65.46   0
       214    273.6334    123.7412 300.2684745 +22.4912936     272.4056     69.43888      1.403     3.46    -8.532541     19.58583     33.01306         5     0.749     0.463  76.91   0
       215    647.7397    121.7259 300.3855350 +22.6027750     448.0568     69.45655      1.563     4.19    -8.423724     19.58583     70.20272        11     1.442     0.647  47.19   0
       216    718.9045    114.6234 300.4100040 +22.6220406     706.5565     69.31503      1.065     1.93     -8.60451     19.58583     149.8584        11     0.851     0.687  67.61   0
       217    657.0696    107.3659 300.3930986 +22.6014413     465.3503      69.4212      1.232     3.13    -8.338473     19.58583     67.52775        10     0.973     0.753  76.90   0
       218    462.6118    107.1476 300.3326358 +22.5431437      480.684      69.4212      1.075     2.53    -8.462642     19.58583     88.03513         7     0.801     0.559  64.01   0
       219     35.6456    106.8619 300.1999958 +22.4151183     241.5941     69.45655      1.356     3.56    -8.827287     19.58583     39.48529         5     0.797     0.459  78.06   0
       220    366.4860    105.1999 300.3033630 +22.5137888     234.2747     69.29731      0.979     2.25    -8.424097     19.58583        62.68         6     0.728     0.499  86.68   0
       221   1009.4716    101.8003 300.5047347 +22.7053166     1173.626     69.29731      1.324     2.10     -8.80296     19.58583     187.2074        18     1.056     0.896  62.65   0
       222    705.9977     95.5939 300.4121560 +22.6127063     221.3297     69.24415      1.031     2.03    -8.432044     19.58583      59.5624         5     0.723     0.476  89.73   0
       223    137.8612     95.3371 300.2354873 +22.4424488     1962.357     69.45655      1.334     2.37    -8.699615     19.58583     256.9109        19     1.055     0.902  55.26   0
       224    253.8603     87.3705 300.2741239 +22.4749237      591.089     69.45655      1.270     2.70    -8.561327     19.58583      80.4941        11     0.926     0.728 -80.81   0
       225    699.2467     87.2743 300.4127517 +22.6082936     433.0521      69.4212      1.054     1.87    -8.367559     19.58583     88.87282         7     0.698     0.578 -83.15   0
       226    736.8892     82.5014 300.4260257 +22.6181903     333.0991     69.58015      1.323     4.28    -8.565087     19.58583     51.98712         7     1.195     0.438  72.10   0
       227    756.8823     78.8640 300.4334342 +22.6231293     1166.902     69.52721      1.193     1.96    -8.565087     19.58583      232.336        14     0.927     0.817 -78.15   0
       228    462.9193     76.8157 300.3425693 +22.5345210     176.4268     69.40351      1.035     2.28    -8.471969     19.58583     48.01799         7     0.713     0.644 -12.66   0
       229    140.2834     74.2605 300.2430753 +22.4371233     463.1035     69.52721      1.192     2.56    -8.729137     19.58583     67.16462         8     0.827     0.627  89.09   0
       230    931.7952     72.0317 300.4901670 +22.6735125     302.2663     69.40351      1.051     2.52    -8.566366     19.58583     69.10286         8     0.830     0.583  52.26   0
       231    705.2728     71.2790 300.4198165 +22.6054994     406.8233     69.52721      1.160     2.19    -8.347185     19.58583     70.34866         6     0.702     0.538  50.73   0
       232    290.0231     60.9850 300.2939241 +22.4781808      216.731      69.4212      1.255     1.97    -8.533337     19.58583     42.08246         5     0.586     0.580  86.98   0
       233    557.8181     56.2395 300.3787775 +22.5570282     347.1699     69.43888      1.155     2.24    -8.367204     19.58583     65.98805         8     0.758     0.641  49.62   0
       234    720.9500     50.8925 300.4313115 +22.6043314      405.577     69.45655      1.115     1.99    -8.423909     19.58583     85.54575         7     0.685     0.632  67.31   0
       235    529.6319     49.4191 300.3722156 +22.5466278     948.5712      69.4212      1.133     2.18    -8.485664     19.58583     146.6204        12     0.885     0.704  71.32   0
       236    252.3312     46.4902 300.2869057 +22.4627247     230.0756     69.56252      1.095     3.89    -8.684976     19.58583      49.2324         8     0.920     0.814 -71.22   0
       237    486.9554     43.1948 300.3609520 +22.5320589     664.8476      69.4212      1.237     2.12    -8.510118     19.58583     123.0032        10     0.844     0.685  70.21   0
       238    592.2244     39.6568 300.3948663 +22.5625642     732.2036      69.4212      1.193     2.66    -8.073014     19.58583     123.3894        11     0.955     0.704  70.86   0
       239    236.3841     36.3497 300.2852364 +22.4550342     324.6002     69.43888      1.227     3.51    -8.773424     19.58583     51.67709         5     0.754     0.473  78.74   0
       240    412.6828     33.6922 300.3409235 +22.5070841      1041.97     69.56252      1.109     2.19    -8.481486     19.58583     173.3356        12     0.861     0.706  70.61   0
       241     59.7076     31.7865 300.2318153 +22.4007792     692.9966     69.35043      1.264     2.50    -8.710443     19.58583     115.1414        12     0.929     0.786  64.51   0
       242    254.8908     18.6851 300.2967172 +22.4555054     155.9861     69.58015      1.133     2.91     -8.75094     19.58583     39.53506         5     0.762     0.417  18.65   0
