#   1 NUMBER                 Running object number                                     
#   2 X_IMAGE                Object position along x                                    [pixel]
#   3 Y_IMAGE                Object position along y                                    [pixel]
#   4 ALPHA_J2000            Right ascension of barycenter (J2000)                      [deg]
#   5 DELTA_J2000            Declination of barycenter (J2000)                          [deg]
#   6 FLUX_APER              Flux vector within fixed circular aperture(s)              [count]
#   7 FLUXERR_APER           RMS error vector for aperture flux(es)                     [count]
#   8 FLUX_RADIUS            Fraction-of-light radii                                    [pixel]
#   9 FWHM_IMAGE             FWHM assuming a gaussian core                              [pixel]
#  10 BACKGROUND             Background at centroid position                            [count]
#  11 THRESHOLD              Detection threshold above background                       [count]
#  12 FLUX_MAX               Peak flux above background                                 [count]
#  13 ISOAREA_IMAGE          Isophotal area above Analysis threshold                    [pixel**2]
#  14 A_IMAGE                Profile RMS along major axis                               [pixel]
#  15 B_IMAGE                Profile RMS along minor axis                               [pixel]
#  16 THETA_IMAGE            Position angle (CCW/x)                                     [deg]
#  17 FLAGS                  Extraction flags                                          
         1    788.6776     11.7277 300.4335038 +22.6231502     997.1052     69.42248      1.162     2.18    -7.898453     19.55633      156.923        13     0.857     0.795  56.90   0
         2    171.9725      7.0694 300.2431112 +22.4370420     509.2181     69.31662      1.273     2.70    -8.674547     19.55633     69.81163        11     0.958     0.691  83.69   0
         3    963.3865      4.7167 300.4902358 +22.6734364     452.1227     68.01554      1.254     3.25     -8.70435     19.55633     56.79638         9     0.982     0.611 -83.28  16
         4    737.1695      4.2135 300.4198930 +22.6055664     506.1114     66.70743      1.391     2.74    -7.488642     19.55633     70.78841        10     0.863     0.771  17.13  16
         5    637.9712   1008.7923 300.0625403 +22.8642755     4467.498     69.31663      1.073     1.71    -12.16471     19.55633     972.5773        23     0.889     0.843 -66.69   3
         6    354.3137   1023.0980 299.9696254 +22.7832137      247.213     57.09911      1.051     2.91    -13.27013     19.55633     47.79678         5     0.759     0.419  71.74  24
         7    242.0286   1021.8833 299.9351156 +22.7491404     1011.864     62.65842      4.508     9.32     6.449137     19.55633     35.31214        19     2.813     0.861 -36.72  27
         8    228.4983   1022.7883 299.9306159 +22.7453353     630.9581     58.51755      2.743     6.28     12.32943     19.55633     66.83668        10     1.722     0.644 -51.65  25
         9    198.4263   1011.3682 299.9249899 +22.7330298     2314.482     69.31663     11.158    23.69      12.2969     19.55633     57.11913       134     4.631     3.365 -33.77  19
        10    217.8223   1010.1973 299.9313983 +22.7385209     2850.188     69.26363     12.618    40.23     10.66048     19.55633      67.4774       372     8.463     5.307 -36.80  27
        11    176.4313   1022.9666 299.9143790 +22.7297448     1024.726     57.69613      5.395     8.72     16.98477     19.55633     47.68456        19     1.935     1.097  -9.29  27
        12    171.4016   1016.8453 299.9148096 +22.7264802     1727.937     69.31663      7.199    14.91     15.74522     19.55633     49.07198        55     3.180     1.943 -38.07  27
        13    160.1402   1022.6624 299.9094166 +22.7247633     677.9861     59.20369      3.705     6.43     18.03982     19.55633     43.24637        11     1.376     0.845  70.70  24
        14     78.2253    932.5110 299.9133229 +22.6743282     1954.876     69.26363     10.724    17.48    -7.709422     19.55633      51.8203        78     3.088     2.749 -15.85   3
        15     74.9000    944.7167 299.9083171 +22.6768257     1943.098     69.47534     23.027    49.18    -5.532015     19.55633     54.77895       358     9.383     7.153 -39.30   3
        16    165.6849   1003.1710 299.9174861 +22.7208454     903.9904     69.31663      5.634     8.72     12.37476     19.55633      32.4395        13     1.711     1.241  18.24   0
        17    238.5701    998.4738 299.9416635 +22.7413942     4025.456     69.33427      9.571    29.47       2.8435     19.55633     97.36585       363     8.943     3.396  63.15  26
        18    530.3781    973.0676 300.0406838 +22.8217361     331.6184     69.31663      1.732     4.37    -12.70521     19.55633     30.16715         5     1.158     0.470  83.58   0
        19    242.2086    972.3412 299.9513028 +22.7349992    -267.8424      69.2813      0.814     3.00    -2.948969     19.55633     36.34484         5     0.727     0.454  14.08   0
        20    102.5346    969.1684 299.9089398 +22.6921326     1088.709     69.31663      9.060     8.81     3.512376     19.55633     42.34343        11     1.665     1.303 -66.52   3
        21     97.8950    963.6945 299.9092808 +22.6891706     1281.039     69.47534      8.877     9.13     2.133475     19.55633     39.31142        17     1.953     1.191 -13.63   3
        22    559.2354    968.9757 300.0509967 +22.8292250     661.3732     69.33427      1.041     1.92    -12.56543     19.55633     171.4518         9     0.776     0.622 -28.81   0
        23    453.0836    965.4835 300.0191042 +22.7963575      493.079      69.4401      1.083     1.98     -12.7151     19.55633     110.5277        10     0.830     0.658 -84.02   0
        24    383.6345    963.5120 299.9981450 +22.7749405     3258.716     69.29897      1.034     1.73    -12.68093     19.55633     598.4714        21     0.893     0.847 -86.23   0
        25    109.2711    963.3571 299.9129241 +22.6924917     1211.449      69.2813      7.560     8.78     1.897102     19.55633     40.29825        19     2.258     0.954 -14.90   3
        26    232.8394    998.3945 299.9399083 +22.7396501     1101.677     69.33427      1.928     6.07     4.654409     19.55633     70.61483        16     1.235     0.932  63.56   3
        27     75.3669    965.0906 299.9018296 +22.6828021     2498.626      69.2813     21.204    26.59    -1.542515     19.55633     55.30202       198     4.843     4.052  25.26   3
        28     90.4875    951.6964 299.9108860 +22.6835081      1155.69     69.49296      6.595     6.70    -2.098895     19.55633     49.99182        18     1.494     1.092 -44.88   3
        29    415.9476    950.5336 300.0124200 +22.7809223     361.2791     69.35193      1.388     2.31    -12.60161     19.55633     53.96736         5     0.722     0.540  82.95   0
        30     58.4326    988.1715 299.8890563 +22.6843252     1918.828     69.31663     19.885    40.87    -1.314403     19.55633     52.97528       287    12.745     3.638 -81.34  19
        31    930.0150    942.0377 300.1752582 +22.9327468     1111.774     69.31662      1.179     1.63    -12.59103     19.55633     250.8219        13     0.974     0.735 -19.10   0
        32     78.0931   1016.8967 299.8858089 +22.6984601     2396.024     69.49296     17.082    43.19     9.891191     19.55633     54.16261       407     8.456     6.121  11.63  27
        33    718.4348    930.6486 300.1130395 +22.8660088     360.9916     69.35193      1.250     3.40    -12.30843     19.55633     48.69478         5     0.726     0.460 -70.77   0
        34     69.3936    992.3929 299.8910857 +22.6888277     1846.603     69.17523     23.093    30.95     2.224104     19.55633     52.37702       181     7.718     3.446 -86.28  19
        35     81.4863    981.1068 299.8985158 +22.6892285     2860.042     69.49296     24.110    49.51     3.047057     19.55633     77.29431       500    10.778     6.312  43.52  19
        36    753.4274    925.2094 300.1257095 +22.8749472     527.4818     69.31663      0.981     2.03    -12.30107     19.55633     102.0774         7     0.799     0.491 -84.82   0
        37    775.7992    918.8382 300.1347526 +22.8798310     5569.016     69.31663      1.038     1.57    -12.32808     19.55633     1350.388        24     0.904     0.816  74.01   0
        38    966.7560    918.4752 300.1943838 +22.9370027     224.8496     69.29897      0.992     2.55    -12.80783     19.55633     42.02155         5     0.705     0.455 -22.54   0
        39    145.6956    980.5375 299.9186454 +22.7083562     855.6287     69.40485      4.754     8.14     6.840438     19.55633      31.7472        14     1.935     0.956  60.58   0
        40    784.1654    900.7478 300.1432479 +22.8771502     612.7594     69.33427      1.013     1.72    -12.30899     19.55633     153.5801         9     0.746     0.605  73.44   0
        41    967.1911    900.1144 300.2004966 +22.9318628     391.5754     69.24596      1.410     2.04    -12.69929     19.55633     54.64902         6     0.718     0.530  39.10   0
        42    930.4651    891.4962 300.1918521 +22.9183757     45.42609     69.42248      1.312     4.01     -12.4899     19.55633     44.18752         5     1.085     0.808 -47.19   0
        43    870.6510    885.6285 300.1751181 +22.8987531     346.4303     69.33427      1.071     3.06    -12.39587     19.55633     63.81615         6     0.933     0.484  55.18   0
        44    722.0316    884.6436 300.1291354 +22.8538896     315.4058     69.36957      1.002     1.66    -12.25994     19.55633     80.53838         7     0.641     0.616  24.01   0
        45    733.3510    882.0128 300.1335172 +22.8565307     345.9463     69.36957      1.240     1.98    -12.25432     19.55633     59.66904         7     0.679     0.632 -74.85   0
        46    434.8919    881.2192 300.0408753 +22.7667372     2025.459     69.24596      1.071     1.74    -12.01952     19.55633     442.5792        14     0.803     0.751 -53.24   0
        47    650.7184    978.1532 300.0764861 +22.8593145     3237.527     69.31663      1.100     1.84    -12.20869     19.55633     621.8146        19     0.900     0.806  48.03   0
        48    160.0437    867.0034 299.9600586 +22.6801359     374.2864     69.33427      1.152     2.71    -11.04471     19.55633     80.24713         8     0.984     0.494  33.14   0
        49    137.2343    864.1451 299.9539026 +22.6724662     726.5894     69.33427      1.148     2.09    -11.43939     19.55633     151.4501        11     0.809     0.759 -20.08   0
        50     68.6212    865.4877 299.9321539 +22.6522415     161.5878     69.24596      1.064     2.99    -12.10875     19.55633     47.56881         5     0.723     0.459  20.64   0
        51   1008.8564    852.5922 300.2289568 +22.9307133     1085.779     69.29897      1.059     1.82    -12.42404     19.55633     214.6233        12     0.889     0.696 -26.83   0
        52    668.5831    851.5424 300.1232637 +22.8283573      222.429     69.29897      1.325     2.66    -12.17328     19.55633      46.8811         5     0.916     0.455 -45.87   0
        53    963.0670    851.0624 300.2151768 +22.9165452     955.2908     69.36957      1.021     1.54     -12.4222     19.55633     273.0596        11     0.803     0.679  35.41   0
        54    746.5835    845.3953 300.1495565 +22.8499936      282.091     69.26363      0.999     2.66    -12.09789     19.55633     65.14848         7     0.803     0.635 -75.21   0
        55    169.0102    845.4443 299.9698600 +22.6766505     183.6386     69.33427      0.972     2.48    -11.43554     19.55633     46.05305         5     0.748     0.536  88.80   0
        56    614.7372    839.1999 300.1105156 +22.8086607     2440.705     69.26363      1.038     1.61    -12.05313     19.55633     547.6712        18     0.926     0.757 -54.29   0
        57    416.4796    836.3675 300.0497444 +22.7483496     242.0261     69.29897      1.002     2.67    -11.76116     19.55633     53.25911         6     0.798     0.528 -43.23   0
        58    165.0184    833.1340 299.9726254 +22.6719237     636.5624     69.29897      1.140     2.07     -11.5452     19.55633      129.719         9     0.801     0.674  23.45   0
        59    635.4374    831.6194 300.1194269 +22.8126970     325.4619     69.33427      1.056     2.40    -12.00625     19.55633     57.49393         8     0.835     0.602 -75.37   0
        60    790.7247    818.8718 300.1719388 +22.8556223      1985.83     69.38721      1.003     1.60    -11.92509     19.55633     482.1646        14     0.791     0.743 -75.40   0
        61   1007.6952    818.8338 300.2395810 +22.9206726     531.0651     69.29897      1.098     1.42    -12.21835     19.55633     127.8909         7     0.831     0.505 -63.22   0
        62    199.1159    814.2221 299.9893736 +22.6767429     408.2465      69.2813      1.562     4.64     -11.7396     19.55633     53.94441         7     1.115     0.548 -82.02   0
        63    507.8212    811.3858 300.0862899 +22.7685998     243.2274      69.2813      1.012     1.63    -11.77586     19.55633     68.68936         5     0.645     0.455 -22.15   0
        64    154.1358    809.6268 299.9768927 +22.6619185     503.3393     69.29897      1.246     2.03    -11.81325     19.55633     86.16714         9     0.812     0.628  68.53   0
        65    569.5809    804.7858 300.1076575 +22.7852392       303.21      69.2813      1.022     2.27    -11.75735     19.55633     46.87956         5     0.683     0.472  72.99   0
        66    303.8685    801.6622 300.0260187 +22.7045941     25906.39     69.36957      1.094     1.75    -11.73028     19.55633     5076.643        58     1.069     0.996  72.94   0
        67    561.9012    800.5349 300.1066504 +22.7817155     789.7158     69.40485      1.123     2.56    -11.71702     19.55633     132.0269        12     0.969     0.737 -77.08   0
        68    974.6295    799.6891 300.2355000 +22.9052626     417.2648      69.2813      1.033     1.78    -12.16318     19.55633     85.67471         6     0.631     0.562 -38.38   0
        69    590.6299    796.3558 300.1169522 +22.7891366     469.5278     69.35193      0.984     1.99    -11.73219     19.55633     87.95793         5     0.680     0.443 -68.03   0
        70    601.5163    794.8016 300.1208467 +22.7919570     413.9258     69.22829      1.079     2.19    -11.73886     19.55633     80.18493         7     0.840     0.488  80.97   0
        71    706.8402    790.9786 300.1548850 +22.8224569     232.6046     69.35193      1.085     2.31    -11.73232     19.55633     43.98819         5     0.758     0.476 -28.19   0
        72    353.5626    778.9174 300.0488694 +22.7129904      15236.9      69.2813      1.080     1.74     -11.7111     19.55633     2912.444        44     1.018     0.978 -85.87   0
        73    367.9169    779.3836 300.0531815 +22.7174327     1055.394      69.2813      1.088     1.79    -11.70555     19.55633     190.8339        12     0.893     0.709 -85.96   0
        74    876.6349    774.5156 300.2131420 +22.8686541     1414.422      69.2813      1.030     1.70    -12.02113     19.55633     252.5567        13     0.798     0.741 -13.12   0
        75    364.9393    773.2823 300.0542404 +22.7147894     355.4669     69.40485      1.593     2.50    -11.70614     19.55633     47.37801         5     0.779     0.461 -55.96   0
        76    634.5930    770.7885 300.1389566 +22.7949908      532.739     69.19292      1.119     2.52    -11.64616     19.55633     80.14998        10     0.915     0.661 -53.53   0
        77    235.9466    770.5029 300.0150426 +22.6752694     363.2156     69.40485      1.183     2.26    -11.73516     19.55633     61.65974         8     0.755     0.666  79.18   0
        78    481.6252    765.4183 300.0930942 +22.7475539     449.3352     69.33427      1.115     2.78    -11.62721     19.55633     74.12566         8     0.912     0.597  55.24   0
        79     40.8409    766.0247 299.9558871 +22.6153977     235.3537     69.35193      1.219     3.76    -12.16049     19.55633     37.40987         5     0.804     0.506  34.06   0
        80    882.6902    762.4117 300.2189672 +22.8669949    -242.0885     69.26363      0.000     2.17    -11.91501     19.55633     52.16437         5     0.666     0.471 -17.50   0
        81    427.8297    760.5971 300.0779270 +22.7300272     225.7537     69.26363      1.026     2.93    -11.66676     19.55633     44.87145         5     0.717     0.467  15.98   0
        82    860.3653    757.0004 300.2137696 +22.8587475       175.05      69.2813      0.892     2.99     -11.8274     19.55633      44.7565         5     0.738     0.431  68.98   0
        83    233.5245    754.8371 300.0193858 +22.6700511     376.4195     69.26363      1.247     1.87    -11.73496     19.55633     65.33234         5     0.680     0.464 -68.18   0
        84    943.0042    739.8424 300.2451106 +22.8785978     2237.431     69.33427      1.057     1.59    -11.83911     19.55633     544.1248        16     0.902     0.696 -65.33   0
        85    548.3881    740.9536 300.1218278 +22.7605684      699.793     69.31663      1.013     1.67    -11.57743     19.55633     137.4349         9     0.759     0.616  29.60   0
        86    931.4337    731.2234 300.2443072 +22.8726542     950.4647     69.33427      1.022     1.73    -11.77097     19.55633     162.9552        10     0.744     0.667 -43.09   0
        87    294.3005    725.4159 300.0478469 +22.6798604     417.9359     69.22829      1.095     2.09    -11.63108     19.55633      71.6109         5     0.664     0.469  18.81   0
        88    757.8426    722.5895 300.1930192 +22.8181263      1256.19     69.31663      1.116     1.93    -11.50099     19.55633     214.2382        15     1.177     0.727   2.51   0
        89    962.4741    721.2012 300.2572448 +22.8790814     868.8589     69.21061      1.020     1.81    -11.77082     19.55633     158.9926         9     0.694     0.649   0.26   0
        90    143.1560    709.3041 300.0061146 +22.6298660     263.0636     69.33427      1.207     1.97    -11.86353     19.55633     61.46784         6     0.682     0.592 -62.23   0
        91    839.8560    708.3687 300.2231976 +22.8386364     236.7221     69.33427      1.017     2.50    -11.48467     19.55633     48.71236         5     0.736     0.427 -22.04   0
        92    876.1947    699.5285 300.2373979 +22.8469932     72211.43     69.26363      1.020     1.63    -11.53417     19.55633     14695.24        89     1.077     1.017 -85.53   0
        93   1023.0107    701.3229 300.2825880 +22.8915176      570.037     57.44103      1.028     2.59    -11.84926     19.55633     119.8705         8     0.833     0.620 -10.34  24
        94    728.5854    699.9434 300.1912715 +22.8028521     282.3054     69.29897      0.976     1.71    -11.43501     19.55633     69.54998         6     0.693     0.493  88.85   0
        95    909.0033    692.1962 300.2500091 +22.8547235     171.9914     69.10443      0.941     3.15    -11.52361     19.55633     36.72406         5     0.794     0.486  62.95   0
        96    562.4694    688.4811 300.1432770 +22.7497378     734.5826     69.42248      0.992     1.91     -11.0347     19.55633     122.9359        12     0.828     0.756 -10.28   0
        97    743.7263    685.6780 300.2006271 +22.8032978      4497.22     69.42248      1.071     1.78    -11.41872     19.55633     843.4422        25     0.911     0.878  79.71   0
        98    245.2459    681.1627 300.0469901 +22.6524463     2435.275     69.35193      1.195     2.21    -11.30237     19.55633     377.4654        20     1.031     0.848 -79.44   0
        99    327.3327    678.9866 300.0732162 +22.6764604     426.0034     69.31663      0.993     1.63    -11.26946     19.55633     107.1636         7     0.661     0.587  80.51   0
       100    535.3799    674.0641 300.1395344 +22.7374745     466.6974     69.29897      1.519     5.09    -10.91019     19.55633     51.25473         9     1.250     0.587  43.56   0
       101    527.1695    666.5825 300.1394122 +22.7328647     1595.968     69.29897      1.097     1.93    -10.86806     19.55633     271.0709        16     0.924     0.835  35.40   0
       102    517.3868    660.3545 300.1383930 +22.7281430     710.6332     69.31663      1.070     2.05    -10.82883     19.55633     99.57567        10     0.761     0.720   1.73   0
       103    180.4509    656.3434 300.0349239 +22.6258795     386.4417     69.36957      1.188     2.99    -11.49651     19.55633     56.07618         5     0.721     0.441  66.16   0
       104    195.3420    654.9120 300.0400166 +22.6299393     267.3329     69.38721      1.020     1.75    -11.40565     19.55633     61.58625         5     0.684     0.424 -66.57   0
       105    220.5842    651.7709 300.0488823 +22.6366157      243.691     69.31663      1.150     2.69    -11.25423     19.55633     44.02652         5     0.714     0.454  69.65   0
       106    442.1197    650.1375 300.1182967 +22.7026303     941.9472     69.42248      1.268     2.21    -11.14988     19.55633     138.1287        11     0.804     0.765  75.13   0
       107   1017.9489    647.2358 300.2985995 +22.8744650     341.0836     69.33427      0.946     1.88    -11.51703     19.55633      90.4346         7     0.658     0.634  65.07   0
       108     96.2257    645.2122 300.0123766 +22.5974026      9702.17     69.31663      1.187     1.91    -11.64611     19.55633     1698.239        38     1.049     0.986 -89.57   0
       109     17.0191    646.7559 299.9872763 +22.5740625     544.7103     69.33427      1.388     2.16    -11.65922     19.55633     66.02634         7     0.694     0.633  64.41   0
       110    527.1133    645.3278 300.1463060 +22.7267491     552.3922      69.4401      1.133     2.02    -10.70217     19.55633     94.50933         9     0.830     0.603 -80.03   0
       111    280.3348    637.0640 300.0722361 +22.6503321     228.4066     69.36957      1.165     2.51    -11.16883     19.55633     44.15846         5     0.793     0.501 -32.84   0
       112    945.0713    631.1364 300.2811096 +22.8479995     540.8903     69.35193      1.098     2.31    -11.27642     19.55633     103.1674         9     0.822     0.632 -84.07   0
       113     42.3062    629.3604 300.0007839 +22.5766693     776.9738     69.33427      1.551     5.44    -11.49574     19.55633     72.13001        12     1.264     0.662  87.24   0
       114    811.4675    629.2223 300.2400900 +22.8074011     244.3199     69.31663      1.238     2.30    -11.06599     19.55633     42.98907         5     0.689     0.473  71.64   0
       115    885.3158    624.2099 300.2647340 +22.8280995     364.4166     69.26363      1.066     2.52    -11.23142     19.55633     60.30286         6     0.713     0.591 -15.03   0
       116    447.5581    618.2338 300.1303615 +22.6951089     419.6022     69.36957      1.374     2.53    -10.84206     19.55633     53.98418         6     0.672     0.633 -11.80   0
       117    642.4113    615.2120 300.1919880 +22.7526883     234.6941     69.21061      1.202     2.33    -10.59178     19.55633     39.04698         5     0.680     0.478  76.19   0
       118    612.6896    614.9423 300.1828221 +22.7436973     314.9505     69.38721      1.062     2.18    -10.38783     19.55633     53.59672         7     0.706     0.637  73.09   0
       119    491.5257    614.1856 300.1453571 +22.7071375     325.2038     69.31663      1.069     2.06    -10.47308     19.55633     88.62984         9     0.812     0.655  27.30   0
       120    925.1640    609.4769 300.2819457 +22.8358120     1720.152      69.2813      1.032     1.59    -11.17236     19.55633      341.162        15     0.854     0.751 -80.98   0
       121    457.0657    609.5588 300.1361396 +22.6954722      841.072      69.2813      1.139     1.94    -10.68637     19.55633     166.8062        12     0.929     0.743  33.81   0
       122   1023.2228    607.2925 300.3132321 +22.8645712    -493.2085     56.34394      1.071     2.65    -11.12198     19.55633     68.58889         8     0.871     0.615 -82.74  24
       123     19.0049    603.4101 300.0019842 +22.5622342     2537.988     69.17523      1.237     2.03    -11.21925     19.55633      398.557        23     1.075     0.930 -76.79   0
       124    433.0806    604.3189 300.1303814 +22.6867731     243.7215      69.4401      1.239     3.48    -10.87051     19.55633     31.60096         5     1.015     0.345 -43.54   0
       125    320.3650    596.4433 300.0978870 +22.6506943     4445.065     69.36957      1.101     2.06    -10.97417     19.55633     617.2594        24     0.983     0.851  77.29   0
       126    442.8252    593.3572 300.1369763 +22.6865514     4465.991     69.35193      1.150     1.95    -10.66348     19.55633     740.7407        26     0.983     0.902  77.45   0
       127    854.5336    587.1325 300.2671946 +22.8082246     938.6945     69.36957      1.045     2.40    -11.00415     19.55633      156.739        12     0.887     0.723 -66.20   0
       128    939.0358    584.5701 300.2943678 +22.8328155     6267.963     69.33427      1.043     1.68    -11.02933     19.55633     1270.453        30     0.948     0.901 -54.71   0
       129    503.3542    582.9955 300.1591772 +22.7017355     5617.812     69.29897      1.163     2.06     -10.2567     19.55633     879.4193        26     0.982     0.903  59.99   0
       130    231.0775    578.5036 300.0759621 +22.6187540     661.7471      69.4401      1.165     2.24    -10.92015     19.55633     100.0311         9     0.772     0.725 -10.73   0
       131    435.0329    571.1540 300.1417696 +22.6778430     2258.393     69.35193      1.243     1.97    -10.49364     19.55633     378.2405        22     1.009     0.924  59.99   0
       132    777.9319    570.9105 300.2485988 +22.7806038     286.2533     69.45773      1.072     2.31    -10.70944     19.55633     72.06106         7     0.783     0.556  47.85   0
       133    413.2563    569.6398 300.1354878 +22.6708757     542.3591     69.29897      1.170     2.21    -10.59259     19.55633     88.91726         9     0.813     0.642  68.61   0
       134    167.6237    569.0523 300.0593152 +22.5969991     300.3914     69.33427      1.174     2.75    -10.85666     19.55633     53.97973         7     0.820     0.583  54.86   0
       135    854.8370    566.5488 300.2739804 +22.8024040     826.9713     69.33427      1.350     2.39    -10.88028     19.55633     107.6175        11     0.932     0.671 -44.28   0
       136    375.2536    564.9006 300.1252083 +22.6581147     268.5161     69.40485      1.138     3.83    -10.54392     19.55633     36.93193         6     0.904     0.465 -52.14   0
       137    735.3970    563.3063 300.2378201 +22.7656687     354.3706     69.22829      1.158     2.49    -10.55134     19.55633      61.4939         9     0.821     0.715 -65.28   0
       138    551.6511    558.6566 300.1821190 +22.7092363     99700.47     69.36957      1.172     1.96     -10.0035     19.55633     17026.05       127     1.261     1.214 -50.02   0
       139    237.7989    558.8423 300.0844417 +22.6151321     1734.628     69.31663      1.185     2.16    -10.73265     19.55633     317.5267        19     1.032     0.822  89.69   0
       140    442.2461    538.9446 300.1544824 +22.6707644     1253.386     69.35193      1.180     2.26    -10.15461     19.55633     211.7206        14     0.926     0.805  74.30   0
       141    853.6649    535.1509 300.2838208 +22.7930349      184.111     69.33427      0.973     3.43    -10.71893     19.55633     33.60007         5     0.796     0.428 -72.75   0
       142    759.3583    527.4878 300.2569263 +22.7625667     288.7604     69.31663      1.135     3.55    -10.46245     19.55633     37.06845         7     0.919     0.544  59.90   0
       143    839.1048    525.1307 300.2825399 +22.7857931     902.1246      69.4401      1.114     2.01    -10.66004     19.55633     174.8135        12     0.953     0.707 -19.41   0
       144    710.4733    522.6987 300.2432554 +22.7465368     1167.103     69.45773      1.117     2.11    -10.25218     19.55633     192.8844        12     0.834     0.758  84.69   0
       145    498.0695    518.5057 300.1784933 +22.6816425      277.113      69.4401      1.138     2.76    -9.913745     19.55633     59.63073         6     0.835     0.629 -84.12   0
       146    967.8536    516.5820 300.3254522 +22.8219199     602.1519     69.29897      1.028     1.75    -10.67098     19.55633     135.6464         8     0.696     0.640 -35.32   0
       147    953.5322    515.7635 300.3212528 +22.8173936     583.0624     69.31663      1.619     2.99    -10.68587     19.55633     61.15505         6     0.771     0.497 -85.36   0
       148    839.7579    515.5857 300.2858455 +22.7832473      991.033     69.33427      1.117     2.07    -10.64033     19.55633     154.5335        12     0.828     0.717  45.83   0
       149    592.5053    513.2856 300.2095815 +22.7084644     286.7055     69.49296      2.189     2.79    -9.820513     19.55633     39.91429         5     0.717     0.472  72.25   0
       150    431.2002    512.1469 300.1597550 +22.6597611     205.5402     69.26363      0.995     2.22    -10.02309     19.55633     45.77508         6     0.737     0.526  41.99   0
       151    877.5583    510.2227 300.2993694 +22.7930354      2089.91     69.35193      1.067     1.93    -10.69287     19.55633     372.4868        16     0.888     0.785 -15.41   0
       152    969.1978    500.5487 300.3310820 +22.8177161     460.5054     69.29897      1.132     2.70    -10.59627     19.55633     73.84367         7     0.787     0.675 -71.89   0
       153    109.8589    500.8811 300.0635228 +22.5601118     422.8099     69.36957      1.120     2.01    -10.55965     19.55633     95.20886         8     0.785     0.582 -51.59   0
       154    102.2190    490.5148 300.0645178 +22.5548460     287.3522     69.24596      1.182     2.15    -10.49928     19.55633     67.93139         6     0.850     0.609 -34.01   0
       155    651.2490    480.8677 300.2384053 +22.7167704      352.331     69.31663      0.989     2.01    -9.789662     19.55633     82.78205         7     0.799     0.522  55.11   0
       156    965.8224    473.2097 300.3389136 +22.8088497      286.633     69.31663      1.039     2.51    -10.48585     19.55633     51.22865         6     0.698     0.582 -51.71   0
       157    712.0124    472.6187 300.2600088 +22.7326174     440.0386      69.2813      1.175     2.05    -10.06853     19.55633     77.97884         6     0.750     0.484  -4.59   0
       158    869.1454    469.1790 300.3100848 +22.7787240     561.0496     69.31663      1.330     2.41    -10.48116     19.55633     83.81111         8     0.779     0.660 -43.84   0
       159    853.4561    465.2384 300.3064753 +22.7728904     298.0637     69.31663      1.213     3.46    -10.40317     19.55633     60.16888         9     1.078     0.772  58.74   0
       160    597.6276    463.6091 300.2273182 +22.6957387     1494.823     69.31663      1.187     2.18    -9.753407     19.55633     237.7189        15     0.957     0.785  83.68   0
       161    958.3445    462.2420 300.3401457 +22.8034579     222.0207      69.2813      0.864     1.81     -10.4387     19.55633     69.96133         5     0.700     0.418  66.29   0
       162   1008.7925    442.4155 300.3623190 +22.8128739     676.5815     69.24596      1.079     2.17    -10.61335     19.55633     95.61802        10     0.835     0.683  87.71   0
       163    880.4910    442.6660 300.3222354 +22.7745069     123.3471      69.4401      0.941     2.84    -10.16892     19.55633     52.15543         5     0.727     0.419 -62.67   0
       164    967.1956    441.1553 300.3497568 +22.8000505     454.2706     69.31663      1.131     1.82    -10.37995     19.55633     99.68266         8     0.724     0.615 -31.00   0
       165    707.9135    437.5708 300.2701193 +22.7213236      587.085     69.31663      1.251     2.43    -9.860345     19.55633     89.71917         9     0.796     0.735 -10.00   0
       166    212.1617    435.6745 300.1164947 +22.5721084     383.5986     69.26363      1.260     2.51    -10.15636     19.55633     72.04799         6     0.812     0.620  89.49   0
       167    274.7208    431.6559 300.1372454 +22.5897243     1745.952     69.35193      1.142     2.02    -10.09721     19.55633      300.063        18     0.907     0.889  14.04   0
       168   1007.6119    429.7914 300.3660523 +22.8088923     2090.643     69.21061      1.035     1.78    -10.67643     19.55633     379.4565        19     0.923     0.828  75.86   0
       169    221.8452    426.4171 300.1225115 +22.5723579     3785.978     69.33427      1.243     2.07    -10.09478     19.55633     589.3892        29     1.067     1.003  46.61   0
       170    362.5595    420.6022 300.1681481 +22.6129011     2367.337     69.31663      1.220     2.12    -9.778935     19.55633     393.7275        20     1.055     0.865 -87.07   0
       171    987.6119    420.8700 300.3627136 +22.8003373     832.5038     69.33427      1.015     1.78    -10.52626     19.55633     172.7804        11     0.832     0.657   6.28   0
       172    606.7527    417.1594 300.2452494 +22.6851376     8989.371     69.36957      1.246     2.17    -9.753407     19.55633     1364.391        37     1.081     1.016 -89.78   0
       173    623.3069    417.5359 300.2502810 +22.6902084      420.291     69.42248      1.634     3.94    -9.745894     19.55633     50.27422         6     0.905     0.674 -81.16   0
       174    161.4236    397.5317 300.1131172 +22.5459426     1016.285     69.31663      1.210     2.41    -10.04347     19.55633     149.7297        12     0.951     0.760 -79.24   0
       175    547.4405    386.6338 300.2367018 +22.6585910     3171.103     69.36957      1.215     2.20    -9.749505     19.55633      469.639        26     1.052     0.958  53.59   0
       176    961.0093    386.7353 300.3655068 +22.7825586     448.4649     69.29897      1.021     2.16    -10.06184     19.55633     102.3448         9     0.850     0.616  56.90   0
       177    262.5263    386.0920 300.1482544 +22.5729922     364.5731     69.45773      1.139     1.92    -9.991733     19.55633     51.33978         6     0.707     0.498  86.26   0
       178    751.5617    375.7621 300.3037933 +22.7166522     644.0031     69.38721      1.305     2.78    -9.803623     19.55633     85.25446        11     0.985     0.726  86.79   0
       179    453.9766    372.9978 300.2120462 +22.6266528      2907.36     69.26363      1.258     2.08    -9.741044     19.55633     487.7072        23     0.977     0.955 -69.77   0
       180    943.3721    367.2749 300.3663284 +22.7716827     262.7863     69.33427      1.039     2.25    -9.900501     19.55633     57.15371         6     0.786     0.482 -42.06   0
       181    846.0902    366.9252 300.3361174 +22.7424383     700.3684     69.47534      1.244     2.44    -9.835518     19.55633     113.5668        12     0.892     0.810  10.97   0
       182    818.6592    354.7175 300.3315338 +22.7307120     192.5936     69.40485      0.908     2.48    -9.823308     19.55633     49.77386         5     0.736     0.425  69.55   0
       183    341.6223    352.3212 300.1838140 +22.5870247     1291.263      69.2813      1.230     2.17    -9.751664     19.55633     186.9527        17     0.962     0.886  84.18   0
       184     59.8794    349.4600 300.0971838 +22.5016838     551.7088     69.36957      1.300     2.73    -10.16546     19.55633     73.70776         9     0.850     0.710  21.89   0
       185    310.9652    341.6932 300.1777325 +22.5747799     14578.09      69.2813      1.273     2.23    -9.763736     19.55633         2235        44     1.116     1.057  83.04   0
       186    845.5250    338.7657 300.3450866 +22.7341777     558.1517     69.31663      1.135     2.21    -9.821669     19.55633     107.8405        10     0.791     0.746  34.20   0
       187      7.3008    329.6173 300.0872986 +22.4802145     2561.511     69.22829      1.210     2.24    -10.30329     19.55633     347.2003        20     1.039     0.857 -76.77   0
       188    409.3156    326.5852 300.2132248 +22.5999371     202.4641      69.2813      1.302     3.47    -9.578268     19.55633      29.4383         5     0.758     0.458 -17.46   0
       189    721.2001    321.1946 300.3120568 +22.6918783     829.5908     69.13984      1.198     2.34      -9.8105     19.55633     122.0213        12     0.851     0.778  27.54   0
       190    936.4172    313.8706 300.3815035 +22.7542510     303.8386     69.33427      1.221     3.09    -9.806896     19.55633     40.88475         5     0.737     0.446 -69.08   0
       191    383.0420    305.8493 300.2117854 +22.5861061     1042.409     69.33427      1.441     3.27    -9.480835     19.55633     124.6075        15     1.177     0.788  73.58   0
       192    822.3127    298.5987 300.3508960 +22.7156816     272.7297     69.24596      1.004     2.64    -9.782744     19.55633      57.6461         5     0.684     0.486  -7.98   0
       193    703.8587    296.6526 300.3146242 +22.6796313     161.1516     69.36957      1.117     2.55    -9.794747     19.55633     43.10586         5     0.755     0.410  22.45   0
       194    459.1901    285.4067 300.2421106 +22.6030680     638.7529     69.17523      1.357     2.53    -9.363325     19.55633     75.59357        11     0.908     0.730 -51.43   0
       195    703.7618    277.0803 300.3209487 +22.6739794     1079.543      69.2813      1.284     2.42    -9.781656     19.55633     162.0239        15     1.047     0.782  68.78   0
       196    964.9783    271.2676 300.4042416 +22.7505592     1477.959     69.29897      1.103     2.00    -9.778256     19.55633     263.9296        15     0.880     0.752 -88.63   0
       197    117.5489    255.3462 300.1456524 +22.4919856     395.1925     69.35193      1.330     3.94    -9.907703     19.55633     43.40169         8     0.938     0.724 -65.07   0
       198     87.0429    255.2934 300.1361929 +22.4828191      645.124     69.33427      1.365     3.26    -9.926702     19.55633     69.69847        11     1.030     0.699 -51.51   0
       199    873.4658    227.5502 300.3899040 +22.7105853     1047.161     69.31663      1.167     2.11    -9.539762     19.55633     131.0582        15     0.956     0.837  69.02   0
       200    292.0002    224.9207 300.2097456 +22.5355744     1125.981     69.19292      1.268     2.54    -9.432076     19.55633      158.756        15     0.968     0.899  21.19   0
       201    369.8121    219.9483 300.2355560 +22.5574774     454.3329     69.33427      1.434     4.32    -9.500741     19.55633     56.32761        10     1.125     0.683 -59.08   0
       202    771.9561    219.1561 300.3609954 +22.6777670     237.5164     69.35193      1.200     2.39     -9.68454     19.55633     51.52346         5     0.635     0.549  86.11   0
       203    186.8141    212.1858 300.1811830 +22.5003754     426.6574     69.24596      1.276     2.70     -9.65339     19.55633     55.67744         8     0.786     0.664  44.21   0
       204    789.6378    208.7273 300.3698895 +22.6800666     330.9303      69.2813      1.095     2.10    -9.600614     19.55633     48.69915         5     0.663     0.473  79.11   0
       205    724.5032    208.8260 300.3495654 +22.6605827     909.9219     69.26363      1.274     2.40    -9.684937     19.55633     125.8351        13     1.058     0.710  36.80   0
       206    208.2400    205.5674 300.1899897 +22.5049014      370.454     69.35193      1.581     3.33    -9.591798     19.55633     36.39124         6     0.909     0.645  27.54   0
       207    996.0519    200.9870 300.4367459 +22.7396588     416.5518     69.35193      1.130     2.47    -9.681537     19.55633     87.03001        10     0.856     0.773 -71.27   0
       208    728.7885    200.1495 300.3537163 +22.6593733     432.8294     69.35193      1.345     2.47    -9.642921     19.55633     57.84816         7     0.723     0.640  72.14   0
       209    649.1851    199.5694 300.3291123 +22.6353572      618.664     69.31663      1.259     2.56    -9.437809     19.55633     94.61731        11     0.922     0.768  17.27   0
       210    575.1999    191.7480 300.3086158 +22.6109407     483.0382     69.26363      1.355     3.23    -9.326313     19.55633     59.46975         6     0.864     0.482 -34.96   0
       211    844.5565    190.9229 300.3927819 +22.6913988     557.5881     69.29897      1.130     2.23    -9.460918     19.55633     117.9131        11     0.903     0.827 -43.37   0
       212    856.8390    190.4432 300.3967656 +22.6949395     412.5277     69.40485      1.165     2.93    -9.441515     19.55633     59.06909         6     0.764     0.496   2.28   0
       213   1017.5901    180.9128 300.4499784 +22.7403352     869.7283     69.26363      1.188     1.89    -9.657534     19.55633     139.8802        12     0.951     0.712  49.91  16
       214    973.3074    180.4654 300.4363134 +22.7269482     505.0929     69.42248      0.991     2.28    -9.526144     19.55633     84.10933         7     0.795     0.544  52.56   0
       215    207.5824    173.6147 300.2001544 +22.4955326     504.2039     69.29897      1.622     2.87    -9.448131     19.55633     55.33059         9     0.930     0.668 -31.03   0
       216     69.4543    168.7168 300.1588268 +22.4527005     1073.291     69.35193      1.281     2.47     -9.32974     19.55633     138.2109        13     0.900     0.817  26.50   0
       217    892.1062    165.2958 300.4159195 +22.6982722     496.5697     69.49296      1.551     3.56    -9.360204     19.55633     54.25882         7     0.987     0.597  -9.30   0
       218    226.8825    162.0201 300.2099153 +22.4979917     2790.918      69.2813      1.281     2.11     -9.42075     19.55633     448.9848        24     1.040     0.943  46.20   0
       219     10.8934    156.4282 300.1446267 +22.4316081     494.0423     69.22829      1.079     2.14    -9.202325     19.55633     102.9289        10     0.860     0.668  87.32   0
       220    209.8567    152.7128 300.2076434 +22.4902146     346.5144     69.38721      1.304     3.28     -9.34492     19.55633     42.97656         6     0.856     0.620 -59.89   0
       221   1023.7754    149.0042 300.4622625 +22.7330111      1027.98     53.33107      0.973     2.35    -9.499515     19.55633     309.6071        12     1.116     0.517 -87.70  24
       222    870.6989    143.2164 300.4164114 +22.6855141     1580.681     69.22829      1.149     2.09    -9.299125     19.55633     277.2238        18     0.947     0.850  89.38   0
       223    974.4899    141.8940 300.4491991 +22.7162114     1334.929     69.47534      1.108     2.05    -9.371574     19.55633     236.6548        15     0.853     0.823  63.45   0
       224    420.2760    138.4743 300.2776920 +22.5492084      388.341     69.40485      1.732     4.95    -9.277272     19.55633     37.47848         8     0.953     0.729  44.55   0
       225    344.4572    129.7851 300.2569288 +22.5239866     335.0607     69.29897      1.508     4.06    -9.271276     19.55633     34.17727         7     0.981     0.479  80.84   0
       226    110.5094    128.0780 300.1847654 +22.4533511     369.6965     69.45773      1.302     4.07    -9.153235     19.55633     43.82383         7     0.976     0.486 -82.08   0
       227    471.7273    125.9745 300.2977552 +22.5610384     850.8307     69.33427      1.266     2.40    -9.240096     19.55633     111.8838        12     0.886     0.799 -67.88   0
       228    245.6740    105.8480 300.2339809 +22.4874994     2878.832     69.31663      1.261     2.23    -9.105755     19.55633     443.1828        20     1.003     0.917 -84.09   0
       229    751.6951    106.1997 300.3913381 +22.6392338     351.3345     69.19292      1.722     4.21    -9.063347     19.55633     39.10004         5     0.968     0.689  -6.12   0
       230     96.9519    105.4477 300.1878951 +22.4427898     324.6058     69.35193      1.117     2.28      -9.0673     19.55633     57.28667         5     0.711     0.554 -82.24   0
       231    874.8089    102.6339 300.4308597 +22.6750773     203.6765     69.31663      1.445     3.63    -9.188388     19.55633     25.69235         5     0.984     0.385 -85.09   0
       232    491.6318     91.1078 300.3152603 +22.5569873     3144.624     69.26363      1.300     2.37    -9.087279     19.55633     443.1096        25     1.062     0.968  83.26   0
       233    376.9180     90.8055 300.2796699 +22.5225221      289.909     69.24596      1.137     5.07    -9.179641     19.55633     45.04726         9     0.955     0.862 -36.16   0
       234    743.9770     80.8407 300.3971604 +22.6296330      505.671     69.35193      1.543     5.60    -8.733622     19.55633     51.80851        11     1.420     0.622 -71.84   0
       235    620.0422     71.0477 300.3617383 +22.5896963     2976.042     69.35193      1.307     2.35    -8.651042     19.55633     420.3176        22     0.992     0.976 -24.15   0
       236    395.2037     70.1394 300.2920611 +22.5220668     756.4457     69.29897      1.317     2.60    -9.039952     19.55633     110.2748        10     0.849     0.754  68.53   0
       237    661.1901     68.3426 300.3754287 +22.6012448     386.3332      69.2813      1.204     2.77    -8.497268     19.55633     70.73392         7     0.827     0.591 -35.99   0
       238    143.4878     62.7628 300.2161985 +22.4444918     338.3348     69.29897      1.188     3.14    -8.858888     19.55633     48.56686         8     0.908     0.619 -75.19   0
       239    715.7096     59.7993 300.3951802 +22.6151188     181.4501     69.19292      1.015     1.98    -8.367305     19.55633      53.2304         5     0.705     0.429  74.54   0
       240    664.1849     55.8313 300.3804196 +22.5985460     1287.356     69.31663      1.268     2.26    -8.324519     19.55633      200.769        17     1.088     0.784  84.93   0
       241    304.9698     56.7363 300.2683460 +22.4911724     235.8304     69.33427      1.366     4.58    -9.210353     19.55633     48.92484         6     1.204     0.521  29.25   0
       242    678.9913     54.1869 300.3855641 +22.6025082     461.5949     69.21061      2.005     4.96    -8.258528     19.55633     39.97599         7     1.127     0.625  43.38   0
       243    750.8043     47.5923 300.4100721 +22.6221201     688.9763     69.17523      1.271     2.44    -8.246263     19.55633     104.4214        14     0.901     0.875   3.27   0
       244    688.6565     40.5150 300.3930087 +22.6014733     247.4068     69.40485      1.133     2.52    -8.068995     19.55633     53.89493         8     0.828     0.668 -47.51   0
       245    494.3410     40.0457 300.3326659 +22.5431290     454.8271     69.35193      1.218     3.19    -8.527796     19.55633     62.50782         9     0.916     0.673 -40.04   0
       246     67.2175     40.4856 300.1997289 +22.4152267     281.5237      69.2813      1.179     3.45     -8.81836     19.55633     43.67952         5     0.771     0.445 -21.12   0
       247    398.2737     37.8878 300.3034765 +22.5137227     500.4171     69.45773      1.437     3.75    -8.849441     19.55633     57.98306         8     0.926     0.615  87.83   0
       248    780.6766     36.9315 300.4228368 +22.6280008     163.1649     69.40485      1.118     3.80    -8.213135     19.55633     42.11562         6     0.917     0.451  50.26   0
       249    169.5733     28.3829 300.2354541 +22.4424424     1922.602     69.33427      1.290     2.34    -8.737953     19.55633     250.6228        17     0.958     0.899  74.32   0
       250    730.8076     20.4910 300.4126323 +22.6083408     445.0593     69.22829      1.136     3.25    -7.744624     19.55633     73.84453         7     0.783     0.686 -79.95   0
       251    285.5374     20.1499 300.2741694 +22.4748405     568.5667     69.36957      1.229     2.78    -9.216405     19.55633     84.99733        12     0.940     0.823 -84.39   0
       252    768.5610     15.1257 300.4261340 +22.6181037     298.0123      69.2813      1.193     3.03    -7.834018     19.55633     41.58609         6     0.781     0.496 -88.99   0
       253    692.0341     15.2117 300.4022670 +22.5952115     137.0544     69.29897      0.806     1.98    -7.680182     19.55633     53.46326         5     0.747     0.447  57.00   0
       254    545.9034   1015.9113 300.0315641 +22.8386807      1152.77     69.49296      1.112     1.78      -13.038     19.55633     256.7762        11     0.762     0.717 -19.92   0
       255    732.6486   1011.7981 300.0910436 +22.8935515     460.5375     69.29897      1.382     2.33    -13.98951     19.55633     59.88965         6     0.684     0.621 -32.32   0
       256    632.3708   1011.0636 300.0600571 +22.8632459     4146.318     69.33427      1.098     1.72    -12.16188     19.55633     779.6417        23     0.939     0.856  -9.70   2
