#   1 NUMBER                 Running object number                                     
#   2 X_IMAGE                Object position along x                                    [pixel]
#   3 Y_IMAGE                Object position along y                                    [pixel]
#   4 ALPHA_J2000            Right ascension of barycenter (J2000)                      [deg]
#   5 DELTA_J2000            Declination of barycenter (J2000)                          [deg]
#   6 FLUX_APER              Flux vector within fixed circular aperture(s)              [count]
#   7 FLUXERR_APER           RMS error vector for aperture flux(es)                     [count]
#   8 FLUX_RADIUS            Fraction-of-light radii                                    [pixel]
#   9 FWHM_IMAGE             FWHM assuming a gaussian core                              [pixel]
#  10 BACKGROUND             Background at centroid position                            [count]
#  11 THRESHOLD              Detection threshold above background                       [count]
#  12 FLUX_MAX               Peak flux above background                                 [count]
#  13 ISOAREA_IMAGE          Isophotal area above Analysis threshold                    [pixel**2]
#  14 A_IMAGE                Profile RMS along major axis                               [pixel]
#  15 B_IMAGE                Profile RMS along minor axis                               [pixel]
#  16 THETA_IMAGE            Position angle (CCW/x)                                     [deg]
#  17 FLAGS                  Extraction flags                                          
         1    966.6861     12.1716 300.4902725 +22.6734550    -24.70632     69.48573      1.298     2.82    -8.335119     19.60404     47.47261         7     0.813     0.585  70.59   0
         2    739.9950     11.5933 300.4197995 +22.6054269     463.5989       69.344      1.427     3.70    -8.723024     19.60404      59.3509         9     0.888     0.810 -25.38   0
         3    147.5179    988.1854 299.9181522 +22.7080135     846.1427     69.46803      3.940     7.54     6.361897     19.60404     33.56994        12     2.208     0.721  57.63   0
         4    549.2278   1023.2138 300.0316626 +22.8386810     995.7353     56.52494      1.036     2.07    -12.39451     19.60404     209.3652        12     0.815     0.752   9.20  24
         5    201.7257   1019.0155 299.9249579 +22.7331296     2635.631     69.48573     13.516    28.86     8.509389     19.60404     70.37162       217     5.484     4.218 -13.15  27
         6    220.9762   1016.7291 299.9316849 +22.7382569     3204.846     69.50343     10.334    28.02     5.828978     19.60404     66.63667       268     5.061     4.788 -89.07  27
         7     79.8915    984.7244 299.8982715 +22.6867061     2395.355     69.62718     26.934    83.34     1.194517     19.60404     62.47665      1114    17.400    11.076 -77.31  18
         8     76.0473    946.0648 299.9096622 +22.6744768     1936.614     69.52113     17.776    26.34    -7.392419     19.60404     50.74288       144     6.612     2.913 -53.62   3
         9    653.8193    985.5656 300.0764817 +22.8592765     3340.208     69.50343      1.142     2.01    -13.04997     19.60404     561.9648        21     0.964     0.844  51.53   0
        10    191.2813   1017.3292 299.9222614 +22.7295091     761.8229     69.59185      4.075     4.30     9.425485     19.60404     54.38357         5     1.133     0.465   3.88  17
        11     65.4740    991.8614 299.8914702 +22.6844189      2060.34     69.52113     15.551    19.64    -1.399397     19.60404     61.10165        93     4.114     2.604  20.91   3
        12    176.3001   1021.6078 299.9162130 +22.7262347     1360.282     63.89833      8.239    13.06     12.31497     19.60404     49.56299        29     2.881     1.646 -71.68  26
        13    562.3124    976.3580 300.0509918 +22.8291733     532.7538     69.48573      0.943     1.81    -12.46535     19.60404     136.9175        10     0.819     0.625 -32.58   0
        14    168.6722   1008.9350 299.9179692 +22.7203127     1218.949     69.52113      5.344     6.64     10.28047     19.60404      38.5753        12     1.561     0.793 -66.28   0
        15     63.6038    963.5395 299.9001093 +22.6757444     1476.077     69.46803     16.911    19.62    -5.857181     19.60404     43.23893        72     5.297     2.018 -66.47   3
        16    735.8196   1019.3358 300.0910232 +22.8935687     270.6333     69.46803      1.106     3.76    -13.09038     19.60404     54.22364         8     1.035     0.557  57.36  16
        17    456.2689    972.9811 300.0190922 +22.7963738     487.4992     69.48573      1.156     1.86    -12.49718     19.60404     103.4318         9     0.846     0.623  32.98   0
        18    386.8450    971.0621 299.9981217 +22.7749811     3188.533     69.50343      1.153     1.90    -12.74108     19.60404     639.7637        23     0.950     0.907 -59.52   0
        19    241.4812   1006.8159 299.9412855 +22.7415754     4433.806     69.46803      9.784    32.43  -0.08316123     19.60404     105.9149       509     8.846     5.512  63.06  18
        20    111.1133   1019.5319 299.8966369 +22.7060567     426.2068     69.59185      2.929     4.59      14.6942     19.60404     28.19993         5     1.144     0.524  58.58  16
        21    928.6514   1002.1675 300.1567048 +22.9464920     354.1422     69.50343      1.038     2.29     -13.0357     19.60404     59.61144         6     0.717     0.564   0.10   0
        22     93.8444    959.1110 299.9109434 +22.6835606     1037.396     69.50343      5.125     4.64    -2.232983     19.60404     57.19716        13     1.110     1.012 -32.91   1
        23    419.2829    958.2933 300.0123681 +22.7810596      274.663      69.6625      0.993     1.82    -12.61511     19.60404     57.26131         5     0.681     0.435  14.95   0
        24    635.5368   1018.4957 300.0600665 +22.8632337     4143.326     69.57417      1.057     1.88    -13.29132     19.60404     626.2578        25     0.987     0.915  46.93  18
        25    932.9807    949.4163 300.1752303 +22.9326516     1195.262     69.46803      1.267     1.85    -13.07255     19.60404     178.9747        18     1.033     0.873  44.38   0
        26    721.7038    937.7250 300.1131981 +22.8659228     260.1497     69.62718      1.155     2.54    -12.99749     19.60404     59.89534         5     0.721     0.441   7.23   0
        27    109.4995    998.2794 299.9030552 +22.6994841      1058.22     69.60952      9.910    10.97     8.879964     19.60404     39.27264        20     2.189     1.532  21.20   3
        28     95.0079    935.0380 299.9191406 +22.6770137     1033.772     69.50343      4.728     5.26    -8.501673     19.60404     32.26612         5     1.138     0.687 -89.43   0
        29    756.8010    932.4937 300.1258338 +22.8749513     478.9977     69.37946      0.944     1.67    -12.99484     19.60404     98.90708         7     0.711     0.544 -81.64   0
        30    778.9699    926.3135 300.1347522 +22.8798285     5493.558     69.48573      1.109     1.73    -12.97112     19.60404     1113.511        25     0.942     0.876  81.76   0
        31    641.1780   1016.1972 300.0625714 +22.8642676     4559.794     69.43262      1.139     1.76    -13.25393     19.60404     905.6797        26     1.027     0.857  84.39   2
        32    787.4355    908.1690 300.1432960 +22.8771617     497.1311     69.50343      0.993     1.95    -12.77846     19.60404     115.0918         7     0.688     0.584  76.87   0
        33    970.3776    907.1893 300.2006367 +22.9317455     134.5257     69.48573      1.000     2.24    -12.83028     19.60404     45.05943         5     0.698     0.454  71.39   0
        34    825.8291    901.8329 300.1573216 +22.8868595     388.1223     69.50343      1.037     3.17    -12.80855     19.60404     76.53304         8     0.994     0.577  69.91   0
        35    873.9512    893.0509 300.1751775 +22.8987717     232.5948     69.52113      1.009     1.72    -12.85648     19.60404     61.15943         5     0.571     0.558  80.10   0
        36    725.3333    892.0842 300.1291849 +22.8539174     359.5677     69.59185      1.052     2.22    -12.53785     19.60404     64.66685         7     0.701     0.634  65.72   0
        37    437.9673    888.5890 300.0408688 +22.7666837     2237.233     69.46803      1.181     1.83    -12.20868     19.60404     388.1903        17     0.879     0.854  -7.29   0
        38    736.7245    889.1773 300.1336792 +22.8565006     346.3302     69.52113      1.081     1.95    -12.50426     19.60404     67.20351         6     0.656     0.596  59.60   0
        39    163.1829    874.4186 299.9600488 +22.6801210     275.6887     69.46803      1.096     1.75    -11.04796     19.60404     59.72102         5     0.652     0.461  22.32   0
        40    140.4289    871.4318 299.9539510 +22.6724315     851.5352     69.48573      1.220     2.39    -11.45602     19.60404     107.1806        11     0.939     0.681  67.14   0
        41   1011.9968    860.1020 300.2289415 +22.9307056     970.1251     69.39719      0.995     1.66    -12.14441     19.60404     259.5214        12     0.846     0.648 -85.38   0
        42    966.2171    858.4795 300.2151932 +22.9165148     999.5316     69.48573      1.051     1.89    -12.38965     19.60404     177.7308        15     0.856     0.843 -60.43   0
        43    172.3814    852.8174 299.9699359 +22.6766928     215.1928     69.46803      1.252     3.43    -11.72928     19.60404     39.13247         5     0.725     0.469 -76.62   0
        44    749.9467    852.5403 300.1497214 +22.8499542      296.997     69.53881      0.995     1.97    -12.15391     19.60404     51.06522         6     0.718     0.498   2.70   0
        45    617.9596    846.7116 300.1105133 +22.8086874     2370.985     69.46803      1.146     1.82    -11.94473     19.60404     435.1595        19     0.908     0.861  48.29   0
        46     79.0261    955.0203 299.9076724 +22.6779372     2006.477     69.46803     15.648    19.88    -5.244886     19.60404     65.48218       104     5.560     1.975 -30.70   3
        47    420.4284    843.9459 300.0499405 +22.7486181     276.7621     69.48573      1.030     2.06    -12.04787     19.60404     73.14886         5     0.705     0.546   6.77   0
        48    168.1810    840.5171 299.9726329 +22.6719062      683.173     69.45033      1.155     2.49    -11.76914     19.60404     99.16085        11     0.874     0.775  45.78   0
        49    638.4083    839.0959 300.1193583 +22.8126375     172.0826     69.37946      0.949     2.17    -11.91738     19.60404      57.9952         5     0.692     0.455  69.05   0
        50   1010.8135    826.3318 300.2395620 +22.9206547     523.2529     69.50343      1.070     2.14    -12.10051     19.60404     121.9064        10     0.847     0.696  12.50   0
        51    794.0087    826.3146 300.1719829 +22.8556433      2003.35     69.43262      1.114     1.90    -12.19579     19.60404     386.9043        14     0.879     0.727 -85.00   0
        52    202.1999    820.6669 299.9896626 +22.6764318     229.1841     69.43262      1.201     4.11     -11.8123     19.60404     34.60506         6     0.757     0.637  63.68   0
        53    511.4313    819.1221 300.0863315 +22.7688095     244.7198     69.46803      1.081     4.04    -11.81376     19.60404     49.76868         8     0.997     0.650  52.06   0
        54    157.4042    817.0173 299.9769300 +22.6619349     424.9708      69.4149      1.085     2.38    -11.87081     19.60404     83.91049         9     0.774     0.738  18.18   0
        55    572.3523    812.3312 300.1075019 +22.7851411     297.7337     69.46803      1.128     2.66    -11.76192     19.60404     45.62193         5     0.727     0.444  15.63   0
        56    307.0521    809.1173 300.0260129 +22.7045999     25877.83     69.52113      1.212     1.91    -11.86804     19.60404     4820.156        59     1.128     1.054 -88.98   0
        57    564.7309    808.0858 300.1065108 +22.7816365     787.6277     69.59185      1.124     1.92    -11.74474     19.60404     165.3374        13     0.877     0.835  59.17   0
        58    977.5302    806.9391 300.2354925 +22.9051089     474.4044     69.52113      1.242     1.80    -12.16245     19.60404     86.91351         6     0.703     0.498 -87.01   0
        59    235.0605    806.9974 300.0043227 +22.6823796     294.4069     69.46803      1.005     3.52    -11.82287     19.60404     63.68417         7     1.031     0.484  57.90   0
        60    593.7709    804.0879 300.1168514 +22.7892023     320.3945     69.48573      1.060     1.98    -11.67415     19.60404      81.3758         6     0.709     0.526 -47.41   0
        61    604.6158    801.9131 300.1209352 +22.7918319     338.1606     69.43262      1.149     2.82    -11.64503     19.60404     61.57525         7     0.896     0.484 -86.21   0
        62    747.9253    788.7437 300.1698496 +22.8310398     375.1682     69.52113      1.170     1.94    -11.71163     19.60404     70.05229         7     0.665     0.635 -67.91   0
        63    356.7737    786.3524 300.0488798 +22.7129973     15293.72     69.50343      1.168     1.96    -11.66379     19.60404     2532.863        46     1.086     1.028  83.10   0
        64    371.1133    786.8431 300.0531797 +22.7174420     1008.116     69.46803      1.183     1.89    -11.64768     19.60404     195.6892        11     0.811     0.760  88.47   0
        65    879.7948    782.0922 300.2131057 +22.8686739     1386.266     69.39719      1.169     1.88    -11.96121     19.60404     266.5016        17     0.903     0.880 -79.10   0
        66    367.7440    780.2715 300.0542696 +22.7145463     345.7232     69.50343      1.312     2.10    -11.57962     19.60404     50.00977         5     0.705     0.425 -80.01   0
        67    239.1889    778.3330 300.0149305 +22.6754017     448.1359     69.48573      1.403     2.79    -11.77045     19.60404      67.1953         8     0.861     0.625 -54.70   0
        68    637.5629    778.1885 300.1389115 +22.7949087     427.8655     69.46803      1.013     2.03    -11.46424     19.60404     92.01512         8     0.726     0.695 -82.33   0
        69     44.1290    774.0500 299.9557199 +22.6156043      338.799     69.48573      1.319     3.78    -11.86381     19.60404     44.79678         8     1.048     0.516  37.35   0
        70    484.8571    773.0900 300.0930376 +22.7476319     369.1538     69.53881      1.158     2.07    -11.38764     19.60404     75.76111         8     0.779     0.615  54.21   0
        71    387.0136    768.5767 300.0640670 +22.7169758     257.6956     69.46803      1.208     4.10    -11.42023     19.60404     35.90304         6     0.959     0.501  77.61   0
        72     72.3516    767.4969 299.9666167 +22.6222019     152.4543     69.52113      0.823     3.05    -11.85017     19.60404     50.11539         6     0.908     0.426  19.10   0
        73    237.1721    762.3680 300.0194967 +22.6702193     333.4808     69.48573      1.257     3.38    -11.73408     19.60404     44.81997         5     0.754     0.437  19.30   0
        74    560.3221    753.2284 300.1229842 +22.7645760     420.5175     69.48573      1.823     3.73     -11.1146     19.60404     40.55674         5     0.956     0.418  75.95   0
        75    529.7428    751.2936 300.1140959 +22.7548468     426.3557     69.53881      1.283     3.68    -11.09387     19.60404     53.30989         6     0.897     0.435 -86.92   0
        76    551.8091    748.3141 300.1219329 +22.7606121     681.5792      69.4149      1.169     2.15    -11.04924     19.60404      112.564        11     0.824     0.750  82.29   0
        77    946.1789    747.2332 300.2451409 +22.8785668     2166.484     69.48573      1.083     1.82    -11.26969     19.60404     452.7481        18     0.910     0.780  72.04   0
        78    934.3370    738.7650 300.2442033 +22.8725854      722.235     69.48573      1.057     2.27    -11.16894     19.60404     128.1513         9     0.822     0.646 -77.22   0
        79    297.4713    732.9296 300.0478164 +22.6798788     409.9449      69.5565      1.117     3.39    -11.37601     19.60404     65.29953         7     0.915     0.499 -89.47   0
        80    760.8680    730.1433 300.1929441 +22.8181016     1194.701     69.50343      1.161     1.87    -11.41792     19.60404     226.4348        14     0.903     0.777 -89.53   0
        81    965.6294    728.7446 300.2572196 +22.8790879     801.3189     69.48573      1.117     1.75    -11.01949     19.60404     161.0521        14     1.069     0.779  52.73   0
        82    146.5479    716.7619 300.0061663 +22.6299383     209.5938     69.50343      1.158     3.73    -11.81051     19.60404     43.73495         6     0.711     0.668 -39.00   0
        83    879.3677    706.9222 300.2374240 +22.8469639     71108.01     69.46803      1.126     1.80    -11.18706     19.60404     13565.35        99     1.187     1.092  72.08   0
        84    731.8144    707.4624 300.1912699 +22.8028790     484.5797     69.45033      1.239     2.66    -11.22466     19.60404      64.4817         7     0.884     0.488   8.08   0
        85    565.7690    695.7709 300.1433668 +22.7497240      651.657     69.48573      1.075     2.17    -10.88098     19.60404     133.1067         9     0.827     0.619 -67.86   0
        86    746.8553    693.0948 300.2006279 +22.8032650     4533.129     69.53881      1.158     1.97    -11.14042     19.60404     866.2764        23     0.931     0.871  51.92   0
        87    248.4477    688.5545 300.0470067 +22.6524399     2236.073     69.50343      1.149     2.13    -11.38165     19.60404     308.4201        18     0.985     0.839 -82.34   0
        88    330.2680    686.5104 300.0731095 +22.6764099     461.8727     69.62718      1.156     2.56    -11.09438     19.60404     74.03095         9     0.902     0.635 -64.90   0
        89    206.1487    684.2962 300.0352441 +22.6385225     261.4077      69.5565      1.209     4.40    -11.55773     19.60404     40.39607         6     0.981     0.561  62.29   0
        90    538.4578    681.9237 300.1393689 +22.7375582     432.4186     69.52113      1.345     3.64     -10.8541     19.60404     72.48142         7     0.991     0.526  64.23   0
        91    530.3968    673.9833 300.1394420 +22.7328618     1542.109     69.39719      1.166     1.86    -10.84597     19.60404     255.3474        18     1.031     0.803 -61.59   0
        92    520.5422    667.7197 300.1384116 +22.7281084     709.4525     69.52113      1.179     2.92    -10.79655     19.60404     111.3509        12     1.050     0.712 -62.73   0
        93    183.6204    663.9496 300.0348584 +22.6259262     245.6837     69.48573      1.240     2.93    -11.60862     19.60404     57.77615         7     0.798     0.721 -26.94   0
        94    198.4495    662.3867 300.0399750 +22.6299293      319.016     69.52113      1.151     4.00    -11.50521     19.60404     42.31004         6     0.998     0.458 -35.29   0
        95    544.4087    658.3615 300.1488825 +22.7325822     250.4108     69.50343      1.260     4.02    -10.69997     19.60404     39.48241         5     0.948     0.487  85.48   0
        96    224.3730    659.2396 300.0490552 +22.6368079     342.4427     69.53881      1.226     2.42    -11.32871     19.60404     44.10423         5     0.699     0.460  73.68   0
        97    445.3518    657.3502 300.1183864 +22.7025767     783.2166     69.52113      1.185     2.88    -10.74518     19.60404     122.0816        13     0.928     0.826  80.26   0
        98   1021.2539    654.7051 300.2986455 +22.8744932     416.8076     65.28822      1.152     2.04     -10.8933     19.60404      68.6664         5     0.702     0.424 -79.71  16
        99     99.4688    652.6357 300.0123908 +22.5974209     9595.364     69.48573      1.205     2.16    -11.27322     19.60404     1257.253        41     1.114     1.056  88.38   0
       100     20.1855    654.3371 299.9872130 +22.5741048     337.0544     69.45033      1.450     2.94    -10.82627     19.60404     54.52197         7     0.866     0.580  79.10   0
       101    564.9933    652.6912 300.1571335 +22.7371292     173.8531     69.39719      1.315     4.63    -10.66438     19.60404     29.27077         6     0.937     0.648 -38.15   0
       102    530.1206    652.6263 300.1463002 +22.7266506     505.0308     69.48573      1.311     3.57    -10.65169     19.60404     76.38231        10     1.032     0.729  -6.26   0
       103    948.2491    638.6494 300.2810993 +22.8480037     477.6158     69.52113      1.087     2.31    -10.93501     19.60404     106.0203        10     0.842     0.729  43.07   0
       104     45.4639    636.9001 300.0007319 +22.5766964     821.2385     69.57417      1.728     5.24    -10.87422     19.60404      76.4914        16     1.483     0.779 -85.66   0
       105    493.5320    633.5502 300.1411155 +22.7102016     321.6825     69.48573      1.423     3.41     -10.4682     19.60404     37.76475         5     0.933     0.494 -84.75   0
       106    888.3953    631.6528 300.2647139 +22.8280555     375.8391     69.46803      0.921     2.33    -10.95492     19.60404     67.23589         5     0.670     0.477 -77.08   0
       107    450.5522    625.9080 300.1302267 +22.6951159     319.7288     69.50343      1.239     2.27    -10.48284     19.60404     60.19912         8     0.745     0.686   5.95   0
       108    616.1909    622.4465 300.1829052 +22.7438038     169.3886     69.50343      1.133     3.02    -10.43885     19.60404     49.15064         8     1.018     0.631  78.19   0
       109    494.5598    621.5660 300.1453314 +22.7070711     534.3745     69.52113      1.390     3.07    -10.35231     19.60404      66.0618         7     0.870     0.646 -43.51   0
       110    928.3818    617.0235 300.2819360 +22.8358382     1587.258     69.48573      1.160     2.05    -10.89916     19.60404     260.9307        13     0.851     0.777  19.28   0
       111    460.1719    617.0613 300.1360956 +22.6954633     915.4937     69.48573      1.245     2.16    -10.37774     19.60404     137.0488        11     0.803     0.772  77.91   0
       112    825.5905    613.8066 300.2509410 +22.8041054     224.0754       69.344      1.420     4.19    -10.90434     19.60404     28.95637         5     0.931     0.538 -39.00   0
       113     22.1627    610.8373 300.0019676 +22.5622295     2356.066      69.5565      1.242     2.17    -10.60118     19.60404     355.1131        24     1.035     0.961 -87.07   0
       114    323.5738    603.8860 300.0978901 +22.6507021     4420.464     69.46803      1.211     2.12    -10.83851     19.60404     705.3987        29     1.103     0.924  71.30   0
       115    446.0238    600.9155 300.1369422 +22.6865865      4407.99     69.46803      1.284     2.19    -10.35554     19.60404     673.8137        26     1.106     0.910  85.73   0
       116    857.5882    594.6755 300.2671327 +22.8082023     953.9205     69.50343      1.149     2.01     -10.7962     19.60404     151.0937        11     0.786     0.731  13.42   0
       117    942.2164    592.0527 300.2943673 +22.8328116     6142.689     69.48573      1.148     1.87     -10.7791     19.60404     1174.641        27     0.973     0.893 -80.71   0
       118    506.5693    590.4498 300.1591837 +22.7017441     5626.572     69.52113      1.208     2.12    -10.21099     19.60404     795.8345        32     1.071     0.996  77.98   0
       119    234.0133    586.0433 300.0758459 +22.6187097     711.6031     69.50343      1.280     2.77     -10.8556     19.60404     101.6996        10     0.886     0.725 -66.33   0
       120    675.5839    586.0549 300.2132299 +22.7511667     258.0284     69.45033      1.188     3.68    -10.64231     19.60404     45.88997         6     0.797     0.489  84.47   0
       121    438.2650    578.5970 300.1417828 +22.6778550     2149.036     69.50343      1.237     2.28    -10.35879     19.60404     288.0921        19     0.978     0.878 -79.93   0
       122    781.1051    578.6069 300.2485215 +22.7806628     332.5054     69.37946      1.082     2.31    -10.67617     19.60404     62.21672         7     0.703     0.640 -35.83   0
       123    416.5641    577.0574 300.1355322 +22.6709036     584.9161     69.48573      1.291     2.66    -10.42154     19.60404     85.36917        10     0.963     0.686  75.17   0
       124    170.9451    576.5532 300.0593293 +22.5970608     324.8028     69.52113      1.200     2.49    -10.87618     19.60404      58.6523         8     0.874     0.592  44.50   0
       125    857.9753    573.9752 300.2739822 +22.8023732     840.0659     69.45033      1.327     2.60    -10.66534     19.60404     118.9444        13     1.006     0.760 -46.96   0
       126    738.4780    570.9970 300.2377145 +22.7656993     349.1539     69.39719      1.052     2.08    -10.58865     19.60404      62.5605         6     0.724     0.496 -83.92   0
       127    554.8338    566.1487 300.1821041 +22.7092447     99795.47     69.50343      1.288     2.14    -10.16142     19.60404     15280.05       134     1.304     1.284  87.89   0
       128    241.0208    566.2983 300.0844414 +22.6151493     1668.445      69.4149      1.264     2.18    -10.63298     19.60404     236.4237        18     1.030     0.879  80.74   0
       129    806.8171    562.0920 300.2619012 +22.7836272     397.9122      69.4149      1.214     2.30     -10.5984     19.60404     52.70515         5     0.745     0.480  41.32   0
       130    445.4178    546.4059 300.1544705 +22.6707631     1240.188     69.45033      1.207     2.32    -10.30295     19.60404     154.5383        13     0.931     0.774  68.11   0
       131    842.4818    532.4458 300.2826510 +22.7858018     792.9319     69.46803      1.142     2.64    -10.48014     19.60404     121.0319        14     0.991     0.782  72.58   0
       132    713.5897    530.1639 300.2432327 +22.7465136     1327.126     69.48573      1.226     2.40    -10.47882     19.60404     184.6605        17     1.013     0.826  79.45   0
       133    618.0776    526.8533 300.2145637 +22.7169288     216.5634     69.52113      1.008     2.60    -10.10113     19.60404      40.2752         5     0.761     0.498  53.47   0
       134    501.6729    526.1895 300.1785448 +22.6818331      451.193     69.48573      1.987     4.15     -10.0812     19.60404     45.50512         6     1.051     0.686   9.33   0
       135    970.9178    523.9976 300.3254369 +22.8218607       673.18     69.39719      1.111     2.26    -10.43627     19.60404     123.8227         9     0.832     0.655  75.17   0
       136    842.7301    523.0431 300.2857841 +22.7831755     1107.498     69.45033      1.320     2.36    -10.47503     19.60404     162.0183        13     0.881     0.821  83.31   0
       137    956.8895    523.4147 300.3212518 +22.8174902     377.3335     69.43262      1.207     2.33    -10.45139     19.60404     50.11339         6     0.745     0.481  10.59   0
       138    595.9858    520.9184 300.2096141 +22.7086012     336.6705     69.46803      1.551     4.87     -9.96205     19.60404     31.75942         6     1.115     0.603  89.15   0
       139    880.7733    517.7237 300.2993706 +22.7930480     2121.958     69.50343      1.176     1.91    -10.47994     19.60404     349.0782        17     0.897     0.844  61.49   0
       140    972.5357    507.8824 300.3311784 +22.8177152     365.8992     69.59185      1.073     2.23    -10.38613     19.60404     62.49583         5     0.709     0.423  62.36   0
       141    113.0135    508.0269 300.0635977 +22.5600225     477.1085     69.48573      1.245     2.43    -10.54159     19.60404     84.40638        10     0.873     0.710  85.67   0
       142    713.0187    492.1998 300.2553914 +22.7354407     159.7009      69.4149      1.126     3.86    -10.45061     19.60404     30.47253         6     0.941     0.454  35.54   0
       143    654.3681    488.5648 300.2383057 +22.7168156     309.4329     69.50343      1.132     2.59    -10.20981     19.60404     48.75945         5     0.690     0.460 -21.09   0
       144    714.9595    480.4718 300.2598066 +22.7326544     352.1297     69.46803      1.234     2.44    -10.43367     19.60404     66.15148         8     0.799     0.634  88.14   0
       145    872.1001    476.3322 300.3101168 +22.7785585     495.1341     69.57417      1.265     2.94    -10.45199     19.60404     77.00853        11     0.952     0.775 -23.55   0
       146    837.1627    473.5642 300.3001268 +22.7672944     174.5387      69.5565      1.138     4.46    -10.41192     19.60404     29.98009         5     0.826     0.692  59.72   0
       147    856.4241    472.9612 300.3063259 +22.7728929     362.2284     69.50343      1.218     2.84     -10.4298     19.60404     53.96983         7     0.835     0.567  56.61   0
       148    600.8042    470.9310 300.2273565 +22.6956946      1535.11     69.45033      1.326     2.36    -9.548305     19.60404     222.8918        17     0.963     0.887   8.74   0
       149    961.3245    469.8031 300.3400556 +22.8034150     299.5172     69.39719      1.172     2.35    -10.31693     19.60404     47.88116         5     0.724     0.435 -72.72   0
       150   1012.0225    449.8240 300.3623577 +22.8128607     656.1333     69.45033      1.151     1.85    -10.10021     19.60404     138.6096         9     0.834     0.627  26.73   0
       151    970.6023    448.7573 300.3497864 +22.8001468     440.0366     69.48573      1.117     2.42    -10.22211     19.60404     75.94083         8     0.810     0.631  72.78   0
       152    884.0886    449.4497 300.3225879 +22.7744274     273.3929     69.50343      1.324     3.44    -10.34893     19.60404      46.5997         5     0.770     0.444  20.90   0
       153    711.2892    445.1560 300.2701370 +22.7214120     458.1241     69.50343      1.158     2.44    -10.12368     19.60404     78.70624         9     0.831     0.689 -83.79   0
       154    506.9954    445.6227 300.2063779 +22.6603029       290.92     69.45033      1.578     3.20    -9.604751     19.60404     37.46175         5     0.992     0.541  75.35   0
       155    216.0323    443.6680 300.1165187 +22.5724741     369.0455     69.48573      1.442     4.25    -10.04302     19.60404     40.10342         7     0.873     0.591  25.33   0
       156    277.8710    439.0519 300.1372413 +22.5897009     1795.107     69.48573      1.308     2.30     -9.79167     19.60404     255.9629        19     1.079     0.878  56.42   0
       157   1010.7412    437.2374 300.3660471 +22.8088597     2090.121     69.50343      1.095     1.91    -10.07827     19.60404     397.0274        16     0.878     0.774  79.09   0
       158    225.0262    433.9129 300.1224829 +22.5723737     3618.173     69.43262      1.301     2.29    -9.934324     19.60404     527.1589        25     1.102     0.932  83.08   0
       159    990.7958    428.2387 300.3627497 +22.8002992     811.6696     69.50343      1.092     1.85    -10.11166     19.60404     153.4861        11     0.897     0.628  88.54   0
       160    365.7822    427.9848 300.1681733 +22.6128935     2406.648     69.46803      1.318     2.32    -9.871459     19.60404     351.6148        21     1.062     0.943 -88.09   0
       161    609.9169    424.6259 300.2452364 +22.6851307     8959.348     69.46803      1.338     2.45    -9.509969     19.60404     1207.521        40     1.171     1.068  77.60   0
       162    627.1410    425.0461 300.2504629 +22.6904145     388.3153     69.52113      2.242     4.46    -9.615348     19.60404     36.02966         6     1.074     0.526 -12.89   0
       163    943.2408    407.2410 300.3547411 +22.7800202       342.82      69.5565      1.179     2.71    -10.16538     19.60404     55.38308         7     0.821     0.605  79.02   0
       164    164.8308    404.8651 300.1132094 +22.5459808     1055.778     69.48573      1.358     2.56    -10.12973     19.60404     138.5175        14     0.988     0.800 -63.96   0
       165    550.5939    394.1452 300.2366686 +22.6585949     3281.489     69.48573      1.328     2.45     -9.35846     19.60404     430.4045        23     1.050     0.985  62.48   0
       166    964.4385    394.0158 300.3656467 +22.7825690     610.0079     69.50343      1.252     2.46    -10.05609     19.60404     98.95232         9     0.834     0.694 -61.63   0
       167    123.0231    386.9762 300.1060285 +22.5283055      261.485     69.45033      1.146     3.62    -10.15727     19.60404      30.8085         5     0.997     0.379  31.76   0
       168    665.5214    384.2230 300.2756743 +22.6901944     403.5847     69.46803      0.773     3.47    -9.583497     19.60404     244.9286         5     0.729     0.476 -24.88   0
       169    754.5955    382.8711 300.3038593 +22.7164998     530.0386     69.43262      1.247     2.93    -9.809314     19.60404     62.99036         8     0.876     0.620  76.75   0
       170    457.2450    380.4347 300.2120699 +22.6266719     2962.188     69.53881      1.278     2.42    -9.458309     19.60404     363.6912        23     1.099     0.915  80.36   0
       171    946.8666    374.8445 300.3663940 +22.7717960     373.0747     69.46803      1.356     4.38    -10.05387     19.60404     48.77413         7     1.004     0.626  65.07   0
       172    849.0527    374.4133 300.3360407 +22.7423711     693.3536     69.52113      1.199     2.55    -10.03966     19.60404      117.681        11     0.944     0.691  64.67   0
       173    822.3412    362.2034 300.3316811 +22.7308603     237.3693     69.45033      1.114     3.41    -9.917024     19.60404     46.05042         5     0.723     0.466  81.02   0
       174    344.8347    359.6033 300.1838668 +22.5869851     1147.255     69.48573      1.265     2.53    -9.248141     19.60404     171.3818        14     0.982     0.783  77.22   0
       175     63.3406    357.0247 300.0972138 +22.5018065     391.8993     69.48573      1.154     2.70     -10.2026     19.60404     66.97383         7     0.740     0.623 -74.24   0
       176    314.1132    349.0781 300.1777308 +22.5747511     14525.27     69.62718      1.331     2.42    -9.214801     19.60404     1862.017        46     1.220     1.072  80.30   0
       177    848.9265    346.4437 300.3450846 +22.7342965     623.3394     69.46803      1.197     2.29    -9.929157     19.60404     102.0168        12     0.931     0.722 -85.70   0
       178     10.4924    337.0682 300.0872799 +22.4802248     2432.394     69.60952      1.292     2.42    -10.08484     19.60404     294.2585        22     1.077     0.910 -81.82   0
       179    763.9154    335.3905 300.3221822 +22.7056518     279.4798     69.43262      1.225     3.06    -9.644663     19.60404      43.5681         9     0.902     0.661  64.09   0
       180    412.8099    334.7427 300.2130827 +22.6002315     313.4177     69.45033      1.261     4.09    -9.169484     19.60404     32.49147         6     1.278     0.375  84.54   0
       181    724.4319    328.7199 300.3120475 +22.6919050     939.4406     69.48573      1.312     2.58    -9.515395     19.60404      125.605        12     0.867     0.817   5.41   0
       182    939.7563    321.0804 300.3816364 +22.7542140     319.9299     69.46803      1.174     3.72    -9.840564     19.60404     48.23086         5     0.795     0.509  36.34   0
       183    386.2772    313.4149 300.2117538 +22.5861533     1044.245     69.50343      1.370     3.25     -9.02681     19.60404     113.3416        15     1.106     0.812  62.88   0
       184    824.8766    305.9248 300.3507458 +22.7154485     156.8926     69.57417      1.196     3.98    -9.651065     19.60404     36.79471         6     0.775     0.584  49.52   0
       185    462.1507    292.7917 300.2420542 +22.6029791     604.4858     69.48573      1.348     2.96    -9.095153     19.60404     80.66328        12     1.058     0.694 -85.24   0
       186    706.8978    284.4692 300.3209525 +22.6739384     1041.417     69.60952      1.309     2.49    -9.391844     19.60404     141.5684        13     0.921     0.800  48.47   0
       187    968.0615    278.9128 300.4041535 +22.7505698     1517.327     69.57417      1.203     2.18       -9.592     19.60404     251.2762        16     1.057     0.763 -89.38   0
       188    414.9893    267.9925 300.2354312 +22.5817204     303.5707     69.36173      1.368     4.47    -8.850964     19.60404     35.12804         7     1.136     0.500  50.59   0
       189     90.0575    263.0037 300.1360362 +22.4828483     650.7954     69.45033      1.495     2.87    -9.616517     19.60404     77.53371        11     0.992     0.705 -79.84   0
       190    121.0093    262.9079 300.1456834 +22.4921052     326.9606      69.4149      1.308     2.82    -9.583583     19.60404     49.06757         5     0.614     0.601   3.09   0
       191    983.4204    259.0333 300.4153969 +22.7494540      340.282     69.48573      1.123     2.73    -9.458067     19.60404     55.86842         7     0.834     0.579 -57.15   0
       192    778.8393    245.9478 300.3558702 +22.6844223     280.0706     69.46803      1.062     2.19    -9.422486     19.60404     49.59447         6     0.713     0.549  47.59   0
       193    876.6010    234.9494 300.3899085 +22.7105426     1134.444     69.46803      1.325     2.67    -9.352157     19.60404     159.5814        15     0.964     0.862  54.53   0
       194    295.4192    232.5949 300.2097319 +22.5357094       1034.4     69.45033      1.318     2.59    -8.948183     19.60404     124.1338        14     0.913     0.870  75.22   0
       195    373.4874    227.4328 300.2356858 +22.5576329      522.308     69.46803      1.565     3.86    -8.914357     19.60404     53.91877        10     1.034     0.795 -48.27   0
       196    775.3595    226.6672 300.3610440 +22.6778391     344.3824     69.45033      1.145     2.03     -9.38913     19.60404     54.27433         5     0.678     0.453 -71.68   0
       197    189.9363    219.9146 300.1810559 +22.5004395     377.3712     69.59184      1.374     2.92    -9.271022     19.60404     40.50777         7     0.846     0.542  43.65   0
       198    727.6724    216.3361 300.3495398 +22.6605855     805.2914     69.52113      1.332     3.59    -9.315207     19.60404     101.2371        16     1.165     0.932 -47.25   0
       199    211.1651    213.0620 300.1898779 +22.5048387     172.5094     69.50343      1.130     3.84    -9.183671     19.60404     35.85993         5     0.812     0.520 -26.24   0
       200    999.2877    208.6357 300.4367040 +22.7397148     421.2394     69.46803      1.222     3.49    -9.196186     19.60404     56.58434         8     0.875     0.690 -52.32   0
       201    731.6973    207.9759 300.3535069 +22.6593887     345.0236     69.39719      1.221     2.37    -9.249506     19.60404     57.48545         5     0.836     0.453  83.57   0
       202    652.1685    207.1983 300.3289879 +22.6353401     605.5386     69.45033      1.332     3.04    -9.272959     19.60404     67.03962        10     0.897     0.722  86.23   0
       203    847.7681    198.4853 300.3927558 +22.6914263     734.3512     69.48573      1.378     2.80    -9.218905     19.60404     93.19576        13     0.931     0.871  62.70   0
       204    578.5479    198.9261 300.3087489 +22.6109050     437.1012     69.50343      1.243     2.79    -9.209651     19.60404     53.64835         8     0.777     0.691  -5.97   0
       205    859.9337    197.6430 300.3968211 +22.6948275     501.0652     69.46803      1.337     2.61    -9.227073     19.60404       70.828         7     0.734     0.634  16.18   0
       206   1020.5001    188.4976 300.4498558 +22.7402747     835.4954     67.81977      1.101     2.03    -9.151303     19.60404       127.12        12     0.809     0.749  74.85  16
       207    976.5790    187.8050 300.4363819 +22.7269264     558.9901     69.46803      1.222     2.56    -9.151303     19.60404      79.0875        10     0.863     0.763  68.32   0
       208    210.6192    181.1923 300.2000498 +22.4955269     301.0656     69.45033      1.248     3.16    -9.168339     19.60404     50.87909         7     0.854     0.613 -11.09   0
       209     72.5938    176.1375 300.1588009 +22.4526837     1099.702     69.45033      1.352     2.63    -9.339783     19.60404     128.8748        15     0.966     0.870  58.57   0
       210    895.4731    172.5000 300.4160591 +22.6982419     385.3846     69.60952      1.340     3.37    -9.128746     19.60404     46.46339         6     0.889     0.454  74.22   0
       211    229.9825    169.3967 300.2098960 +22.4979466     2776.522     69.39719      1.375     2.43    -9.119996     19.60404     372.4313        24     1.133     0.906  77.21   0
       212     14.0318    163.8343 300.1446033 +22.4315881     718.6774     69.50343      1.358     2.80    -9.325729     19.60404     79.35026        10     0.879     0.720  75.21   0
       213    213.2088    160.1185 300.2076924 +22.4902538      366.124     69.43262      1.191     2.02    -9.150214     19.60404     53.91513         6     0.697     0.545  37.25   0
       214    873.8459    150.6887 300.4163944 +22.6854953     1801.827     69.46803      1.290     2.35    -9.076832     19.60404     265.1596        19     1.036     0.894  49.03   0
       215    977.5037    149.2644 300.4491766 +22.7161210     1424.683     69.59185      1.208     2.36     -8.97632     19.60404     171.6957        14     0.948     0.768  89.32   0
       216    423.6947    146.2573 300.2776453 +22.5493709     306.4492     69.53881      1.154     2.34    -8.788012     19.60404     42.09201         5     0.701     0.450 -79.55   0
       217    113.8579    134.9834 300.1849721 +22.4532478     271.6448     69.46803      1.158     2.88    -9.285967     19.60404     45.65633         6     0.750     0.545  59.60   0
       218    474.9397    133.3014 300.2977936 +22.5610067      830.769      69.5565      1.438     2.72    -8.746342     19.60404     107.5466        12     0.998     0.714 -87.20   0
       219    248.8948    113.2623 300.2339865 +22.4875005     2891.377     69.57417      1.315     2.41    -8.829178     19.60404     372.9393        21     1.044     0.914  69.08   0
       220    100.2251    112.8038 300.1879315 +22.4427935     334.4646     69.45033      1.234     3.87    -9.273623     19.60404     44.42959         6     0.797     0.539 -52.55   0
       221     10.4929    103.0042 300.1632375 +22.4130707     259.7868     69.37946      1.350     3.43    -9.349473     19.60404     39.39491         5     0.764     0.619  -0.59   0
       222    494.9010     98.5940 300.3152647 +22.5570176     3074.308     69.37946      1.364     2.51     -8.62067     19.60404     416.2675        24     1.131     0.952  85.13   0
       223    380.2680     98.1540 300.2797407 +22.5225399     265.1919     69.46803      1.242     5.06    -8.650038     19.60404     39.12221        10     1.279     0.573  49.79   0
       224    747.7225     87.4104 300.3976178 +22.6295365     413.8424     69.45033      1.725     4.76      -8.7517     19.60404     44.81923        10     1.168     0.765  86.71   0
       225    188.0928     82.0471 300.2252118 +22.4603101      290.662     69.50343      1.441     3.79    -8.958925     19.60404     35.86641         5     0.801     0.516 -34.73   0
       226    623.1921     78.5388 300.3617074 +22.5896892     3046.663     69.46803      1.316     2.57     -8.70085     19.60404     379.7356        23     1.088     0.937  87.71   0
       227    398.1718     77.8496 300.2918960 +22.5220734     777.9663     69.50343      1.374     2.93    -8.600421     19.60404     92.23288        14     0.989     0.893 -59.46   0
       228    664.4019     76.0618 300.3753443 +22.6013207     448.1997     69.45033      1.495     4.01    -8.687871     19.60404     49.70068        11     1.185     0.732 -43.31   0
       229    680.2648     71.7894 300.3816707 +22.6048438     350.7904     69.43262      1.488     3.91    -8.685777     19.60404     33.73349         6     0.781     0.561 -41.09   0
       230    147.0601     70.2001 300.2163022 +22.4446069     437.3405     69.43262      1.614     4.25    -9.012253     19.60404     44.79514         9     1.172     0.761  64.27   0
       231    950.0224     69.2970 300.4665491 +22.6848976     213.4604      69.4149      1.030     2.48    -8.595984     19.60404      40.3726         7     0.690     0.675 -24.68   0
       232    667.5295     63.3729 300.3804340 +22.5986105     1400.051     69.48573      1.305     2.52    -8.662991     19.60404      157.534        17     0.981     0.931 -61.13   0
       233    682.4405     61.6516 300.3856365 +22.6025816     405.2986     69.50343      1.409     2.51    -8.671878     19.60404     59.94958         6     0.866     0.423 -69.84   0
       234    753.7919     55.1587 300.4099697 +22.6220828     678.5024     69.50343      1.225     2.32    -8.706982     19.60404     112.6407        10     0.851     0.710  42.70   0
       235    691.5779     48.3958 300.3927818 +22.6015079     233.5979     69.45033      1.013     2.64    -8.666307     19.60404     57.74736         6     0.867     0.428 -18.34   0
       236    497.6577     47.5932 300.3326644 +22.5431908     503.1091     69.46803      1.446     2.82    -8.590425     19.60404     61.66535         7     0.876     0.523  62.10   0
       237     70.4626     47.8479 300.1997526 +22.4152238      311.825     69.52113      1.255     4.28    -8.942557     19.60404     49.11517         6     0.859     0.609 -55.42   0
       238    401.2428     45.8856 300.3032180 +22.5138119     433.0337     69.45033      1.183     2.84    -8.581108     19.60404      58.6626         8     0.820     0.646  42.26   0
       239    172.8212     35.7875 300.2354678 +22.4424500     1868.349     69.46803      1.391     2.53    -8.699987     19.60404     237.2724        20     1.036     0.938 -74.37   0
       240    740.8415     35.9741 300.4121568 +22.6126896     415.2475     69.53881      1.832     3.78    -8.725946     19.60404     39.96572         6     0.941     0.435 -51.78   0
       241    733.8833     27.9330 300.4125967 +22.6082943     434.9647     69.59185      1.328     2.48    -8.734308     19.60404     67.18761         8     0.789     0.650 -64.81   0
       242    288.8224     28.0365 300.2740416 +22.4749949     543.6575     69.50343      1.403     3.79    -8.671394     19.60404     59.70686        12     1.135     0.699  -8.49   0
       243    771.8499     22.6512 300.4261387 +22.6181441     277.0137     69.52113      1.297     4.27    -8.566878     19.60404     43.26688         6     0.967     0.537  67.17   0
       244    791.7467     19.3513 300.4334088 +22.6231526     1054.388     69.52113      1.206     2.29    -8.446929     19.60404     158.5125        13     0.864     0.800 -64.41   0
       245    175.1591     14.9387 300.2429548 +22.4371645     505.2405     69.46803      1.402     2.43    -8.549326     19.60404     63.43657         8     0.799     0.638  40.55   0
       246     79.4801   1018.0154 299.8873051 +22.6961183     2137.231     69.50343     18.927    32.33     7.764455     19.60404     57.17824       204     7.102     4.085 -12.16  27
