#   1 NUMBER                 Running object number                                     
#   2 X_IMAGE                Object position along x                                    [pixel]
#   3 Y_IMAGE                Object position along y                                    [pixel]
#   4 ALPHA_J2000            Right ascension of barycenter (J2000)                      [deg]
#   5 DELTA_J2000            Declination of barycenter (J2000)                          [deg]
#   6 FLUX_APER              Flux vector within fixed circular aperture(s)              [count]
#   7 FLUXERR_APER           RMS error vector for aperture flux(es)                     [count]
#   8 FLUX_RADIUS            Fraction-of-light radii                                    [pixel]
#   9 FWHM_IMAGE             FWHM assuming a gaussian core                              [pixel]
#  10 BACKGROUND             Background at centroid position                            [count]
#  11 THRESHOLD              Detection threshold above background                       [count]
#  12 FLUX_MAX               Peak flux above background                                 [count]
#  13 ISOAREA_IMAGE          Isophotal area above Analysis threshold                    [pixel**2]
#  14 A_IMAGE                Profile RMS along major axis                               [pixel]
#  15 B_IMAGE                Profile RMS along minor axis                               [pixel]
#  16 THETA_IMAGE            Position angle (CCW/x)                                     [deg]
#  17 FLAGS                  Extraction flags                                          
         1    741.0680     16.1876 300.4100775 +22.6219801     794.0488     69.27553      1.168     2.15     -7.67816     19.53975     140.8398        11     0.886     0.698  75.74   0
         2    679.1263      9.6308 300.3929066 +22.6015514     315.8568     69.27553      1.167     2.09    -8.491603     19.53975     62.31951         7     0.761     0.572  31.75   0
         3    484.7924      8.8960 300.3326357 +22.5431476     533.6185     69.15196      1.185     2.36    -8.491367     19.53975     87.17216         8     0.748     0.671 -80.46   0
         4    388.5528      6.9773 300.3033110 +22.5137694     282.8822     69.27553      1.043     1.89    -8.401181     19.53975      67.6776         6     0.709     0.497  88.35   0
         5    770.7966      5.4269 300.4228306 +22.6277850     140.4776      69.2226      1.135     3.14     -7.58811     19.53975     34.55799         5     0.720     0.476 -14.43   0
         6    156.5975    972.3796 299.9175168 +22.7211957     1072.531     69.18729      5.746     8.96     15.32918     19.53975     52.24556        11     2.195     1.022 -79.81   3
         7     71.6965   1004.4762 299.8806907 +22.7048920     3224.801     69.39887     19.719    90.30     17.25754     19.53975     143.9443      1774    19.122    11.831  56.00  27
         8    486.8310    969.1983 300.0212402 +22.8194222     122.3434      69.2226      1.018     2.89    -12.24387     19.53975     38.61646         5     0.721     0.690  46.17   0
         9    723.2006    980.5828 300.0911255 +22.8936074     277.7724     69.15196      1.011     1.96    -12.73389     19.53975     57.58397         5     0.641     0.489  -8.76   0
        10     66.0952    910.8275 299.9094369 +22.6763804      1805.93     69.16963     22.333    45.39    -7.240189     19.53975     55.78402       413     8.345     6.850 -37.92   3
        11    915.4512    963.7754 300.1565106 +22.9464416     278.6488     69.27553      1.070     2.58    -12.77044     19.53975     57.92574         5     0.719     0.433 -64.73   0
        12    122.1903    949.6508 299.9142255 +22.7043504     777.5967     69.25789      6.261     6.22     5.887946     19.53975     34.28708         7     1.287     0.846  58.56   2
        13    475.2721    993.5713 300.0097076 +22.8229416     176.4676     69.25789      1.265     3.46    -12.23658     19.53975     29.42839         5     0.764     0.451 -19.22   0
        14    134.3084    948.6172 299.9183270 +22.7076935     1035.528     69.18729      3.498     3.71     5.458799     19.53975     32.29603         5     0.906     0.436  74.13   2
        15     67.6793    946.8607 299.8982002 +22.6871799     2901.907     69.32841     27.716    78.05   -0.7144602     19.53975     69.57162      1473    13.447    12.570 -36.14  19
        16    227.7166    966.6206 299.9414938 +22.7409013     3913.647     69.20495      8.852    29.27     6.852261     19.53975     102.2289       401     8.165     4.378  59.82   2
        17    640.9868    946.9740 300.0764626 +22.8593032     3326.375     69.25789      1.236     2.13    -12.30319     19.53975     582.6991        21     1.002     0.854  43.46   0
        18    163.2383    992.5084 299.9130268 +22.7289574     1566.654     69.25789      6.815    12.98     24.17883     19.53975     40.95353        26     2.336     2.007  55.36   3
        19    536.2767    984.6596 300.0315943 +22.8386942     1014.434     69.31079      1.125     1.99    -12.40565     19.53975      168.583        15     0.917     0.804 -87.36   0
        20    622.6529    979.8133 300.0600618 +22.8632223     4132.304     69.29316      1.203     2.12    -12.36472     19.53975     645.9672        27     1.079     0.945  29.24   2
        21    199.3147    986.6844 299.9261342 +22.7381225     1278.204     69.38126      7.200    13.81     18.65038     19.53975     45.04439        33     3.719     1.427  59.86   3
        22    152.2810    960.9976 299.9198810 +22.7166381     703.9944     69.16963      3.693     6.45     10.60856     19.53975     34.19342        10     1.677     0.697 -66.00   0
        23    628.2973    977.5121 300.0625686 +22.8642557     4450.812     69.43407      1.153     1.97    -12.36458     19.53975     663.3603        26     1.001     0.940   6.07   3
        24    192.1458    995.7673 299.9209489 +22.7385724     1026.428     69.27553      5.118     8.95     23.12311     19.53975     40.75396        12     1.876     1.191  77.90   3
        25    549.7477    937.8239 300.0510358 +22.8293048     915.2513     69.27553      1.198     2.16    -12.39182     19.53975     129.0397        11     0.907     0.687  16.73   0
        26    726.4441    934.4225 300.1071648 +22.8813370     183.3648     69.31079      1.181     4.28    -12.33091     19.53975      26.8346         5     0.967     0.540 -43.28   0
        27    443.3370    934.1449 300.0191187 +22.7963180     468.5394     69.31079      1.069     2.34    -12.23255     19.53975     80.53215         8     0.760     0.649 -52.28   0
        28    187.5109    979.4487 299.9248216 +22.7325046     2072.772     69.24025     17.099    24.23     16.09102     19.53975     65.49492       130     4.407     3.699 -36.23   3
        29    170.0143    998.4425 299.9132003 +22.7326926     602.8637     69.27553      3.454     4.84     25.76192     19.53975     31.97627         5     1.232     0.539  51.84   1
        30    374.0066    932.2646 299.9981637 +22.7749707      3254.69      69.2226      1.198     2.02    -11.99118     19.53975     567.3731        23     0.988     0.912  29.59   0
        31    406.3954    918.9777 300.0125634 +22.7808823     207.3307      69.2226      1.066     4.17    -12.10718     19.53975     38.28397         6     0.849     0.646 -51.69   0
        32    920.1850    910.8925 300.1752033 +22.9326818     1083.669     69.18729      1.224     2.25    -12.38389     19.53975     164.0778        14     0.932     0.842  23.76   0
        33    569.9537    908.1440 300.0669871 +22.8268545     282.9604     69.29316      1.612     4.57    -12.28556     19.53975     31.64389         6     1.027     0.646   1.55   0
        34    708.9033    899.2839 300.1131394 +22.8659939     347.3332     69.41647      1.170     3.94    -12.13799     19.53975     55.27387         6     1.126     0.395  60.91   0
        35    161.9924    983.9568 299.9154239 +22.7261331     1320.606     69.27553     10.210    12.60     20.39655     19.53975      39.9879        31     2.337     1.890 -74.46   3
        36    743.7970    893.8663 300.1257727 +22.8749045     494.2377     69.25789      1.008     1.79    -12.03587     19.53975     116.8828         7     0.671     0.602  58.35   0
        37    766.0577    887.6653 300.1347265 +22.8798010     5681.015     69.29316      1.091     1.79    -12.00928     19.53975     1076.981        27     0.975     0.860  65.95   0
        38    811.9527    887.4777 300.1490885 +22.8935098     241.4159     69.25789      1.276     2.47    -12.04961     19.53975      44.8535         5     0.724     0.561 -83.19   0
        39    158.6305    990.0222 299.9124045 +22.7268613     1224.837     69.25789      7.866    13.35     23.05383     19.53975     44.95582        27     2.985     1.661  58.20   3
        40    817.9553    874.7883 300.1550893 +22.8916677     152.4587     69.25789      1.120     3.75     -11.9514     19.53975     38.56783         5     0.891     0.672 -24.61   0
        41    774.5009    869.6546 300.1432192 +22.8771641     724.1386     69.34604      1.097     2.23    -11.85858     19.53975     123.0024        12     0.819     0.793 -57.74   0
        42    957.5486    868.7570 300.2005687 +22.9317865      283.563     69.29316      1.266     2.25    -12.32455     19.53975     47.61225         5     0.706     0.450 -67.06   0
        43    626.6765    866.7729 300.0981126 +22.8320027      346.138     69.27553      1.250     2.95    -12.18257     19.53975      50.2904         8     0.950     0.569 -20.14   0
        44    812.5811    863.2800 300.1571601 +22.8867532     345.1091     69.25789      1.036     1.79    -11.84063     19.53975     60.82242         5     0.631     0.480 -73.93   0
        45    860.9532    854.3962 300.1751274 +22.8987064     302.7818     69.24025      1.036     1.69    -11.92607     19.53975     72.10473         6     0.722     0.489  -0.21   0
        46    712.4329    853.3379 300.1291929 +22.8538685     320.6011     69.25789      0.976     1.91    -11.84352     19.53975     72.96511         5     0.667     0.439  62.77   0
        47    425.1229    849.8514 300.0408874 +22.7666800      1932.74     69.25789      1.113     1.92    -11.87171     19.53975     379.8181        15     0.857     0.772  44.86   0
        48    203.6829    838.0251 299.9758780 +22.6968281     274.7835     69.24025      1.642     3.63     -10.9586     19.53975     27.73101         6     0.805     0.734  81.64   0
        49    468.3657    837.3303 300.0584162 +22.7760641     257.2628     69.25789      1.154     4.48    -11.97437     19.53975     38.43025         5     1.077     0.530  32.44   0
        50    208.4955    978.4587 299.9316656 +22.7385222     2637.203     69.32841     13.061    30.31     13.99486     19.53975     70.52457       238     5.374     4.747 -61.92   3
        51    127.5591    832.8439 299.9539084 +22.6724895     715.6162     69.32841      1.272     2.57    -10.42548     19.53975     100.8164        13     0.961     0.774  55.09   0
        52    218.8531    993.8920 299.9298599 +22.7460550     602.1177     69.31079      1.833     5.56     20.06739     19.53975     49.49751        13     1.270     1.147  71.39   0
        53    999.2482    821.4965 300.2289539 +22.9307150      1113.93     69.29316      1.105     2.05    -11.88336     19.53975     168.1629        13     0.881     0.764 -77.70   0
        54    953.3125    820.0416 300.2151018 +22.9165297     1061.784     69.25789      1.145     1.97    -11.87345     19.53975      193.958        13     0.908     0.753  61.54   0
        55    736.8782    813.7610 300.1496868 +22.8498413     274.1457     69.24025      0.973     1.49    -11.45763     19.53975     99.94492         7     0.642     0.582   5.99   0
        56    605.1077    807.9264 300.1105461 +22.8086495     2387.758     69.39887      1.124     1.71    -11.76127     19.53975     536.2969        19     0.913     0.847  81.88   0
        57     94.8546    808.7605 299.9515835 +22.6557679     150.7976     69.25789      1.299     4.36      -11.415     19.53975     28.59452         5     0.765     0.706 -46.26   0
        58    407.0964    805.1288 300.0498315 +22.7484449     306.6236     69.36366      1.171     2.27     -11.7398     19.53975      61.9726         6     0.725     0.515 -28.29   0
        59    155.1395    801.9669 299.9725240 +22.6719194     683.0786     69.29316      1.217     2.70    -11.37682     19.53975     112.9467        12     0.966     0.777 -62.49   0
        60    625.6720    800.6094 300.1193299 +22.8127178      343.358     69.24025      0.993     2.06    -11.61433     19.53975     77.48807         6     0.686     0.582 -53.55   0
        61    998.1791    787.5568 300.2396641 +22.9206481     535.4496     69.29316      1.224     1.97     -11.5766     19.53975      113.401        10     0.924     0.676  83.39   0
        62    781.1411    787.6903 300.1719602 +22.8556299     1982.803     69.32841      1.055     1.65    -11.46296     19.53975     428.0386        14     0.804     0.729 -82.75   0
        63    189.7850    782.4443 299.9896416 +22.6767230     144.3727     69.27553      1.074     2.08     -11.3966     19.53975     48.84798         5     0.707     0.462  19.90   0
        64    498.1396    780.2490 300.0862536 +22.7686229     310.1989     69.31079      1.084     1.83    -11.56057     19.53975     67.08309         6     0.643     0.558  42.69   0
        65    144.7419    778.4122 299.9769558 +22.6620461     517.8804      69.2226      1.068     2.24    -11.48929     19.53975     100.0004         8     0.853     0.564  15.39   0
        66    559.6793    773.9358 300.1074619 +22.7852712     299.0262     69.36366      1.171     4.24    -11.45791     19.53975     41.61521         7     0.878     0.585  59.38   0
        67    294.2362    770.4282 300.0260201 +22.7046270     26086.14     69.27553      1.139     1.90    -11.39929     19.53975     4362.917        58     1.085     1.033  59.85   0
        68    552.0854    769.5190 300.1065348 +22.7817262     829.9285     69.39887      1.110     1.96    -11.42488     19.53975     160.2552        13     0.997     0.721  67.09   0
        69    964.9091    768.1712 300.2355953 +22.9051105      398.335      69.2226      1.056     1.81    -11.42904     19.53975     103.2341         9     0.730     0.654 -73.61   0
        70    222.8688    768.0447 300.0046086 +22.6825249     302.1586      69.2226      1.308     3.26    -11.38082     19.53975     42.25544         5     0.951     0.387 -28.05   0
        71    581.0833    765.5584 300.1168504 +22.7892872       475.06      69.2226      1.097     2.76    -11.33012     19.53975     99.13554         9     0.984     0.611  54.44   0
        72    591.8813    763.7404 300.1208036 +22.7920041      249.459     69.34604      1.030     1.91    -11.28786     19.53975     63.35422         6     0.690     0.536  47.65   0
        73    697.4337    759.8856 300.1549278 +22.8225510      180.231      69.2226      0.895     2.51     -11.1307     19.53975     45.24582         5     0.718     0.445 -67.29   0
        74    734.9327    750.2559 300.1697418 +22.8310305     175.6038     69.31079      1.009     2.61    -11.09344     19.53975     66.95914         7     0.714     0.642 -88.35   0
        75    343.8922    747.6742 300.0488630 +22.7130022     15655.49     69.39887      1.118     1.82    -11.20206     19.53975     2972.696        42     1.019     0.964  57.14   0
        76    358.1966    748.0879 300.0531773 +22.7174129     962.6353     69.18729      1.158     1.82    -11.18276     19.53975     201.7339        12     0.907     0.712  33.32   0
        77    866.9442    743.3533 300.2131253 +22.8686228     1417.712     69.29316      1.039     1.64    -11.29518     19.53975     309.7258        14     0.809     0.732  49.98   0
        78    354.9637    742.2132 300.0540826 +22.7147579     348.6544     69.24025      1.039     2.08      -11.138     19.53975     63.17475         5     0.810     0.409   0.91   0
        79    226.5215    739.3915 300.0150641 +22.6754057     433.5754      69.2226      1.192     3.05    -11.37692     19.53975     62.79068         8     0.896     0.666  59.96   0
        80    624.9077    739.3779 300.1390117 +22.7949174     437.0982     69.18729      1.102     1.63    -10.96719     19.53975     94.04942         7     0.638     0.601   3.95   0
        81    471.8831    734.0535 300.0931100 +22.7474939     473.7945     69.29316      1.229     2.70    -11.06757     19.53975     83.08436         9     0.896     0.650  80.56   0
        82     31.0165    734.4979 299.9559109 +22.6153172     325.6678     69.18729      1.369     3.92     -11.6825     19.53975     38.98181         5     0.755     0.630  87.23   0
        83     59.2855    728.6457 299.9665943 +22.6221268     237.5482     69.24025      1.203     3.09    -11.65719     19.53975     39.05357         6     0.703     0.645  54.35   0
        84    850.3322    725.5759 300.2137300 +22.8585391     194.7112     69.24025      0.892     3.09    -11.18897     19.53975     38.91323         5     0.712     0.465 -18.24   0
        85    223.7916    723.8450 300.0192719 +22.6701286     357.1957     69.27553      1.041     2.75    -11.30104     19.53975     67.62384         8     0.889     0.633 -30.49   0
        86    517.1131    712.2271 300.1142849 +22.7547983     317.9074     69.25789      0.996     1.89    -10.79811     19.53975     72.14378         6     0.701     0.524  53.36   0
        87    933.2598    708.6782 300.2450790 +22.8785403     2185.395     69.29316      1.055     1.74    -11.11104     19.53975     429.0272        18     0.852     0.813  25.84   0
        88    538.9562    709.8990 300.1218409 +22.7606815     783.5961     69.25789      1.205     1.87    -10.76733     19.53975     150.4526         9     0.727     0.690  60.00   0
        89    458.2947    709.2809 300.0969388 +22.7363108     157.9706     69.39887      0.961     2.41    -10.78263     19.53975      47.0182         5     0.713     0.441   8.83   0
        90    921.8080    699.9572 300.2443448 +22.8726039     859.2808     69.27553      1.080     1.68    -11.07289     19.53975     194.7671        11     0.858     0.680  22.62   0
        91    284.7589    694.1129 300.0478947 +22.6798976     492.0269     69.24025      1.144     1.71    -10.90753     19.53975     101.9844         7     0.675     0.593  79.10   0
        92    748.3703    691.3443 300.1930898 +22.8181474     1305.967     69.25789      1.156     2.03    -10.94898     19.53975     271.2961        18     1.261     0.763  -8.73   0
        93    952.9444    690.2542 300.2572093 +22.8791474     788.0991     69.29316      1.017     1.66    -11.05661     19.53975      166.759         9     0.846     0.569  58.59   0
        94    133.5337    677.8052 300.0061937 +22.6298393     239.5811     69.25789      1.219     4.06    -11.39997     19.53975     41.08228         7     0.975     0.484 -81.71   0
        95    830.3378    676.9089 300.2233265 +22.8385720     313.9576     69.34604      1.189     2.17    -10.97228     19.53975     54.81321         5     0.713     0.433 -70.47   0
        96    866.5888    668.3182 300.2374195 +22.8469695     72732.12      69.2226      1.036     1.70    -10.88869     19.53975     13072.96        93     1.095     1.036  89.17   0
        97   1013.5109    669.9363 300.2827065 +22.8914582     629.3938     69.36366      1.003     1.72    -11.10201     19.53975     138.0414         9     0.743     0.665 -69.92   0
        98    552.9207    657.2646 300.1433043 +22.7497648     806.3812     69.36366      1.141     1.75    -10.22011     19.53975     162.5669        10     0.772     0.688 -60.86   0
        99    734.0370    654.4965 300.2006070 +22.8032718      4652.46     69.25789      1.001     1.64    -10.70948     19.53975     949.6636        24     0.886     0.850  77.27   0
       100    235.5765    649.6592 300.0470590 +22.6523909     2611.083     69.25789      1.089     2.05     -10.8197     19.53975     420.7149        19     0.956     0.825  50.43   0
       101    317.6949    647.9507 300.0731464 +22.6765390     594.6747     69.31079      1.147     2.45    -10.57992     19.53975     90.12411         8     0.796     0.617  55.66   0
       102    193.1952    645.3856 300.0352751 +22.6384480     213.1787     69.13429      1.170     2.71    -10.99522     19.53975      35.6167         5     0.732     0.438  21.16   0
       103    517.5401    635.3405 300.1394200 +22.7328631     1607.075     69.32841      1.060     1.86    -9.982083     19.53975     281.8221        14     0.823     0.797  43.35   0
       104    507.8545    629.2183 300.1383959 +22.7282016     685.5718     69.24025      1.224     2.09    -9.910216     19.53975     133.8121         9     0.829     0.607  73.36   0
       105    436.6200    628.7399 300.1163844 +22.7067009     160.7693     69.20495      0.944     3.43    -10.20604     19.53975     30.89248         5     0.734     0.463  75.25   0
       106    901.2845    626.9641 300.2616827 +22.8454894     211.8577     69.24025      1.064     2.77    -10.54175     19.53975     45.73745         5     0.782     0.491  29.13   0
       107    171.0540    625.3851 300.0348962 +22.6260683     348.7354     69.27553      1.232     2.72    -10.95573     19.53975      64.1166         8     0.924     0.606  82.22   0
       108    185.3501    623.8687 300.0398322 +22.6299233     231.1106     69.25789      1.042     2.02    -10.88966     19.53975     63.56698         7     0.694     0.614  61.32   0
       109    210.8423    620.7085 300.0487828 +22.6366662      224.137     69.25789      1.142     4.04    -10.76329     19.53975      48.1688         6     0.836     0.557  40.15   0
       110    954.7787    620.1342 300.2805831 +22.8595555     220.2674     69.24025      1.026     2.47    -10.68795     19.53975     46.51484         5     0.742     0.485  40.42   0
       111    432.5257    618.9782 300.1182842 +22.7026719     796.7337     69.25789      1.054     2.07    -10.20226     19.53975     147.3865        11     0.857     0.681 -23.01   0
       112   1008.2399    616.1667 300.2985465 +22.8744318     327.7738     69.29316      1.144     2.40    -10.68356     19.53975     87.40439         8     0.834     0.624 -59.57   0
       113     86.5448    613.9188 300.0123654 +22.5974191     9716.844     69.29316      1.199     2.03    -10.93861     19.53975     1551.628        35     1.020     0.983  64.29   0
       114      7.0836    615.4035 299.9872019 +22.5739948     316.8998     69.18729      1.426     4.18    -10.93994     19.53975     37.74164         8     0.991     0.732 -56.63   0
       115    517.5384    614.1677 300.1463031 +22.7267862     449.8208     69.29316      1.014     1.73    -9.772817     19.53975     87.71832         6     0.677     0.494  81.80   0
       116    935.4852    600.2159 300.2810427 +22.8480532     564.4379      69.2226      1.059     2.58    -10.54305     19.53975     99.56126         7     0.926     0.495  84.72   0
       117     32.5790    598.2152 300.0007071 +22.5767197     742.0909     69.24025      1.755     5.61    -10.89243     19.53975     69.15531        12     1.479     0.599 -82.79   0
       118    871.3851    592.2265 300.2636554 +22.8265526     95.41845     69.27553      0.880     3.44     -10.0941     19.53975     35.05302         5     0.770     0.445  71.72   0
       119    437.3795    587.0204 300.1301832 +22.6949572     244.4605     69.25789      1.045     2.17    -9.961082     19.53975     63.15073         7     0.712     0.613  74.32   0
       120    481.6666    582.5792 300.1454077 +22.7069636     471.3148     69.24025      1.439     3.22    -9.643583     19.53975     65.51453         9     0.931     0.695 -88.76   0
       121    915.5875    578.3530 300.2819460 +22.8358113     1538.957     69.25789      0.998     1.83    -10.27334     19.53975     281.9549        11     0.773     0.674  61.29   0
       122    447.2275    578.4167 300.1360441 +22.6954415     814.2609     69.27553      1.025     2.01    -9.835855     19.53975     143.5347        10     0.836     0.604  62.64   0
       123   1013.7157    576.1915 300.3132507 +22.8645864     376.9673     69.20495      1.145     2.31    -10.72356     19.53975      63.2072         6     0.723     0.536 -27.67   0
       124      9.3202    572.1097 300.0019687 +22.5622542     2396.781     69.36366      1.154     2.12    -10.87266     19.53975     368.7787        18     0.933     0.876  59.61   0
       125    310.7411    565.2126 300.0978804 +22.6507174     4498.611     69.24025      1.129     1.88    -10.26052     19.53975     819.3785        22     0.925     0.870  41.81   0
       126    433.1743    562.2088 300.1369397 +22.6865759     4390.572     69.25789      1.131     1.84    -9.786646     19.53975     861.6422        26     0.984     0.854  75.42   0
       127    844.9135    556.0926 300.2671497 +22.8082418     844.0667     69.41647      1.035     1.72    -10.02146     19.53975     214.3563        10     0.823     0.666  55.06   0
       128    929.4559    553.4193 300.2943751 +22.8328030     6114.144     69.24025      1.010     1.80    -10.10308     19.53975     1073.381        27     0.914     0.855  79.12   0
       129    493.7963    551.8026 300.1591861 +22.7017675     5566.775     69.04588      1.122     1.76    -9.626612     19.53975     1159.456        27     0.998     0.836  78.84   0
       130    221.1599    547.2307 300.0758732 +22.6186862     765.6584     69.29316      1.237     2.36    -10.64842     19.53975     117.6467        11     0.906     0.694  80.51   0
       131    425.4744    539.9990 300.1417625 +22.6778929     2038.516     69.15196      1.056     1.86    -9.641892     19.53975     382.5042        16     0.865     0.773  77.67   0
       132    768.4553    539.7458 300.2486351 +22.7806360     463.6881     69.29316      0.932     2.18    -9.965661     19.53975     104.7801         7     0.853     0.471 -76.78   0
       133    403.6526    538.5916 300.1354308 +22.6709451     587.1913     69.25789      1.053     2.17    -9.674456     19.53975     88.61842         8     0.785     0.604   2.59   0
       134    158.3448    537.6989 300.0594477 +22.5971066     465.3169     69.34604      1.312     3.91    -10.71316     19.53975      77.1088        10     1.105     0.730 -26.43   0
       135    845.1115    535.2922 300.2739721 +22.8023263      773.571     69.41647      1.248     2.68    -9.988327     19.53975     118.4337        11     1.018     0.631 -64.60   0
       136    542.0481    527.5015 300.1821024 +22.7092588     100015.8     69.29316      1.099     1.80    -9.522179     19.53975     17894.15       119     1.178     1.148  15.61   0
       137    725.6828    532.0655 300.2378049 +22.7656123     289.3338     69.36366      0.967     2.40    -9.911314     19.53975     68.81444         7     0.767     0.593 -71.88   0
       138    228.1212    527.4697 300.0844590 +22.6151058     1629.085     69.36366      1.150     2.06    -10.36313     19.53975     268.0036        15     0.869     0.812  47.60   0
       139    793.9948    523.2794 300.2619451 +22.7835596     346.5561     69.18729      1.223     2.54    -9.924692     19.53975     51.65305         6     0.837     0.468  44.05   0
       140    432.5502    507.7323 300.1544497 +22.6707541     1250.895     69.25789      1.065     1.82    -9.546115     19.53975     245.9833        15     0.868     0.785 -80.18   0
       141    589.3778    504.7796 300.2042210 +22.7169237     233.0662     69.25789      1.802     3.46    -9.397653     19.53975     23.92145         5     0.770     0.449 -72.92   0
       142    829.5994    493.8889 300.2825926 +22.7857850     860.7817     69.16963      1.039     1.88    -9.933739     19.53975     152.3835         8     0.769     0.578  67.23   0
       143    700.7432    491.5767 300.2431935 +22.7465104     1292.811     69.25789      1.061     1.83    -9.689637     19.53975     238.0465        13     0.837     0.729  48.42   0
       144    910.4036    488.1980 300.3096312 +22.8083568     67.19086     69.04588      1.021     3.40    -10.02266     19.53975     29.45869         5     0.744     0.449  70.60   0
       145    488.1201    487.4819 300.1783219 +22.6816028     427.9044     69.39887      1.115     3.03    -9.286368     19.53975     57.01451         7     0.850     0.662 -46.12   0
       146    958.1426    485.3978 300.3254272 +22.8218515     623.6345      69.2226      1.035     1.92    -10.03516     19.53975     122.1148         9     0.784     0.616 -64.04   0
       147    943.7314    484.5854 300.3211971 +22.8173017     423.7554     69.27553      1.148     2.48    -10.03251     19.53975     70.01642         8     0.830     0.681  66.75   0
       148    829.8594    484.2987 300.2857899 +22.7831078     1022.161     69.34604      1.101     1.72    -9.923672     19.53975      222.747        11     0.823     0.686  55.07   0
       149    583.1633    482.0823 300.2096614 +22.7085441     354.2337      69.2226      1.523     3.54    -9.257891     19.53975       47.756         5     0.894     0.433  42.13   0
       150    421.6793    481.0765 300.1597288 +22.6598438     154.1315     69.36366      1.118     2.86    -9.521729     19.53975     44.24018         6     0.740     0.627  31.42   0
       151    868.0966    479.0500 300.2994142 +22.7930551     2011.714     69.32841      1.036     1.65    -9.994941     19.53975      505.051        15     0.822     0.723  69.23   0
       152    959.9295    469.6010 300.3311175 +22.8178473     370.2167     69.18729      1.189     2.10    -10.01147     19.53975     72.21463         7     0.694     0.618  65.77   0
       153    100.0714    469.5203 300.0634938 +22.5600676     468.7142     69.36366      1.196     1.93    -10.64308     19.53975     84.10624         8     0.729     0.646 -86.74   0
       154     92.3692    459.5367 300.0643443 +22.5548931     370.6511     69.27553      1.380     3.16    -10.56703     19.53975     53.79731         5     0.959     0.448  77.72   0
       155    641.5357    450.0013 300.2382610 +22.7168270     363.8359     69.25789      1.040     3.71    -9.323586     19.53975     62.68629         8     0.930     0.606 -80.14   0
       156    620.5438    447.7477 300.2324560 +22.7098887     185.4805     69.31079      1.011     3.45     -9.25621     19.53975     31.01312         5     0.782     0.439  68.74   0
       157    956.2437    441.9205 300.3389617 +22.8087886     424.2428     69.24025      1.481     2.20    -9.996766     19.53975     60.03897         7     0.701     0.657 -81.07   0
       158    702.3811    441.6471 300.2599264 +22.7326610     434.2684     69.29316      1.055     2.49    -9.405094     19.53975      91.4548         6     0.837     0.445  36.72   0
       159    859.3023    437.8180 300.3100694 +22.7785740       507.75     69.18729      0.971     2.46     -9.71613     19.53975     103.0324         8     0.840     0.614  60.91   0
       160    844.0391    434.2468 300.3064719 +22.7729758     465.3102     69.31079      1.462     2.23    -9.650798     19.53975     58.58722         7     0.682     0.662 -45.32   0
       161    588.0127    432.4021 300.2273119 +22.6957322     1685.567     69.09894      1.088     1.76    -9.206409     19.53975     288.7982        13     0.897     0.691  77.25   0
       162    948.6532    430.9836 300.3401478 +22.8033722     261.1504     69.24025      1.105     3.35    -9.988178     19.53975     55.66446         7     0.847     0.688  31.40   0
       163    999.3524    411.1377 300.3624070 +22.8128509     745.5965     69.29316      1.156     2.26    -10.00039     19.53975     119.9017        12     0.967     0.707  84.08   0
       164    871.1722    410.9710 300.3224911 +22.7744152     415.0381      69.2226      1.337     1.78    -9.614155     19.53975     72.76905         5     0.711     0.452  29.51   0
       165    957.6446    409.9733 300.3497772 +22.8000266     523.7743     69.27553      0.939     1.73    -9.957104     19.53975     122.5157         6     0.698     0.479  89.22   0
       166    698.6281    406.3520 300.2702230 +22.7213983     517.5949     69.27553      1.102     2.09     -9.26936     19.53975     94.08323         9     0.859     0.595  -7.89   0
       167    202.7406    404.6367 300.1164758 +22.5722514     312.1295     69.27553      1.242     3.34    -9.649723     19.53975     60.47182         8     0.986     0.642  12.28   0
       168    264.9292    400.3291 300.1372076 +22.5896658     1783.455     69.32841      1.120     1.91    -9.457129     19.53975     342.1611        15     0.900     0.764  80.69   0
       169    998.0298    398.5714 300.3660765 +22.8088429     2182.623     69.24025      1.059     1.63    -9.985782     19.53975     449.0389        16     0.841     0.779 -33.99   0
       170    212.2097    395.1178 300.1225108 +22.5723600     3840.493     69.20495      1.200     2.01    -9.576491     19.53975     668.3751        24     1.034     0.881  80.69   0
       171    978.0094    389.8595 300.3626620 +22.8003438     1065.246      69.2226      1.232     1.92    -9.928066     19.53975     181.0556        12     0.927     0.747  78.03   0
       172    352.9356    389.3235 300.1681500 +22.6128961     2387.344     69.32841      1.147     1.96    -9.275608     19.53975      429.464        22     1.032     0.830  47.53   0
       173    597.1605    385.9762 300.2452405 +22.6851411     9212.386     69.29316      1.179     1.91     -9.25561     19.53975     1776.127        36     1.028     0.939  72.78   0
       174    614.0812    386.3183 300.2503982 +22.6903100     445.0038     69.39887      1.696     4.28    -9.264473     19.53975     52.10173         7     1.163     0.586 -45.80   0
       175    930.8035    368.5998 300.3548459 +22.7800973     465.4016     69.04588      1.098     2.14    -9.698006     19.53975     70.53806         7     0.691     0.618  32.33   0
       176    151.8283    366.2680 300.1131134 +22.5459723     1055.877     69.24025      1.272     2.13    -9.712729     19.53975     173.0779        15     1.056     0.829  54.50   0
       177    537.7830    355.3727 300.2366938 +22.6585577     3294.378     69.27553      1.110     1.90    -9.211386     19.53975     558.1879        20     0.961     0.802  85.88   0
       178    951.3873    355.7010 300.3654540 +22.7825536     514.9421     69.16963      0.986     2.12    -9.717871     19.53975     96.67461         9     0.745     0.724 -24.30   0
       179    252.4011    354.6305 300.1481538 +22.5727939     274.9277      69.2226      1.023     2.72    -9.262178     19.53975     55.00431         6     0.788     0.523  43.71   0
       180    651.7229    345.6134 300.2753402 +22.6898972     260.9503     69.27553      1.080     2.43     -9.39198     19.53975     45.81881         5     0.706     0.450  19.91   0
       181    742.0632    344.2181 300.3039349 +22.7165612     448.5485      69.2226      0.958     2.06    -9.318359     19.53975     100.4279         7     0.806     0.488  55.39   0
       182    444.4578    341.6851 300.2120934 +22.6266563     2999.664     69.36366      1.118     2.03    -8.567853     19.53975     469.2547        20     0.958     0.850  66.39   0
       183    836.2662    335.8730 300.3360015 +22.7423798     657.4832     69.29316      1.063     1.67    -9.416394     19.53975     143.3893         8     0.695     0.606  55.14   0
       184    429.2716    330.2017 300.2110971 +22.6188072     176.6103     69.20495      0.975     2.57    -8.600055     19.53975     48.12651         6     0.753     0.518  39.99   0
       185    511.7538    328.3262 300.2373745 +22.6429898     257.4344     69.25789      1.231     3.67    -8.792233     19.53975     34.82404         5     0.923     0.419  83.14   0
       186    809.2809    323.4808 300.3316149 +22.7307364      287.442     69.38126      1.012     2.39    -9.411107     19.53975     57.70335         7     0.776     0.623 -73.11   0
       187    332.0380    320.8232 300.1838951 +22.5869672     1174.133     69.27553      1.158     2.18    -8.991497     19.53975       215.77        12     0.872     0.711  82.03   0
       188     50.4186    318.2216 300.0972068 +22.5017701     591.9886     69.25789      1.112     2.23    -9.654119     19.53975     78.24819         9     0.785     0.676 -22.78   0
       189    301.3409    310.4389 300.1777201 +22.5747833     14678.81     69.25789      1.137     2.08    -8.934202     19.53975     2140.939        39     1.069     0.962  68.28   0
       190    835.9145    307.8442 300.3449934 +22.7342192     785.1744     69.24025      1.115     1.90     -9.43221     19.53975     146.0354        10     0.797     0.672  85.65   0
       191    751.7090    296.6976 300.3223709 +22.7057963     247.3057     69.43407      1.027     2.83    -9.419794     19.53975     43.71851         6     0.698     0.643 -55.37   0
       192    175.2514    296.4219 300.1430716 +22.5329538       170.12     69.25789      1.129     3.46    -9.213878     19.53975     34.73422         5     0.731     0.473  14.86   0
       193    711.7266    290.0392 300.3120759 +22.6919069     974.8285     69.24025      1.218     1.90    -9.433817     19.53975     179.1271        12     0.895     0.749  70.53   0
       194    373.5166    274.7474 300.2117556 +22.5861727     1090.936     69.29316      1.402     2.65    -8.875063     19.53975     141.9355        16     1.081     0.814  62.65   0
       195    812.6490    267.2198 300.3509316 +22.7155762     280.3401     69.25789      1.058     2.26    -9.426181     19.53975     58.63053         5     0.672     0.471 -80.97   0
       196    694.5990    264.9375 300.3148897 +22.6795639     315.6545      69.2226      1.143     2.33    -9.400067     19.53975     43.86171         6     0.769     0.489 -86.32   0
       197    449.4002    253.9480 300.2421166 +22.6029430     653.8846     69.20495      1.266     2.49    -8.797358     19.53975     93.54073         8     0.823     0.629 -79.95   0
       198    694.1527    245.8727 300.3209395 +22.6739520     1029.239     69.25789      1.222     2.13    -9.372237     19.53975     188.5838        12     0.925     0.702 -85.61   0
       199    955.4014    240.3145 300.4041709 +22.7505843     1520.614     69.18729      1.077     2.10     -9.46211     19.53975     271.4757        16     1.013     0.753  82.01   0
       200    402.5131    229.6507 300.2354147 +22.5819138      361.807     69.25789      1.159     3.18    -8.884884     19.53975     58.00289         6     0.879     0.443 -72.20   0
       201     77.4744    223.8996 300.1362293 +22.4828203     752.3042     69.38126      1.510     3.05    -9.228573     19.53975     103.9831        15     1.179     0.803 -39.14   0
       202    108.8171    224.2016 300.1458692 +22.4923058      260.662     69.16963      1.383     3.73    -9.172296     19.53975     33.63496         5     0.951     0.419 -45.45   0
       203    971.2982    220.1803 300.4156642 +22.7495539      215.761     69.18729      1.067     1.56    -9.377734     19.53975     69.71177         5     0.657     0.433  72.66   0
       204    766.0117    207.2258 300.3558718 +22.6843668     236.5615     69.25789      1.066     2.17    -9.235291     19.53975     66.49256         7     0.808     0.564  71.75   0
       205    356.4613    206.5570 300.2285840 +22.5614802     151.8649     69.25789      0.855     3.71    -9.035676     19.53975     29.27841         6     0.972     0.408 -71.03   0
       206    864.0026    196.2786 300.3899659 +22.7105610     1070.136     69.16963      1.196     1.99    -9.266784     19.53975     189.4149        11     0.838     0.736  81.49   0
       207    282.5332    193.7033 300.2097636 +22.5356314     1043.912     69.34604      1.173     2.20    -8.905427     19.53975     160.0195        15     0.910     0.841 -52.23   0
       208    360.4059    188.9351 300.2355297 +22.5576020     547.5444      69.2226      1.340     2.76     -8.96303     19.53975     61.78262         7     0.735     0.635 -82.24   0
       209    762.4388    187.9624 300.3610103 +22.6777601     160.5897     69.32841      0.960     2.05    -9.027078     19.53975     53.24466         6     0.735     0.495 -86.80   0
       210    177.1718    181.1502 300.1810823 +22.5004434     359.8243     69.27553      1.220     3.22    -8.958457     19.53975     59.58846         9     0.948     0.642  87.12   0
       211    715.1019    177.8403 300.3495464 +22.6606753     759.2791     69.25789      1.150     2.10    -8.834623     19.53975     138.3931        10     0.882     0.667  85.85   0
       212    779.6885    177.0815 300.3699167 +22.6797978     381.3948     69.36366      1.132     2.77    -8.929723     19.53975     55.37888         9     0.909     0.637  22.35   0
       213    198.6944    174.0784 300.1900667 +22.5048655     233.4276     69.38126      1.074     3.70    -8.982512     19.53975     41.33799         7     0.759     0.651  78.75   0
       214    986.6488    170.2669 300.4366514 +22.7397955      464.534     69.25789      1.002     2.38    -9.222851     19.53975     74.90918         7     0.779     0.560 -12.60   0
       215    719.2701    169.1932 300.3536511 +22.6594383     325.4633      69.2226      1.108     2.67    -8.738191     19.53975     48.08413         7     0.840     0.537 -56.16   0
       216    639.4799    168.6269 300.3289809 +22.6353793     422.2514     69.25789      0.996     2.09    -8.642199     19.53975     89.81993         8     0.806     0.569  18.98   0
       217    565.6220    160.2135 300.3087126 +22.6108390     399.6877     69.24025      1.151     2.17    -8.608946     19.53975     82.99867         9     0.802     0.692  56.01   0
       218    835.0981    159.9815 300.3927350 +22.6914722     695.7726     69.18729      1.152     1.91    -8.944688     19.53975     157.4302         9     0.771     0.638  50.47   0
       219    847.3566    158.9086 300.3969043 +22.6948338     272.6998     69.25789      1.206     2.86    -8.987963     19.53975      58.0679         9     0.858     0.737  66.39   0
       220   1007.9313    149.7880 300.4499354 +22.7402754     909.3634     69.27553      1.116     1.98    -9.128867     19.53975     179.3137        11     0.863     0.643  78.31   0
       221    963.9218    149.1631 300.4364113 +22.7269241     494.3074      69.2226      1.090     2.00    -9.087101     19.53975     114.7364         9     0.747     0.667 -73.87   0
       222    197.8157    142.5695 300.2000170 +22.4955561     286.9847     69.25789      1.077     2.45    -8.847964     19.53975     69.52454         9     0.793     0.754 -11.82   0
       223     59.6508    137.4294 300.1587505 +22.4526591     1187.125     69.27553      1.362     2.69    -9.178773     19.53975     126.4823        16     1.096     0.797  24.39   0
       224    883.0054    134.2371 300.4160230 +22.6984120     439.1484     69.29316      1.151     2.58    -8.824748     19.53975     54.89031         8     0.883     0.593  65.41   0
       225    217.2222    130.8543 300.2098504 +22.4980096     2821.341     69.27553      1.248     2.25    -8.786239     19.53975     428.2591        21     1.039     0.879  59.91   0
       226      1.6123    125.0703 300.1447324 +22.4317092     542.5505      55.4874      1.114     2.47    -9.417397     19.53975      89.5227         8     0.766     0.663  55.84  24
       227    200.6599    121.6325 300.2076937 +22.4903974     270.6665     69.29316      1.296     4.04     -8.70764     19.53975     44.06475         7     0.934     0.560  59.97   0
       228   1015.9954    117.9437 300.4627834 +22.7335296     9034.351      69.2226      1.186     1.89    -8.959857     19.53975     1786.428        32     1.031     0.902  76.45   0
       229    964.8943    110.8658 300.4491406 +22.7162011     1501.571     69.38126      1.229     1.99    -8.748898     19.53975     259.0685        18     1.055     0.862  76.22   0
       230    861.2390    112.0468 300.4164368 +22.6855158     1837.445     69.31079      1.199     1.95     -8.55499     19.53975     334.8203        18     0.927     0.867 -61.68   0
       231    410.2748    107.3878 300.2775024 +22.5491234     249.7133     69.27553      1.178     3.60    -8.498402     19.53975     38.58543         7     0.857     0.617  73.66   0
       232    334.9898     99.2913 300.2567093 +22.5242401     307.6368     69.20495      1.480     3.26    -8.458922     19.53975     36.75201         5     0.799     0.491 -56.40   0
       233    100.8734     96.3626 300.1848796 +22.4532301     339.3119     69.20495      1.252     4.16    -8.815462     19.53975     44.33807         8     1.034     0.560 -24.78   0
       234    462.0276     94.5954 300.2977558 +22.5609531     849.9047      69.2226      1.223     2.49    -8.483664     19.53975     128.8346        11     0.867     0.771  52.25   0
       235    390.1878     95.3373 300.2751621 +22.5396435     208.4904     69.24025      1.218     3.57     -8.43798     19.53975     35.40228         7     0.827     0.631 -23.45   0
       236    205.7079     90.5319 300.2193517 +22.4829806     249.1959     69.38126      1.230     3.43    -8.523304     19.53975     40.34514         5     0.752     0.451  20.72   0
       237    236.1051     74.5819 300.2339749 +22.4875107      2870.73     69.18729      1.253     2.34    -8.478179     19.53975     404.5505        24     1.046     0.910  70.83   0
       238     87.2196     73.8924 300.1879257 +22.4426863     356.4208     69.18729      1.204     2.60    -8.845981     19.53975     45.35529         6     0.727     0.562 -46.32   0
       239    482.1507     59.8109 300.3153014 +22.5569869     2994.333     69.27553      1.181     2.05    -8.494205     19.53975     540.6525        23     0.968     0.893  78.29   0
       240    367.7387     59.6959 300.2797392 +22.5226792     318.6145     69.34604      1.362     3.14    -8.394859     19.53975     56.84711         7     0.923     0.638  19.05   0
       241    734.9556     49.1943 300.3974684 +22.6296401     338.6026     69.25789      1.236     2.10    -7.905166     19.53975     61.18446         7     0.766     0.615 -62.34   0
       242    827.4321     48.0872 300.4266463 +22.6570047     254.4392      69.2226      1.176     3.07    -8.071183     19.53975     43.91676         5     0.736     0.628 -15.45   0
       243    610.4923     39.8834 300.3617194 +22.5896976     3028.858     69.43407      1.127     2.02    -8.585978     19.53975     473.4182        22     1.026     0.827  55.95   0
       244    385.4656     38.9362 300.2919867 +22.5220263     607.6271     69.31079      1.124     2.51    -8.407706     19.53975     107.5096        11     0.898     0.746 -89.84   0
       245    651.6181     37.1025 300.3754292 +22.6012127     307.0252     69.18729      1.014     2.32    -8.504942     19.53975     72.36066         6     0.857     0.429  72.16   0
       246    134.6580     31.2230 300.2165044 +22.4446555     361.8918     69.25789      1.420     3.52     -8.61071     19.53975     44.24697         6     0.737     0.628  42.65   0
       247    706.0522     28.9570 300.3950269 +22.6151688     265.4659     69.29316      1.152     1.97    -8.118763     19.53975     48.36082         5     0.596     0.565   3.53   0
       248    669.5289     23.3972 300.3854527 +22.6026356     432.0587     69.20495      1.568     5.32     -8.52706     19.53975     61.39411        12     1.661     0.626  66.51   0
       249    654.7103     24.6875 300.3804187 +22.5985697     1341.537     69.41647      1.099     1.93    -8.535939     19.53975     254.0033        13     0.859     0.731  65.01   0
       250    956.8707   1018.0544 300.1517495 +22.9744395     258.0505     69.29316      1.279     3.77    -12.89761     19.53975     42.42934         6     0.937     0.435  50.49  16
       251    721.6603   1007.2504 300.0819618 +22.9007956     298.7905     69.31079      1.931     3.86     -12.9482     19.53975      38.7783         5     0.879     0.572  37.76   0
       252    284.7620   1005.5952 299.9465375 +22.7691991     487.4555     69.27553      1.269     2.59    -9.606266     19.53975     75.28349        12     0.940     0.776  61.88   0
       253    119.2664   1000.5422 299.8967488 +22.7180531     758.7822     69.29316      2.564     7.47     27.77444     19.53975     56.32865        15     2.316     0.674 -52.68   0
