#   1 NUMBER                 Running object number                                     
#   2 X_IMAGE                Object position along x                                    [pixel]
#   3 Y_IMAGE                Object position along y                                    [pixel]
#   4 ALPHA_J2000            Right ascension of barycenter (J2000)                      [deg]
#   5 DELTA_J2000            Declination of barycenter (J2000)                          [deg]
#   6 FLUX_APER              Flux vector within fixed circular aperture(s)              [count]
#   7 FLUXERR_APER           RMS error vector for aperture flux(es)                     [count]
#   8 FLUX_RADIUS            Fraction-of-light radii                                    [pixel]
#   9 FWHM_IMAGE             FWHM assuming a gaussian core                              [pixel]
#  10 BACKGROUND             Background at centroid position                            [count]
#  11 THRESHOLD              Detection threshold above background                       [count]
#  12 FLUX_MAX               Peak flux above background                                 [count]
#  13 ISOAREA_IMAGE          Isophotal area above Analysis threshold                    [pixel**2]
#  14 A_IMAGE                Profile RMS along major axis                               [pixel]
#  15 B_IMAGE                Profile RMS along minor axis                               [pixel]
#  16 THETA_IMAGE            Position angle (CCW/x)                                     [deg]
#  17 FLAGS                  Extraction flags                                          
         1    767.8134     10.0620 300.4260837 +22.6182096     293.4362     69.17699      1.218     2.72     -7.80497     19.52688     45.72402         6     0.845     0.477  57.58   0
         2    787.6662      6.5654 300.4334030 +22.6231478     1042.835     69.21226      1.201     2.22    -7.767921     19.52688     156.9167        12     0.818     0.798 -17.14   0
         3    171.1879      1.7052 300.2431553 +22.4370714     389.0848     55.82366      1.214     3.29    -7.376891     19.52688     54.37329         8     0.908     0.599 -17.36  24
         4    170.0000   1012.0336 299.9144903 +22.7265610     953.8409     69.15935      7.309     8.30     18.16082     19.52688     38.07214        12     2.503     0.770 -88.51  27
         5     76.8937   1015.1043 299.8845705 +22.6994699     2453.291     69.38832     19.044    60.09     10.48539     19.52688     66.53336       668    15.620     6.414  41.50  27
         6     75.6048    928.2228 299.9124555 +22.6741896     1965.242     69.17699     13.853    22.43    -8.414914     19.52688     55.79229       107     4.684     2.984 -18.17   3
         7     94.0276    980.0397 299.9013085 +22.6945713     1860.328     69.26512     19.698    20.79      6.99509     19.52688     53.74573        85     4.275     2.807 -71.90   3
         8     75.7425    940.2238 299.9085918 +22.6776698     2167.303     69.21226     19.206    32.90    -6.000803     19.52688     47.14389       238     7.650     3.927 -14.03   3
         9     76.6853    970.0023 299.8991905 +22.6864854     2808.005      69.1417     26.670    63.64    0.6510135     19.52688     64.01799       926    13.887     8.093  86.03  27
        10    198.4586   1005.5004 299.9254596 +22.7332372     1909.938     69.30035      6.378    11.88     16.23059     19.52688     52.30305        34     3.100     1.268  18.82  19
        11    636.9022   1003.3149 300.0625343 +22.8642480      4464.15     69.37074      1.098     1.79    -13.21696     19.52688     890.7429        24     1.024     0.861 -84.54   3
        12    631.3258   1005.5571 300.0600681 +22.8632176     3939.536     69.19463      1.092     1.90    -13.13777     19.52688     608.3915        27     0.950     0.929 -44.45   2
        13    226.4685    986.7714 299.9402615 +22.7362827     1696.475     69.19463      9.014    19.96     9.086264     19.52688     53.85134        63     4.646     2.382  78.95   3
        14    239.4193    995.2089 299.9415388 +22.7425905     4033.812     69.17699      7.172    25.84     6.772609     19.52688     111.1417       243     7.529     3.155  71.86  18
        15    231.7041    992.7040 299.9399568 +22.7395554     1858.691     69.37074      8.680    11.54     8.883273     19.52688     58.26129        39     2.569     1.445 -82.58   3
        16     59.0949    977.0655 299.8914285 +22.6832245     2208.747     69.33555     19.995    23.97    -2.021252     19.52688     51.22171       124     4.982     3.201 -85.97   3
        17    731.7383   1006.2065 300.0911229 +22.8935356     417.7126     69.17699      1.208     2.36    -13.79461     19.52688     64.52947         8     0.791     0.630  36.48   0
        18    107.3047   1005.6187 299.8971039 +22.7058888     733.8284     69.12405      6.097     7.79     15.51371     19.52688     37.76598         9     1.473     1.152 -56.43   0
        19    159.1327   1017.3894 299.9093701 +22.7248312     765.9638     69.21226      8.185    16.67     19.57733     19.52688     36.46101        23     4.410     1.751  -2.05  19
        20    164.2452    996.2568 299.9178395 +22.7203114      1046.36     69.22988      5.282     8.37     13.44771     19.52688     45.53705        14     2.076     0.943  70.41   2
        21    924.1093    989.2384 300.1565874 +22.9463746     358.0089     69.19463      1.123     2.61    -13.61115     19.52688     67.37117         6     0.755     0.530  47.18   0
        22     55.2898   1019.0200 299.8765868 +22.6941007     888.3492     69.15935      3.383     3.64     2.780429     19.52688     31.61578         5     1.180     0.324 -71.39  18
        23    352.8984   1017.4126 299.9695837 +22.7830339     224.5508      69.1064      0.992     2.90    -13.08534     19.52688     43.62286         5     0.724     0.461 -17.99   0
        24    142.7298    976.8324 299.9174800 +22.7082824     645.7906     69.21226      3.024     5.06     7.642465     19.52688     30.97402         6     1.341     0.540 -50.97   0
        25    127.1018    976.8361 299.9126243 +22.7035889     826.1905     69.21226      6.323     7.97     7.366741     19.52688     33.18126        11     1.616     1.098  29.63   0
        26    649.6419    972.6137 300.0764975 +22.8592641     3367.057     69.22988      1.104     1.94    -13.15623     19.52688     576.9297        22     0.995     0.831  64.13   0
        27    140.2288    974.3098 299.9175244 +22.7068083      628.813     69.19463      3.018     5.41     6.714867     19.52688     33.82554         5     1.172     0.706  78.22   0
        28    558.1758    963.4306 300.0510165 +22.8291807     820.0626     69.21226      1.105     1.98    -12.72459     19.52688      132.661        10     0.781     0.681 -89.64   0
        29    209.0363   1012.4377 299.9264873 +22.7384025     1340.608     69.28274     13.849    18.42     18.19641     19.52688     50.41748        49     4.082     2.308 -30.85  27
        30    382.6292    958.0543 299.9981558 +22.7749435     3265.728     69.21226      1.149     1.90    -12.64137     19.52688     571.7093        25     1.083     0.916  61.13   0
        31    735.4179    960.6006 300.1071193 +22.8815544     152.9522      69.1417      1.094     3.51    -13.27655     19.52688     26.18564         5     1.088     0.328  20.54   0
        32    451.9571    959.9690 300.0190947 +22.7963054     409.7707     69.24751      1.190     2.60    -12.65772     19.52688     87.34593        10     0.936     0.713   2.62   0
        33    108.4166    957.5892 299.9130865 +22.6924609     1133.884     69.15935      7.289     6.73      1.47633     19.52688     49.03234        14     1.603     1.220 -86.57   1
        34     49.4212    959.0782 299.8942805 +22.6751647     581.6099     69.21226      4.025     4.74    -6.411325     19.52688     31.76036         5     1.363     0.468 -82.93   0
        35    171.8762   1007.5645 299.9165284 +22.7258439     856.0572     69.17699     10.609    16.29     16.95586     19.52688     38.99136        23     4.840     1.524  66.35  19
        36    414.9399    944.7802 300.0125257 +22.7808375     216.7715     69.15935      1.072     2.68    -12.44816     19.52688     52.54491         6     0.735     0.562  63.10   0
        37    222.6236   1002.3651 299.9339893 +22.7395969     1461.461     69.22988     13.886    20.45     14.71621     19.52688     57.38298        56     4.324     2.686 -79.96  19
        38    929.0362    936.4539 300.1753102 +22.9327001     998.4891     69.22988      1.118     2.11    -13.11819     19.52688     191.7333        14     0.910     0.791 -77.58   0
        39    611.1755    931.6914 300.0778458 +22.8359815      136.148     69.15935      1.073     3.49    -12.75932     19.52688     42.55473         5     0.852     0.469 -48.90   0
        40    717.6918    925.6285 300.1129844 +22.8662013     473.0818     69.17699      1.545     5.70    -12.84878     19.52688     49.41258        10     1.405     0.652  60.88   0
        41    216.1651   1006.2620 299.9307134 +22.7387739     1059.216     69.22988      4.521     7.02     16.14622     19.52688      52.8499        17     1.999     0.690 -83.60   3
        42    216.4853   1001.5459 299.9323486 +22.7375185     1981.316     69.26512     11.258    15.79     14.77516     19.52688      61.1487        59     2.724     2.545 -87.70   3
        43    752.4697    919.6752 300.1257543 +22.8749261     582.8857     69.28274      1.212     1.92    -12.83481     19.52688     91.32103         7     0.775     0.493  82.43   0
        44    529.7990    920.6113 300.0561258 +22.8083822     144.8266     69.03574      0.832     2.81    -12.59709     19.52688     41.99528         5     0.738     0.434  21.79   0
        45    774.7440    913.3441 300.1347536 +22.8797909      5504.49     69.28274      1.072     1.68     -12.7676     19.52688     1080.766        29     0.936     0.920 -87.91   0
        46    965.9494    912.6215 300.1945766 +22.9369269     137.7781     69.21226      1.075     3.40    -12.94302     19.52688     52.14578         5     0.945     0.552  77.64   0
        47    820.1677    913.0063 300.1490150 +22.8933188     244.1499     69.21226      1.277     3.90    -12.79566     19.52688     34.44439         6     0.917     0.475  52.20   0
        48    544.9101   1010.3608 300.0316069 +22.8386588     987.0148     69.21226      1.104     2.03    -12.81167     19.52688     209.1459        12     0.839     0.751 -82.81   0
        49    783.3262    895.4037 300.1432671 +22.8772162     673.0878     69.12405      1.083     1.84    -12.59908     19.52688     126.7218        10     0.742     0.715  55.91   0
        50    821.3922    888.9973 300.1572119 +22.8867947     463.7627     69.03574      1.173     1.94    -12.56071     19.52688     76.07983         7     0.686     0.622  84.14   0
        51    721.0049    878.8808 300.1292332 +22.8537802     411.5289      69.1417      1.154     2.53    -12.47702     19.52688     88.69331         9     0.809     0.790 -19.30   0
        52    433.8792    875.7199 300.0408958 +22.7667177     2044.732     69.33555      1.154     1.83     -12.2333     19.52688     406.7982        19     0.994     0.825  78.87   0
        53    732.4984    876.4074 300.1336179 +22.8565181     260.4633     69.08874      1.030     2.34    -12.46056     19.52688      55.2004         6     0.767     0.491  -2.25   0
        54    211.8402    864.8508 299.9754021 +22.6969426     193.8722     69.22988      1.239     3.35    -11.85355     19.52688     33.00215         6     0.763     0.555  42.15   0
        55    159.0975    861.5359 299.9600933 +22.6801544     278.2589     69.31795      0.991     2.59    -11.67472     19.52688     73.62836         7     0.827     0.752  32.25   0
        56    136.1060    858.8389 299.9538285 +22.6724768      700.301     69.22988      1.186     2.53    -11.67092     19.52688     108.5292        12     0.899     0.811 -81.18   0
        57   1007.7192    847.2477 300.2288797 +22.9306781     1109.158     69.22988      1.139     1.81    -12.31972     19.52688     210.9932        17     0.934     0.887 -66.85   0
        58    191.4903   1009.4844 299.9219972 +22.7322858     814.8425     69.35315      5.911     7.28     17.22169     19.52688     45.82586        14     1.463     1.100 -55.12   3
        59    962.0280    845.6589 300.2151501 +22.9165239     893.7712     69.21226      1.005     1.57    -12.31312     19.52688     220.3838        11     0.780     0.658  67.98   0
        60    167.9918    840.3914 299.9697371 +22.6767641     212.5346     69.07108      1.124     3.35    -11.77266     19.52688     44.66019         5     0.751     0.432 -21.70   0
        61    745.7081    839.7049 300.1496772 +22.8499464     215.5193     69.38832      0.890     1.91    -12.29792     19.52688     69.09908         5     0.706     0.416  19.02   0
        62    613.7758    833.7885 300.1105206 +22.8086721     2325.392     69.21226      1.087     1.80    -12.20306     19.52688     458.9579        16     0.856     0.776  77.33   0
        63    415.8589    830.9199 300.0498699 +22.7484598       303.94     69.24751      0.980     1.95    -11.97169     19.52688     71.19582         6     0.695     0.514  68.59   0
        64    163.9274    827.7515 299.9725871 +22.6719203     670.6006     69.21226      1.175     3.13    -11.80572     19.52688     110.7604        12     1.064     0.701  78.52   0
        65    634.5358    826.5302 300.1193453 +22.8128174     425.2166     69.24751      1.109     3.25    -12.19065     19.52688     73.17516        11     1.013     0.779  -0.67   0
        66   1006.9030    813.5101 300.2396044 +22.9207441       606.88     69.38832      1.159     2.61    -12.27865     19.52688      102.163        10     0.953     0.633  68.15   0
        67    789.8132    813.4207 300.1719695 +22.8556293     2095.645     69.17699      1.035     1.68    -12.22761     19.52688     379.9292        15     0.833     0.753  83.82   0
        68    197.9934    807.7895 299.9896664 +22.6764261     237.5724     69.08874      1.024     2.06    -11.89028     19.52688     50.30328         5     0.741     0.453 -65.05   0
        69    506.6155    806.1793 300.0861535 +22.7685984     300.9346     69.17699      1.221     2.59    -11.68422     19.52688     75.56419         8     0.872     0.630 -33.37   0
        70    152.9630    804.1028 299.9768750 +22.6618485     398.1846     69.21226      1.149     2.23    -11.86933     19.52688     84.64771         7     0.680     0.632  12.50   0
        71    568.1981    799.4617 300.1075033 +22.7851482     275.0702     69.19463      1.332     3.36    -11.76861     19.52688     37.83165         5     0.751     0.437  23.21   0
        72    302.8967    796.2301 300.0260313 +22.7046047     26310.58     69.15935      1.181     1.92    -12.01811     19.52688     4714.899        57     1.116     1.010  76.25   0
        73    973.6657    794.4799 300.2354330 +22.9053153     438.5956     69.31795      0.981     2.69    -12.18115     19.52688     88.54549         5     0.757     0.455  47.12   0
        74    560.6188    795.0687 300.1065737 +22.7816137     751.9454     69.21226      1.082     1.89    -11.71299     19.52688      152.533        10     0.831     0.643  31.77   0
        75    589.6674    791.0885 300.1169099 +22.7891865     429.6454     69.31795      1.116     1.99    -11.85856     19.52688     70.18079         7     0.683     0.610  82.18   0
        76    600.6800    789.4960 300.1208560 +22.7920333      326.306     69.31795      1.007     2.18    -11.90676     19.52688     56.06702         5     0.667     0.488  13.62   0
        77    706.1534    786.1273 300.1547916 +22.8227043     244.8133     69.21226      1.131     3.89    -12.04358     19.52688     40.23358         6     0.789     0.550  56.56   0
        78    743.4650    776.0421 300.1696935 +22.8309995     424.1985     69.19463      1.240     2.52    -11.97053     19.52688       71.879         7     0.823     0.632 -84.73   0
        79    352.5949    773.4878 300.0488816 +22.7129994      15400.7     69.12405      1.095     1.95    -11.94651     19.52688     2280.988        42     1.030     0.983  64.19   0
        80    366.8236    773.9666 300.0531503 +22.7174072     944.8947     69.22988      1.131     2.02    -11.87273     19.52688     197.2771        10     0.753     0.725   6.41   0
        81    875.5953    769.0954 300.2131211 +22.8686250      1369.18     69.12405      1.091     1.85    -11.96094     19.52688     245.3666        14     0.872     0.753  53.14   0
        82    363.2726    767.8393 300.0540394 +22.7145839     234.7653     69.19463      1.278     3.79    -11.85236     19.52688     37.16528         5     0.955     0.431 -42.49   0
        83    633.5776    765.2849 300.1389739 +22.7949535      387.004     69.15935      1.059     2.36    -11.81248     19.52688     84.48182         9     0.797     0.716  63.34   0
        84    234.9840    765.2858 300.0149889 +22.6753445     511.0551     69.17699      1.215     2.50    -11.80394     19.52688     74.86378        10     0.882     0.700 -70.37   0
        85    480.6085    759.9397 300.0931052 +22.7475285      499.011     69.17699      1.193     2.45    -11.42948     19.52688     89.71835         9     0.864     0.678  60.61   0
        86    881.8002    756.3651 300.2191965 +22.8668296     154.5536     69.17699      0.832     3.50    -11.85896     19.52688     48.79513         5     0.860     0.476 -49.02   0
        87    426.5738    754.8195 300.0779615 +22.7298457     201.1918     69.22988      1.001     2.23    -11.43886     19.52688     41.99506         5     0.684     0.471  72.29   0
        88    525.3690    737.9738 300.1141777 +22.7546551     296.2917     69.21226      1.190     3.83    -11.43716     19.52688     55.75852         6     1.049     0.532  63.52   0
        89    547.4398    735.4302 300.1218735 +22.7605464     669.8941     69.21226      1.083     2.20    -11.47143     19.52688      103.238         9     0.804     0.667  67.43   0
        90    941.9440    734.4365 300.2450775 +22.8785615     2263.877     69.21226      1.042     1.74    -11.66241     19.52688     467.5843        13     0.808     0.731  81.63   0
        91    930.3849    725.7411 300.2443026 +22.8725993     704.3506     69.19463      1.035     1.77    -11.62071     19.52688     159.6309        10     0.774     0.646  60.40   0
        92    293.5215    720.0084 300.0479110 +22.6799304     497.2023     69.17699      1.190     2.22    -11.60829     19.52688     83.50535         9     0.846     0.630  21.69   0
        93    756.7807    717.2524 300.1929656 +22.8181146     1205.005     69.19463      1.168     2.16    -11.44364     19.52688     207.0485        11     0.900     0.656  83.61   0
        94    961.6270    716.0989 300.2571789 +22.8791941     879.9351     69.15935      1.149     1.84    -11.51477     19.52688     151.4939        12     0.976     0.688  72.80   0
        95    142.1562    703.7469 300.0061608 +22.6298310      195.291     69.24751      1.134     2.40    -11.52948     19.52688     58.08119         6     0.712     0.627  77.44   0
        96    839.2078    702.8115 300.2233433 +22.8386816     254.8443      69.1064      1.414     2.21    -11.35449     19.52688     58.13672         6     0.698     0.609  18.16   0
        97    875.2037    694.0599 300.2374073 +22.8469590     72895.12     69.17699      1.132     1.75    -11.30036     19.52688     15478.56       103     1.166     1.064  69.56   0
        98   1022.2743    695.7375 300.2827127 +22.8915210     565.7253     60.94389      1.045     1.75    -11.39355     19.52688     123.2173         9     0.867     0.581 -55.29  24
        99    727.5378    694.1224 300.1913800 +22.8027051     355.4469     69.28274      0.945     2.07    -11.24362     19.52688     61.04407         6     0.720     0.498  87.74   0
       100    561.4083    683.0484 300.1432575 +22.7497033     813.9971     69.22988      1.085     2.00    -10.93843     19.52688      141.573        12     0.875     0.722  85.13   0
       101    742.6852    680.2784 300.2006004 +22.8032721     4565.532     69.31795      1.092     1.84    -11.12718     19.52688     856.3327        21     0.894     0.837  54.20   0
       102    244.3609    675.6251 300.0470638 +22.6524455     2378.935     69.22988      1.198     2.22    -11.36481     19.52688     336.6497        21     1.038     0.915  41.08   0
       103    326.2338    673.5763 300.0731809 +22.6764287     522.8404     69.22988      1.162     2.32    -11.24549     19.52688     78.21378        11     0.910     0.669 -76.36   0
       104    534.4958    668.8971 300.1394838 +22.7375692     510.0996     69.38832      1.370     2.72    -10.80826     19.52688     67.86665         8     0.860     0.702  13.35   0
       105    526.2640    661.1317 300.1394472 +22.7328713     1648.085     69.26512      1.194     2.14    -10.75695     19.52688     268.1039        17     1.041     0.792  70.04   0
       106    516.2861    654.8203 300.1383946 +22.7280670     815.7103      69.1417      1.193     2.05    -10.71903     19.52688     122.7787         9     0.778     0.681  80.78   0
       107    909.6256    652.3635 300.2616963 +22.8453004     311.3959     69.22988      1.540     3.28    -10.99597     19.52688     55.12093         5     0.924     0.481   1.33   0
       108    179.8693    651.0449 300.0350149 +22.6260388     389.2812     69.17699      1.283     1.98    -11.31695     19.52688     71.22541         6     0.693     0.535  49.59   0
       109    219.8269    646.3689 300.0489518 +22.6366907     316.2431     69.21226      1.137     2.00    -11.32281     19.52688     55.95129         6     0.683     0.574  76.74   0
       110    441.2785    644.6850 300.1183534 +22.7026575     1000.148     69.31795      1.311     2.05    -10.81083     19.52688     143.7526        13     0.855     0.769 -55.43   0
       111     95.2374    639.8862 300.0123513 +22.5974340     9899.886     69.19463      1.237     2.08    -11.05135     19.52688     1575.472        39     1.119     0.983  75.30   0
       112   1016.9117    641.6442 300.2986321 +22.8743725     355.2063     69.21226      1.007     2.04    -10.84146     19.52688     84.50842         7     0.796     0.555  70.66   0
       113     16.0262    641.3345 299.9872817 +22.5740682      287.648     69.19463      1.270     3.65     -11.1281     19.52688     40.92842         7     0.756     0.655  -0.55   0
       114    525.9597    639.9335 300.1462453 +22.7266959     543.5168     69.17699      1.127     2.06    -10.61514     19.52688     92.89725         8     0.746     0.646 -38.44   0
       115    944.2551    626.0619 300.2810439 +22.8481230     393.6598     69.28274      1.006     1.73    -10.72917     19.52688     100.2089         7     0.677     0.576 -76.96   0
       116     41.1325    624.0310 300.0007028 +22.5766448     761.2838     69.21226      1.558     3.64     -10.8835     19.52688     76.30108        14     1.236     0.716 -84.60   0
       117     35.8263    624.4085 299.9989324 +22.5751600     75.52462     69.21226      5.430     5.27    -10.88377     19.52688     25.66642         5     1.432     0.548  39.12   0
       118    810.9908    623.8340 300.2402339 +22.8075410     247.1635     69.21226      1.120     2.07    -10.74766     19.52688     56.29753         5     0.749     0.444  67.57   0
       119    884.2566    618.5314 300.2647897 +22.8279784     380.5799     69.22988      1.152     2.20    -10.77208     19.52688     61.84091         5     0.693     0.460  21.99   0
       120    446.2005    613.1054 300.1301518 +22.6950715     388.3751     69.08874      1.081     2.25    -10.53511     19.52688     70.10764         6     0.731     0.523  57.97   0
       121    490.4369    608.7178 300.1453407 +22.7070814     448.0943     69.17699      1.107     2.26    -10.40581     19.52688     62.93523         5     0.668     0.480 -74.56   0
       122    924.2079    604.0472 300.2819520 +22.8357907     1554.782     69.22988      1.056     1.75    -10.58276     19.52688     353.5882        15     0.851     0.746  86.31   0
       123    456.0755    604.2889 300.1360900 +22.6955034      804.903     69.33555      1.184     1.93    -10.46439     19.52688     145.9186        11     0.826     0.718 -88.01   0
       124   1022.0985    601.8224 300.3131976 +22.8644841     350.6129     61.62085      0.926     1.87    -10.32673     19.52688     97.78514         6     0.710     0.539  80.75  16
       125     17.9716    597.9787 300.0019799 +22.5622215     2439.898     69.19463      1.259     2.14    -10.64481     19.52688     398.8803        21     1.007     0.881  73.93   0
       126    319.3608    591.0951 300.0978603 +22.6507027     4513.991     69.19463      1.201     2.11    -10.73155     19.52688     664.3388        28     1.043     1.018 -18.67   0
       127    441.8263    588.0255 300.1369442 +22.6865615     4390.975     69.17699      1.207     1.96    -10.45955     19.52688     806.0146        26     1.039     0.886  81.46   0
       128    853.4452    581.6480 300.2671782 +22.8081487      903.069     69.24751      1.077     2.01    -10.62427     19.52688     147.1304        11     0.910     0.697 -89.46   0
       129    938.0517    579.1633 300.2943575 +22.8327899     5993.368     69.22988      1.132     1.78    -10.44152     19.52688     1239.306        25     0.938     0.865  78.04   0
       130    502.4478    577.5950 300.1591953 +22.7017506     5614.764     69.19463      1.160     2.07    -10.32475     19.52688     779.5073        29     1.051     0.954  87.35   0
       131    229.6037    573.3008 300.0757434 +22.6186651      701.329      69.1064      1.248     2.76    -10.76794     19.52688     125.9635        13     0.985     0.812  19.94   0
       132    672.0155    573.5532 300.2132915 +22.7514380     318.6039     69.22988      1.231     1.75    -10.26304     19.52688     56.58976         6     0.696     0.495   5.33   0
       133    434.0783    565.8224 300.1417512 +22.6778650     2198.215     69.17699      1.234     1.95    -10.41412     19.52688     370.9689        19     0.985     0.837  75.71   0
       134    776.8781    565.5676 300.2485481 +22.7805804     416.7797     69.19463      1.149     2.83    -10.45429     19.52688     67.12885         8     0.856     0.636  57.42   0
       135    412.3941    564.2845 300.1355061 +22.6709192      693.017      69.1417      1.263     2.64    -10.43144     19.52688     84.30183        10     0.872     0.692 -72.56   0
       136    166.7315    563.8392 300.0592814 +22.5970833     361.5471     69.17699      1.172     2.65    -10.73796     19.52688     71.74256         8     0.876     0.575  88.51   0
       137    853.9398    561.0596 300.2740250 +22.8023824     785.4653     69.28274      1.295     2.76    -10.54188     19.52688      103.935        12     0.967     0.731 -63.25   0
       138    734.4432    557.9177 300.2378160 +22.7656631     443.5775     69.17699      1.070     3.13    -10.37732     19.52688     74.15727         8     0.972     0.557 -59.24   0
       139    550.6904    553.2895 300.1821084 +22.7092411     99536.33     69.37074      1.208     2.10     -10.1216     19.52688     15264.18       128     1.280     1.227  81.87   0
       140    236.8356    553.4139 300.0844547 +22.6151299     1825.477     69.21226      1.206     2.07    -10.48711     19.52688     279.0475        17     0.957     0.854  78.40   0
       141    441.2943    533.7325 300.1544256 +22.6708188     1369.858     69.35315      1.286     2.40    -10.24944     19.52688     182.9072        17     1.080     0.796  87.78   0
       142    838.2335    519.6342 300.2825948 +22.7857745     718.1508     69.28274      1.186     1.88     -10.2733     19.52688     144.2795        11     0.814     0.724  62.86   0
       143    709.5500    517.3610 300.2432443 +22.7465527       1322.3     69.22988      1.206     2.19    -10.08906     19.52688     175.4509        16     0.925     0.854  87.63   0
       144    953.8318    514.4894 300.3202987 +22.8189344      277.108     69.17699      0.954     2.21    -10.19808     19.52688     50.53297         5     0.701     0.471 -18.90   0
       145    614.3771    513.8417 300.2147529 +22.7170107     246.7966     69.24751      0.906     1.77     -9.76547     19.52688     51.32806         5     0.671     0.445 -67.40   0
       146    496.2186    513.4402 300.1781082 +22.6814658     287.5323     69.22988      1.286     2.64    -9.971525     19.52688     55.52181         6     0.752     0.489  -8.86   0
       147    966.8150    511.2820 300.3253891 +22.8219024     737.3531     69.19463      1.204     2.03    -10.21037     19.52688      111.229         9     0.806     0.620  58.52   0
       148    838.4781    509.7834 300.2858724 +22.7830177     1117.542     69.21226      1.331     2.77    -10.20391     19.52688     167.4362        15     1.333     0.797  76.66   0
       149    952.4138    510.2805 300.3212245 +22.8173000     287.4319     69.19463      1.034     1.95    -10.18157     19.52688     52.18714         5     0.642     0.483  76.85   0
       150    592.4123    507.6353 300.2099321 +22.7086430     447.7989     69.19463      1.777     2.62    -9.682521     19.52688     62.44703         6     0.879     0.428  71.52   0
       151    876.5839    504.7382 300.2993876 +22.7929869     2072.838     69.17699      1.105     1.90    -10.17262     19.52688     371.7911        23     1.036     0.915 -50.41   0
       152    430.1701    506.5327 300.1598044 +22.6596749      231.402     69.19463      1.044     2.50    -10.00975     19.52688     47.08925         5     0.738     0.446  22.42   0
       153    108.8046    495.6101 300.0634578 +22.5601276     574.7126     69.07108      1.158     2.33    -10.23774     19.52688     74.96561         9     0.797     0.684 -66.86   0
       154    968.3638    494.9613 300.3311760 +22.8176760     358.5814     69.28274      1.099     2.61    -10.17115     19.52688     59.95493         7     0.854     0.583 -33.91   0
       155    101.3979    485.7274 300.0643681 +22.5550699     162.2872     69.12405      1.340     3.44    -10.17529     19.52688     26.36286         5     0.764     0.448 -71.33   0
       156    650.0929    475.1972 300.2384304 +22.7166198     283.3998     69.12405      1.227     3.99    -9.608343     19.52688     54.20656         8     1.117     0.525  58.14   0
       157    964.8549    467.8217 300.3389010 +22.8088249     162.6369     69.22988      1.023     1.68    -10.10714     19.52688     63.41867         6     0.694     0.503  45.73   0
       158    710.7074    467.4069 300.2598375 +22.7325512     394.8968     69.12405      1.191     3.54    -9.852633     19.52688     54.84293         9     0.881     0.816  26.88   0
       159    815.8867    466.1559 300.2930096 +22.7637132     1431.134     69.19463      0.541     0.90    -9.996765     19.52688     991.2243         6     0.439     0.366 -71.66   0
       160    868.0328    463.7058 300.3100560 +22.7786344      506.218     69.17699      1.086     2.00    -9.994296     19.52688     106.8087         9     0.769     0.721 -87.61   0
       161    852.5352    460.1158 300.3063926 +22.7729593     323.7823     69.31795      1.265     3.17    -9.992824     19.52688     48.61983         6     0.792     0.731 -67.18   0
       162    596.6238    458.1898 300.2273097 +22.6957065     1597.327     69.21226      1.222     2.21    -9.301977     19.52688     234.1445        18     0.967     0.890  64.74   0
       163     72.4180    449.4865 300.0671409 +22.5359772     112.9342     69.15935      1.323     5.17    -10.12824     19.52688     29.96588         5     1.080     0.699  61.64   0
       164   1007.9910    437.1056 300.3623319 +22.8129173      569.783     69.12405      1.097     1.97    -10.13621     19.52688     127.2749        11     0.896     0.676  73.18   0
       165    966.3005    435.8326 300.3497453 +22.8000636     381.2213     69.19463      1.203     3.22    -10.06294     19.52688     58.44938        10     1.018     0.648  70.26   0
       166    707.3224    431.7805 300.2703581 +22.7213026     497.4147     69.21226      1.188     2.59    -9.703657     19.52688     84.28741         8     0.896     0.585  65.97   0
       167    273.6951    426.2452 300.1372317 +22.5896972     1654.249     69.22988      1.182     2.13    -9.498532     19.52688     273.1017        18     0.981     0.846 -85.74   0
       168   1006.6346    424.3842 300.3660419 +22.8088541     2034.031     69.21226      1.087     1.93    -10.09746     19.52688     340.8855        19     0.909     0.887 -66.74   0
       169    220.8888    421.0395 300.1225093 +22.5723627     3707.076     69.19463      1.289     2.17    -9.662975     19.52688     557.4079        27     1.121     0.926  66.67   0
       170    986.6177    415.2533 300.3627662 +22.8002339     842.9794     69.19463      1.101     2.21    -10.05563     19.52688     132.1147        13     0.918     0.715  72.52   0
       171    361.6851    415.1872 300.1681815 +22.6129142     2254.542     69.15935      1.262     2.28    -9.304661     19.52688      342.043        22     1.056     0.926  66.24   0
       172    605.7895    411.7517 300.2452493 +22.6851170     9128.453     69.22988      1.265     2.21    -9.127991     19.52688     1406.236        39     1.164     0.994  77.15   0
       173    623.7493    411.5658 300.2509010 +22.6904471     361.7871     69.22988      1.771     4.87    -9.182117     19.52688     34.29893         7     1.402     0.479 -50.09   0
       174    939.2462    394.4208 300.3547633 +22.7800564      390.094     69.26512      1.110     2.18     -9.99179     19.52688     64.44369         5     0.691     0.450  22.80   0
       175    160.4799    392.1999 300.1131047 +22.5459642     919.3021     69.08874      1.199     2.34    -10.01597     19.52688     144.2762        13     0.881     0.790  44.16   0
       176    959.8687    381.5607 300.3653702 +22.7825368     466.2643     69.17699      1.139     2.82    -10.00676     19.52688     99.73754         9     0.935     0.616  86.94   0
       177    546.4496    381.2806 300.2366759 +22.6585775     3237.301     69.22988      1.216     2.20      -9.2203     19.52688     425.6506        22     1.033     0.903  77.49   0
       178    261.3748    380.7538 300.1481779 +22.5729451     381.2712     69.22988      1.519     3.09    -9.393738     19.52688     45.49981         8     0.897     0.621 -66.25   0
       179    119.1114    374.1493 300.1061147 +22.5283736     253.8177     69.21226      1.345     2.51    -10.05538     19.52688     40.77943         6     0.734     0.552  38.33   0
       180    750.5110    370.1353 300.3038346 +22.7165340     516.6153     69.33555      1.255     2.65    -9.670471     19.52688     75.73634        10     0.871     0.776 -66.15   0
       181    453.1470    367.5077 300.2121162 +22.6266507     2869.759     69.26512      1.306     2.33     -9.24151     19.52688     402.0349        24     1.107     0.919  77.02   0
       182    845.0074    361.8392 300.3359716 +22.7424618     592.3924     69.24751      1.266     3.48    -9.939796     19.52688     103.9489        13     1.171     0.746 -68.70   0
       183    942.3636    361.8392 300.3663180 +22.7716245     296.1986     69.28274      1.010     2.13    -9.973869     19.52688     61.97357         5     0.690     0.456 -72.70   0
       184    437.6259    356.2429 300.2109460 +22.6187625     323.2811     69.22988      1.169     2.88    -9.241843     19.52688     55.07024         7     0.943     0.480  85.56   0
       185    818.0208    349.3042 300.3316331 +22.7307746     198.8672     69.12405      1.144     2.73    -9.884799     19.52688     45.64365         7     0.740     0.635 -17.19   0
       186    340.6728    346.8586 300.1838392 +22.5869971     1122.523     69.24751      1.185     2.47    -9.276247     19.52688     188.5021        13     0.861     0.836  79.47   0
       187     59.0246    344.3342 300.0971331 +22.5017912     455.2448     69.19463      1.118     2.78    -10.09345     19.52688     82.20921         9     0.898     0.662 -58.16   0
       188    310.0032    336.2958 300.1777330 +22.5747675     14368.33     69.12405      1.314     2.31    -9.303499     19.52688     1940.089        50     1.196     1.082  83.61   0
       189    844.5634    333.4072 300.3450669 +22.7341571     779.5901     69.21226      1.280     2.90    -9.809978     19.52688     89.94498        16     1.090     0.836  67.75   0
       190      6.3016    324.2505 300.0872818 +22.4802097     2373.519     69.28274      1.254     2.30    -10.14229     19.52688      306.926        21     1.041     0.882  60.91  16
       191    408.2857    321.4785 300.2131083 +22.5999831     232.9982     69.35315      1.151     3.48    -9.260738     19.52688     34.56827         5     0.745     0.470  16.97   0
       192    720.2703    315.7291 300.3120833 +22.6918395     908.6471     69.28274      1.262     2.41    -9.425955     19.52688     132.8385        13     0.865     0.838  55.82   0
       193    935.3365    308.3287 300.3815046 +22.7541367     205.6641     69.24751      0.939     2.31    -9.837337     19.52688     59.65846         5     0.675     0.472  88.33   0
       194    382.3262    300.7443 300.2117662 +22.5862461     1043.618     69.24751      1.456     3.06    -9.265934     19.52688     120.0196        17     1.186     0.820  84.00   0
       195    457.9872    279.7706 300.2421111 +22.6029051     587.3394     69.21226      1.312     3.21    -9.267163     19.52688     79.05338        12     0.941     0.903  26.04   0
       196    702.7136    271.7028 300.3209096 +22.6739277     1060.408     69.37074      1.247     2.24    -9.388803     19.52688      170.509        14     0.978     0.794  26.78   0
       197    964.0258    265.9255 300.4042171 +22.7505365     1604.778     69.22988      1.182     1.92    -9.655314     19.52688     303.0093        16     0.988     0.755  72.12   0
       198    411.4213    255.8237 300.2353990 +22.5820685     322.9216     69.21226      1.232     2.97    -9.242837     19.52688     46.60502         6     0.716     0.637  16.88   0
       199     86.1223    249.9583 300.1361886 +22.4828384     735.7051     69.19463      1.507     3.27    -9.590429     19.52688     82.30969        14     1.150     0.777 -38.11   0
       200    116.7576    249.8188 300.1457503 +22.4919874     342.7321     69.22988      1.201     2.59     -9.48049     19.52688     56.34642         8     0.731     0.710 -47.18   0
       201    774.2990    233.0296 300.3557628 +22.6842577      350.553      69.1417      1.526     3.41    -9.421561     19.52688     36.55683         5     0.803     0.485  36.27   0
       202    365.2115    232.7849 300.2285049 +22.5615992     235.2253     69.15935      1.394     3.21    -9.008097     19.52688     33.08154         6     0.732     0.587 -44.27   0
       203    872.6061    222.0116 300.3899732 +22.7105338     1035.273     69.08874      1.245     2.38    -9.469835     19.52688     159.1781        14     0.925     0.851 -12.71   0
       204    291.2849    219.7062 300.2097628 +22.5356801     1053.409     69.38832      1.260     2.27    -8.994378     19.52688     139.5657        18     1.021     0.913  67.60   0
       205    120.9910    215.4424 300.1582228 +22.4833901     188.8045     69.22988      1.325     4.03    -9.228991     19.52688      29.2478         5     1.068     0.434 -64.39   0
       206    771.2410    214.1017 300.3609538 +22.6779010     217.2502     69.19463      1.210     3.43    -9.366473     19.52688     53.92705         9     0.997     0.709  73.69   0
       207    369.0341    214.5980 300.2355966 +22.5575220     522.0038     69.17699      1.293     2.74    -8.964827     19.52688     79.45585        10     0.971     0.640  61.72   0
       208    185.6963    207.0136 300.1810627 +22.5003753     404.8025     69.12405      1.482     4.16    -9.169085     19.52688     40.39733         7     0.774     0.639 -77.06   0
       209    723.7636    203.5158 300.3495998 +22.6606368     828.6837     69.19463      1.315     2.98    -9.302723     19.52688     106.5763        13     1.043     0.775  83.55   0
       210    788.3853    203.2344 300.3698225 +22.6799121     287.2236     69.19463      1.078     2.32     -9.35799     19.52688     46.90163         6     0.674     0.617 -27.10   0
       211    207.2312    200.5464 300.1898539 +22.5049762     281.9451     69.22988      1.083     3.49     -9.14352     19.52688     39.26668         5     0.756     0.465 -17.41   0
       212    995.1444    195.7425 300.4367027 +22.7396710     407.4821     69.28274      1.194     2.27    -9.052755     19.52688     72.73971         9     0.818     0.661  72.47   0
       213    727.5167    194.9145 300.3535604 +22.6592887     323.9194     69.33555      1.086     3.46    -9.278285     19.52688     56.90005         8     1.037     0.548  55.26   0
       214    648.2457    194.3410 300.3290589 +22.6353769     609.6181     69.24751      1.261     2.72    -9.377598     19.52688     80.59235        12     0.958     0.754  57.78   0
       215    843.6242    185.8457 300.3926788 +22.6914564     626.7221     69.22988      1.191     2.19    -9.313186     19.52688     101.7342        10     0.836     0.699   2.40   0
       216    574.5283    186.0893 300.3087865 +22.6109191     519.4578     69.37074      1.171     2.12    -9.196995     19.52688     81.56357         8     0.787     0.619  44.44   0
       217    855.6527    184.9308 300.3967244 +22.6947954     449.6311     69.21226      1.489     2.30    -9.310784     19.52688     57.09501         7     0.778     0.584 -65.30   0
       218   1016.6642    175.5358 300.4499719 +22.7403015      777.889     69.24751      1.230     2.88    -8.890648     19.52688      109.026        13     1.038     0.788  63.07   0
       219    972.4181    174.9278 300.4363712 +22.7268808     505.4353     69.21226      1.066     1.88    -8.891732     19.52688     113.4868         8     0.744     0.643  50.45   0
       220    206.6057    168.3165 300.2001183 +22.4955349     319.7107      69.1417      1.342     2.70    -9.045046     19.52688     39.19922         5     0.713     0.450 -69.93   0
       221     68.4516    163.3543 300.1588054 +22.4526812      1059.76     69.22988      1.266     2.60    -9.173401     19.52688     134.2784        17     0.981     0.938 -84.13   0
       222    891.3953    160.0730 300.4159318 +22.6983505     284.3283     69.15935      0.955     3.06    -9.018261     19.52688     55.01317         5     0.740     0.439  68.86   0
       223     17.7925    160.1818 300.1441020 +22.4365765      189.599     69.17699      1.235     3.95     -9.32443     19.52688     31.67943         6     0.792     0.564 -47.05   0
       224    225.7802    156.6570 300.2098609 +22.4979361     2821.038     69.22988      1.317     2.35    -8.989517     19.52688     414.7907        25     1.088     0.952  79.78   0
       225      9.9690    151.0484 300.1446360 +22.4316085      599.981     69.24751      1.270     2.86    -9.278664     19.52688     92.91405        11     0.947     0.749 -13.90   0
       226   1023.7252    143.6727 300.4625141 +22.7332499     4388.398      53.5706      0.911     2.17    -8.706048     19.52688     1303.056        16     1.036     0.517  88.87  24
       227    869.7961    137.8579 300.4164080 +22.6854950     1797.611     69.17699      1.248     2.12    -8.945759     19.52688     302.2951        18     0.982     0.858 -69.69   0
       228    973.4821    136.5250 300.4491648 +22.7161540     1273.242     69.31795      1.147     2.11    -8.680644     19.52688     199.3403        15     0.910     0.818  67.06   0
       229    419.3322    133.6779 300.2774999 +22.5493544     252.0624     69.31795      1.224     3.90     -8.74297     19.52688     48.54277         5     1.147     0.380 -52.89   0
       230    109.1799    122.2162 300.1848035 +22.4530858     359.9245     69.19463      1.241     3.89    -8.873089     19.52688     39.52341         6     0.790     0.548  43.32   0
       231    470.6439    120.5937 300.2977084 +22.5609718     881.1637     69.22988      1.384     2.65    -8.660556     19.52688     100.3373        13     0.921     0.843  50.92   0
       232    398.5535    121.1570 300.2750988 +22.5395301      300.014     69.24751      1.232     2.16    -8.694791     19.52688     41.16676         5     0.689     0.460 -68.35   0
       233    244.7765    100.5159 300.2339792 +22.4875091     3066.808     69.19463      1.324     2.37    -8.776535     19.52688        400.3        22     1.075     0.901  82.24   0
       234     95.7122     99.7826 300.1878973 +22.4426067     326.6953     69.15935      1.177     3.78    -8.765994     19.52688     47.17355         8     0.927     0.591 -85.13   0
       235      6.1590     90.4393 300.1631150 +22.4130691     126.4265     69.28274      1.170     3.90    -8.753797     19.52688     33.08995         5     0.884     0.532 -50.56  16
       236    490.7714     85.6694 300.3153010 +22.5569676     3077.669     69.21226      1.332     2.42    -8.540684     19.52688     435.7811        24     1.063     0.990 -76.51   0
       237    376.3936     85.6668 300.2797195 +22.5226934     321.0764     69.21226      1.077     3.26    -8.563341     19.52688     50.79226         7     0.954     0.473  81.59   0
       238    743.1868     75.3521 300.3972356 +22.6296100     436.7359     69.22988      1.287     3.09    -8.391847     19.52688     48.21411         5     0.747     0.437  18.50   0
       239    835.5433     73.9718 300.4264594 +22.6568674     193.9324     69.21226      1.132     3.74    -8.499032     19.52688     36.86802         6     0.812     0.495  85.26   0
       240    619.0883     65.7980 300.3616866 +22.5896966     3047.506      69.1417      1.319     2.34    -8.319268     19.52688     425.9925        25     1.083     0.990 -80.31   0
       241    394.1190     64.9571 300.2919502 +22.5220553     676.6693     69.19463      1.310     2.30    -8.551404     19.52688     109.6991        13     1.125     0.653 -83.02   0
       242    660.2112     63.1498 300.3753502 +22.6012523     447.6841     69.24751      1.334     3.34    -8.229787     19.52688     53.62357         8     0.985     0.588  10.42   0
       243    676.3341     59.0779 300.3816919 +22.6049104     298.8049     69.30035      1.109     2.44    -8.184033     19.52688     52.65556         5     0.737     0.423  69.70   0
       244    142.7604     57.4685 300.2162386 +22.4445637     249.1202     69.17699      1.412     4.53     -8.17492     19.52688     39.41522         7     0.934     0.623 -73.71   0
       245    946.0334     56.6539 300.4665181 +22.6849628     339.5455     69.22988      1.191     2.66    -8.515086     19.52688     40.76217         7     0.716     0.658 -40.06   0
       246    663.4066     50.5343 300.3804372 +22.5985825     1328.296     69.21226      1.215     2.15    -8.153123     19.52688     187.0962        17     1.005     0.880  85.56   0
       247    678.2648     49.4119 300.3854284 +22.6027096     508.3634     69.15935      1.989     6.89    -8.121888     19.52688     40.18701        11     1.603     0.830  54.82   0
       248    749.7361     42.2162 300.4100238 +22.6220433      761.703     69.19463      1.257     2.27    -8.100114     19.52688     115.1402        11     0.914     0.684  38.33   0
       249    687.8517     35.3189 300.3929849 +22.6015288     446.0177     69.22988      1.298     2.31    -8.032784     19.52688     57.52253         7     0.767     0.607  25.93   0
       250    493.3000     34.5800 300.3326588 +22.5430433     486.2664     69.12405      1.293     2.49    -8.511428     19.52688     74.40141         7     0.810     0.576  74.38   0
       251    397.2210     32.9142 300.3033076 +22.5137782     387.1068      69.1417      1.163     2.65    -8.496331     19.52688     61.51216         9     0.886     0.670 -72.73   0
       252    168.6068     22.9823 300.2354537 +22.4424085     1685.201     69.17699      1.293     2.45     -7.68062     19.52688      249.828        18     1.078     0.851  79.47   0
       253    736.5079     23.0416 300.4121218 +22.6125687     233.0236     69.21226      1.249     3.89    -7.931458     19.52688     36.64472         5     0.742     0.631  -8.05   0
       254    284.6401     15.3191 300.2740040 +22.4749862     555.5369     69.17699      1.383     2.80    -7.549129     19.52688     66.72044        11     0.881     0.810  74.80   0
       255    729.7883     15.1343 300.4125930 +22.6082829     430.1413     69.17699      1.228     2.22    -7.866321     19.52688      65.0123         7     0.689     0.645  69.47   0
       256    177.9390   1018.7347 299.9147747 +22.7308660     950.1304     69.24751     14.884    15.28     20.31918     19.52688     45.99802        18     4.525     1.434  -4.29  27
       257    164.3567   1017.2913 299.9110250 +22.7263723     1132.191     69.21226      5.252     9.05     19.62648     19.52688     48.88115        14     3.637     0.629 -56.10  27
