#   1 NUMBER                 Running object number                                     
#   2 X_IMAGE                Object position along x                                    [pixel]
#   3 Y_IMAGE                Object position along y                                    [pixel]
#   4 ALPHA_J2000            Right ascension of barycenter (J2000)                      [deg]
#   5 DELTA_J2000            Declination of barycenter (J2000)                          [deg]
#   6 FLUX_APER              Flux vector within fixed circular aperture(s)              [count]
#   7 FLUXERR_APER           RMS error vector for aperture flux(es)                     [count]
#   8 FLUX_RADIUS            Fraction-of-light radii                                    [pixel]
#   9 FWHM_IMAGE             FWHM assuming a gaussian core                              [pixel]
#  10 BACKGROUND             Background at centroid position                            [count]
#  11 THRESHOLD              Detection threshold above background                       [count]
#  12 FLUX_MAX               Peak flux above background                                 [count]
#  13 ISOAREA_IMAGE          Isophotal area above Analysis threshold                    [pixel**2]
#  14 A_IMAGE                Profile RMS along major axis                               [pixel]
#  15 B_IMAGE                Profile RMS along minor axis                               [pixel]
#  16 THETA_IMAGE            Position angle (CCW/x)                                     [deg]
#  17 FLAGS                  Extraction flags                                          
         1    485.5487      9.6360 300.3325831 +22.5432151     587.0933     69.30289      1.190     2.75    -8.269512     19.54747     75.07096        10     1.030     0.584  87.85   0
         2    680.1733     10.0446 300.3930404 +22.6016259     469.5412     69.30289      1.657     2.17    -8.793983     19.54747     58.62048         7     0.673     0.667 -41.58   0
         3     58.6991      9.3874 300.1999578 +22.4152164       190.61     69.19695      1.051     2.74    -8.752619     19.54747     44.97858         5     0.733     0.431 -22.44   0
         4    389.1894      7.6810 300.3032376 +22.5137839     184.1169     69.24994      1.080     2.62    -8.003609     19.54747     52.27068         6     0.726     0.586  79.74   0
         5    771.7468      6.2577 300.4227942 +22.6279569     218.6668     69.33817      1.235     4.30    -8.708584     19.54747     26.09772         5     0.854     0.617 -45.96   0
         6    189.3762    995.2676 299.9202763 +22.7371767     1010.661     69.26759      5.317     8.26      22.0442     19.54747     42.48378         9     2.323     0.821 -55.70   3
         7     74.2636   1007.5390 299.8805230 +22.7061112     3143.501     69.32053     20.613   100.15     18.87234     19.54747     133.1385      1861    22.357    12.447  63.75  27
         8     73.3034    952.2274 299.8982291 +22.6899789     2804.115     69.21461     25.784    65.32     1.852998     19.54747     62.58377       825    13.622     8.691  23.03  19
         9    163.9607    985.9919 299.9153992 +22.7268850     1275.377     69.30289     10.124    11.13     20.48559     19.54747     41.35329        21     2.723     1.268  68.28   3
        10    916.2037    964.1800 300.1565994 +22.9464146     308.3448     69.24994      1.183     3.42    -13.33384     19.54747     40.95948         6     0.741     0.576  51.73   0
        11    153.4567    962.4315 299.9198049 +22.7169797     713.2959     69.30289      4.892     6.80     10.92898     19.54747     32.05181         9     1.558     0.831 -80.56   0
        12     67.1208    935.1960 299.9018520 +22.6832427     2615.226     69.19695     27.870    67.91    -3.934363     19.54747     59.54429       712    18.038     7.093 -88.82  27
        13    134.1793    950.4172 299.9177266 +22.7077471     1063.898     69.26759      6.308    11.40     6.021352     19.54747     36.84459        23     2.413     1.501  47.59   2
        14    723.4260    980.9362 300.0910776 +22.8933936     395.9518     69.26759      1.422     3.03    -13.25883     19.54747     48.95464         7     0.826     0.590  59.67   0
        15    163.5372    993.7093 299.9127554 +22.7289688      1527.62     69.37343      6.514    10.64     23.76051     19.54747      39.5804        25     2.794     1.130 -12.92   3
        16    124.1388    951.5668 299.9142334 +22.7050605     660.2486     69.30289      4.818     4.17      6.83929     19.54747     26.32189         5     1.206     0.412  14.08   0
        17    641.6084    947.4784 300.0764912 +22.8592468     3405.779     69.24994      1.229     2.24     -12.9304     19.54747     472.3666        22     0.991     0.946  46.63   0
        18    160.9303    990.0394 299.9131402 +22.7271343     1242.616     69.24994      6.810     6.86     22.38011     19.54747     43.59829        19     1.466     1.324  32.28   3
        19    169.7989    995.0143 299.9142760 +22.7312236     719.2703     69.14391      4.199     4.91     23.65972     19.54747       30.198         5     0.885     0.772 -85.76   1
        20    157.5214    972.1199 299.9179142 +22.7209764     1042.085     69.40867      3.852     6.71     15.01867     19.54747     41.93932        12     1.809     0.699 -88.16   2
        21    190.5252    979.5936 299.9257356 +22.7330310     2239.243     69.21461      9.985    18.23     15.68024     19.54747      53.1948        98     3.582     2.581  19.21   3
        22    160.7404    972.4949 299.9187922 +22.7220508     710.8696      69.3558      3.759     5.14     15.01867     19.54747     29.02542         6     1.494     0.499 -53.28   3
        23    232.3505    941.8574 299.9510158 +22.7347795     239.2045     69.33817      1.313     4.53    -4.167547     19.54747     36.22897         7     1.035     0.564 -19.59   0
        24    219.3012    994.0258 299.9299795 +22.7458092     752.9132     69.23228      2.249     2.77     19.07677     19.54747     63.51674         8     0.903     0.608 -50.37   2
        25    550.3687    938.3604 300.0510579 +22.8292512     827.1707     69.30289      1.165     2.38    -12.96143     19.54747     121.5503        14     0.959     0.797  62.15   0
        26    193.4654    999.7890 299.9200751 +22.7397004      841.336     69.23228      5.124     5.03     23.77005     19.54747     33.20499         5     1.160     0.616  29.64   1
        27     88.1556    930.1337 299.9100323 +22.6881112     1214.618     69.26759     13.737    14.24    -3.091587     19.54747     44.77822        21     4.103     1.376  84.36   3
        28    443.9375    934.7421 300.0191198 +22.7962683     606.6986     69.33817      1.328     2.34    -12.97049     19.54747     98.97169         9     0.832     0.740 -55.84   0
        29    374.6382    932.8763 299.9981732 +22.7749296     3278.326     69.26759      1.276     2.16    -12.77174     19.54747     496.5836        25     1.043     0.975  80.10   0
        30    536.8408    985.2309 300.0315907 +22.8386312     1096.581     69.30289      1.186     2.28    -13.35886     19.54747     174.3992        14     0.936     0.776  34.45   0
        31    200.5554    987.4752 299.9262867 +22.7383019     1204.633     69.26759      8.409     9.33      17.7099     19.54747     63.01199        25     2.134     1.224  -9.81   3
        32    209.4188    978.2196 299.9320538 +22.7383121     2678.452     69.28524     13.581    29.51     13.28353     19.54747     63.00114       226     5.335     4.679 -75.73   3
        33    920.9102    911.4069 300.1752446 +22.9326800     1131.868     69.19695      1.232     2.27    -12.89517     19.54747     153.8545        14     0.916     0.815  32.47   0
        34    570.5782    909.1528 300.0668538 +22.8269397      172.102     69.30289      0.973     3.39    -12.64712     19.54747     31.04504         5     0.746     0.446 -69.17   0
        35    709.5270    899.6926 300.1131935 +22.8659168     278.5347     69.40867      1.244     3.42    -12.55337     19.54747     45.37474         5     0.773     0.437 -67.80   0
        36    228.5278    968.0696 299.9412961 +22.7411429      3977.35      69.3558      8.869    32.98     6.447415     19.54747     103.1445       409     8.641     4.308  56.30   2
        37    744.2227    894.5793 300.1256640 +22.8748579     442.5485     69.28524      1.155     3.10    -12.50899     19.54747     71.28563        12     1.012     0.792 -81.09   0
        38    766.7586    888.2505 300.1347436 +22.8798020      5646.54     69.28524      1.195     1.93     -12.4724     19.54747     958.5289        32     1.081     0.961  80.00   0
        39    957.8680    888.0367 300.1943723 +22.9370538     195.5211     69.26759      1.077     4.14    -12.65076     19.54747     45.76198         7     0.926     0.528 -38.97   0
        40    812.1064    887.9030 300.1489848 +22.8933040     240.7133     69.46149      1.124     3.07    -12.51227     19.54747     42.85494         5     0.636     0.580   8.84   0
        41    623.3295    980.5010 300.0600507 +22.8632327     4235.579     69.40867      1.216     2.13    -12.97062     19.54747     561.1312        29     1.061     1.026 -60.17   3
        42    775.2916    870.1827 300.1432815 +22.8771768     622.4999     69.21461      1.070     2.90    -12.32485     19.54747     129.6604        10     1.001     0.598  22.46   0
        43    627.8240    867.3903 300.0982642 +22.8321377     260.2903     69.28524      1.159     3.82    -12.23798     19.54747      37.5787         6     0.749     0.640  80.82   0
        44    813.2792    864.0327 300.1571180 +22.8868054     329.8606     69.26759      1.164     3.29    -12.28988     19.54747      58.5473         8     0.941     0.664 -45.57   0
        45    861.8479    854.8633 300.1752366 +22.8987393     240.3496     69.30289      1.087     1.85    -12.25541     19.54747     55.97227         6     0.715     0.508  49.35   0
        46    713.2608    853.8846 300.1292629 +22.8538938     388.1629     69.39105      1.111     2.49    -12.20919     19.54747     71.32475         7     0.815     0.538  44.05   0
        47    425.8571    850.5081 300.0409067 +22.7666887     2111.587     69.33817      1.180     2.03    -12.21812     19.54747      310.289        19     0.929     0.882  72.64   0
        48     67.9379    838.7855 299.9334759 +22.6558659     166.4042     69.24994      1.147     3.77    -11.07855     19.54747     30.58534         5     0.833     0.489  55.27   0
        49    151.2075    836.6216 299.9600451 +22.6802532     360.2407     69.26759      1.088     2.56    -10.47481     19.54747     50.63693         5     0.690     0.474 -11.58   0
        50    628.9150    978.1396 300.0625583 +22.8642317     4548.009     69.39105      1.298     2.02    -13.01449     19.54747     739.4922        30     1.100     1.045 -60.61   3
        51    128.1704    833.6606 299.9538516 +22.6724866     709.8245     69.32053      1.224     2.54     -10.5741     19.54747     101.0737        11     0.867     0.783 -48.16   0
        52    999.8683    822.1146 300.2289195 +22.9307196     1044.943     69.37343      1.230     2.07    -12.35774     19.54747     170.4431        12     0.858     0.742 -59.26   0
        53    954.1635    820.7308 300.2151184 +22.9166207     1043.888     69.26759      1.287     2.36    -12.31203     19.54747     168.9619        13     1.017     0.789  34.88   0
        54    737.3073    814.6555 300.1495159 +22.8498496     281.4187     69.33817      1.097     2.92    -12.21924     19.54747     55.86467         5     0.778     0.466 -45.96   0
        55    605.7108    808.6022 300.1105069 +22.8086381     2429.182     69.19695      1.107     1.91    -11.73644     19.54747     416.8355        20     0.928     0.865  61.90   0
        56    716.3647    805.8569 300.1458553 +22.8410433     1460.262     69.30289      0.663     1.04    -12.06843     19.54747     789.4074         5     0.532     0.375 -37.01   0
        57    407.8696    805.8129 300.0498524 +22.7484731     304.4133     69.30289      1.042     2.21    -11.73568     19.54747     63.31586         6     0.825     0.437 -33.38   0
        58    156.0929    802.4889 299.9726662 +22.6719377     589.9163     69.44389      1.174     2.44    -11.63316     19.54747     86.95178        11     0.917     0.686  73.23   0
        59    626.1928    801.0534 300.1193390 +22.8126169     404.4658     69.28524      1.219     2.54    -11.68815     19.54747     55.52675         8     0.814     0.623 -46.82   0
        60    998.7870    788.5202 300.2395116 +22.9207491      571.167     69.26759      1.244     2.80    -12.18455     19.54747     71.28927         9     0.916     0.621  48.65   0
        61    781.8203    788.2799 300.1719626 +22.8556296     2125.883     69.28524      1.149     1.92    -12.13368     19.54747     360.1246        19     0.914     0.864 -11.09   0
        62    498.7125    780.7361 300.0862702 +22.7685416     396.3097     69.39105      1.289     2.52    -11.57168     19.54747     57.90279         8     0.872     0.611  78.16   0
        63    145.3598    779.0637 299.9769508 +22.6620007     453.8244     69.24994      1.331     3.33    -11.66626     19.54747     76.06334        11     1.041     0.722   8.52   0
        64    294.9118    771.0819 300.0260243 +22.7046102     26194.51     69.39104      1.237     1.97    -11.51561     19.54747     4691.886        60     1.120     1.078  54.79   0
        65    552.7751    770.0189 300.1065802 +22.7816877     774.2524     69.30289      1.128     1.89    -11.52329     19.54747     141.6994        10     0.787     0.689   6.70   0
        66    965.5465    768.9785 300.2355033 +22.9051737     445.3992     69.28524      0.987     2.27    -11.98847     19.54747     81.58968         7     0.751     0.599 -74.47   0
        67    581.5117    765.9387 300.1168517 +22.7891382     458.5583      69.3558      1.103     1.96    -11.53013     19.54747     84.78727         8     0.726     0.655  -0.32   0
        68    698.0573    760.7277 300.1548334 +22.8226014     281.5239     69.32053      1.033     2.76    -11.69314     19.54747      44.8714         5     0.693     0.661  49.67   0
        69    344.5965    748.2524 300.0488968 +22.7129765     15470.06     69.28524      1.144     1.90    -11.36433     19.54747     2518.069        51     1.119     1.048  56.84   0
        70    358.9624    748.7573 300.0531998 +22.7174328     1072.237     69.37343      1.218     2.26    -11.37284     19.54747     164.6847        11     0.833     0.780   5.83   0
        71    867.5497    743.9119 300.2131078 +22.8685988     1377.654     69.30289      1.115     1.77      -11.914     19.54747     240.6003        13     0.824     0.758  14.90   0
        72    735.7303    750.6560 300.1698428 +22.8310092      389.017     69.30289      1.035     1.95    -11.72737     19.54747     68.28689         5     0.684     0.448  17.89   0
        73    227.1329    740.3947 300.0149362 +22.6754660     323.9088     69.26759      1.250     2.60     -11.3582     19.54747     72.93475         9     0.865     0.742  36.30   0
        74    625.5707    740.1605 300.1389514 +22.7949580     462.5016     69.28524      1.134     1.76     -11.4779     19.54747     77.95071         5     0.653     0.459 -66.61   0
        75    472.5081    734.5831 300.0931275 +22.7474399     527.5182     69.21461      1.158     3.57     -11.3912     19.54747     89.53725         9     1.074     0.624  69.82   0
        76     31.7100    735.6096 299.9557829 +22.6154197     276.5249     69.21461      1.122     3.35    -11.97284     19.54747      35.0215         5     0.748     0.435  21.18   0
        77    873.6299    731.3444 300.2190902 +22.8668134     243.2345     69.30289      1.264     2.97     -11.8022     19.54747     42.29165         5     0.723     0.457 -73.94   0
        78    418.5906    729.7489 300.0779264 +22.7298751     134.0763     69.28524      0.962     2.39     -11.2379     19.54747     37.64918         5     0.684     0.473  74.28   0
        79    225.1031    724.2581 300.0195528 +22.6702302     186.4277      69.3558      0.994     2.36    -11.31073     19.54747      46.9011         7     0.720     0.622 -13.22   0
        80    517.4222    712.8499 300.1141703 +22.7546801     278.8088     69.28524      0.962     2.49    -11.21305     19.54747     48.56234         5     0.697     0.477 -75.48   0
        81    539.5940    710.2021 300.1219312 +22.7605717     672.3987     69.10854      1.084     2.55    -11.18612     19.54747     121.1504        11     0.898     0.693  80.93   0
        82    933.9865    709.2224 300.2450986 +22.8785541     2146.329     69.26759      1.129     1.84    -11.55006     19.54747     428.7462        17     0.888     0.800  43.42   0
        83    922.5297    700.5793 300.2443376 +22.8726381     970.7211     69.28524      1.115     2.05    -11.46983     19.54747     143.0015        13     0.862     0.763  24.52   0
        84    285.5433    694.8314 300.0479076 +22.6799336     333.1676     69.30289      1.012     2.34    -11.10255     19.54747     82.16219         6     0.712     0.608  65.31   0
        85    748.7076    692.0603 300.1929406 +22.8180813     1193.061      69.3558      1.128     1.84    -11.24945     19.54747     227.8904        11     0.804     0.678 -58.29   0
        86    953.5659    690.9808 300.2571348 +22.8791841     679.9878     69.30289      1.054     2.19    -11.36439     19.54747     148.5646        13     0.939     0.781 -68.34   0
        87    134.0209    678.7025 300.0060628 +22.6298272     363.3925     69.21461      1.217     2.49     -11.2517     19.54747     43.35925         7     0.698     0.667 -10.89   0
        88    831.2305    677.6574 300.2233348 +22.8386879     312.3677     69.30289      1.205     2.78    -11.14315     19.54747     59.54036         6     0.797     0.688 -14.62   0
        89    867.2165    668.8936 300.2373991 +22.8469591     72124.35     69.21461      1.147     1.74    -11.05756     19.54747     15045.87       105     1.159     1.127  73.22   0
        90    629.4794    672.7806 300.1620786 +22.7767939     129.6721     69.28524      0.940     2.01    -10.92152     19.54747     47.84949         5     0.669     0.474 -70.41   0
        91   1014.0419    670.4045 300.2826834 +22.8913984     626.2525     69.30289      1.101     2.06    -11.31632     19.54747     106.8973         9     0.799     0.642  64.96   0
        92    900.3376    661.3192 300.2501854 +22.8547119     213.4758     69.39105      1.136     2.26    -11.04451     19.54747     45.19263         5     0.707     0.441  72.01   0
        93    553.5164    657.8099 300.1432991 +22.7497144     837.9279     69.23228      1.178     2.35    -10.73437     19.54747     131.1083        11     0.838     0.745 -51.60   0
        94    734.7117    655.1222 300.2005908 +22.8032810     4674.521     69.42628      1.131     1.83    -11.03019     19.54747     885.0668        27     0.979     0.912  52.91   0
        95    236.3506    650.3829 300.0470669 +22.6524231      2472.44     69.32053      1.131     1.95    -11.10143     19.54747     372.0606        20     0.958     0.868 -48.83   0
        96    318.2749    648.3806 300.0731852 +22.6764345      623.413     69.28524      1.233     2.14    -11.00041     19.54747     81.03214         9     0.797     0.635 -77.95   0
        97    526.7780    643.9417 300.1394859 +22.7377147        322.3     69.28524      1.130     2.17    -10.60909     19.54747     60.45187         7     0.699     0.647  80.81   0
        98    518.2427    635.9472 300.1394286 +22.7328606     1559.242     69.28524      1.121     1.85     -10.5421     19.54747     317.2702        15     0.837     0.823  51.05   0
        99    508.4022    629.6908 300.1384001 +22.7281136     653.4623     69.21461      1.133     2.06    -10.49229     19.54747     126.7069        12     0.963     0.712  26.66   0
       100    171.5861    625.7053 300.0349620 +22.6259083     299.6151     69.21461      1.115     2.47    -10.87738     19.54747     78.58951         6     0.887     0.402  68.93   0
       101    186.0141    624.5652 300.0398158 +22.6299119     351.7747     69.28524      1.223     2.96    -10.91822     19.54747     51.44128         5     0.764     0.565 -88.28   0
       102    955.3499    620.6978 300.2805417 +22.8595323     255.5104      69.3558      1.086     2.64     -10.9365     19.54747     46.36284         6     0.802     0.534  45.08   0
       103    211.7733    621.3346 300.0488707 +22.6367166     295.4144     69.26759      1.357     2.66    -10.99186     19.54747     45.42079         5     0.741     0.432 -18.48   0
       104    532.0156    619.7121 300.1489922 +22.7323327     400.3681     69.23228      1.764     4.07    -10.40587     19.54747     42.43391         5     0.928     0.713  61.27   0
       105    433.2349    619.4786 300.1183327 +22.7026353      781.412     69.23228      1.012     1.78    -10.73077     19.54747     164.6339        11     0.829     0.653 -48.46   0
       106     87.2510    614.5729 300.0123803 +22.5974015      9810.36     69.30289      1.222     2.12    -11.17537     19.54747     1298.092        40     1.124     1.041  46.99   0
       107   1008.8189    616.4344 300.2986007 +22.8743299     320.1016     69.28524      1.199     1.93    -11.30311     19.54747     73.06074         6     0.660     0.587  72.83   0
       108      8.0782    615.6166 299.9874538 +22.5739318     316.5452     69.28524      1.345     4.47    -11.46519     19.54747     42.26266         7     0.884     0.641 -74.27   0
       109    518.0590    614.9032 300.1462119 +22.7267666       605.04      69.3558      1.309     2.38    -10.36504     19.54747     85.02376         9     0.808     0.691  12.68   0
       110    936.1322    600.7396 300.2810377 +22.8480405     417.1804     69.32053      1.064     1.78    -10.70131     19.54747     104.3078         7     0.776     0.546 -74.36   0
       111     33.2524    598.7155 300.0007636 +22.5766449     780.0903     69.32053      1.697     5.27    -11.38906     19.54747     66.18065        13     1.341     0.790 -73.93   0
       112    481.2458    595.3159 300.1411232 +22.7101039     229.1215     69.26759      1.074     2.08    -10.30914     19.54747     45.87022         5     0.684     0.453  11.72   0
       113    876.3038    593.8218 300.2646362 +22.8281237     356.1476     69.19695      1.060     2.38    -10.62606     19.54747      69.5771         7     0.802     0.559  50.84   0
       114    871.6102    593.0812 300.2634140 +22.8265043     110.8683     69.24994      0.839     2.60    -10.62353     19.54747     38.12466         5     0.725     0.440 -68.62   0
       115    620.6061    591.9452 300.1855935 +22.7509311     111.8975     69.28524      0.996     3.88    -10.32203     19.54747     25.40002         5     0.884     0.487  87.39   0
       116    438.2323    587.4185 300.1303076 +22.6949356     408.6567     69.26759      1.374     2.88    -10.52342     19.54747     45.10083         6     0.701     0.633 -50.88   0
       117    603.8403    584.5464 300.1827786 +22.7437799     299.6195     69.24994      0.992     2.24    -10.23367     19.54747     53.63947         5     0.696     0.460  21.40   0
       118    482.6508    583.5433 300.1453865 +22.7071470     425.6941     69.33817      1.122     2.30     -10.2948     19.54747     68.66344         7     0.759     0.609 -74.43   0
       119    916.2020    578.9312 300.2819128 +22.8358038     1570.685     69.24994      1.102     1.66    -10.58809     19.54747     356.8018        15     0.859     0.785  64.34   0
       120    448.0742    579.0454 300.1360906 +22.6954852     751.7426     69.26759      1.162     2.05    -10.43518     19.54747     148.7388        10     0.814     0.698  87.54   0
       121   1014.2272    576.7177 300.3131972 +22.8645401     448.4025     69.28524      1.461     2.30    -11.34145     19.54747     70.91047         7     0.821     0.560 -74.22   0
       122      9.9609    572.7864 300.0019574 +22.5622192     2318.831     69.30289      1.248     2.09    -11.55015     19.54747      358.842        22     0.996     0.947   8.57   0
       123    311.4766    565.8294 300.0979023 +22.6507151     4465.757     69.26759      1.121     1.98    -10.59741     19.54747     695.1743        22     0.934     0.869  49.58   0
       124    433.9225    562.8195 300.1369612 +22.6865843     4422.632     69.28524      1.197     1.83    -10.39214     19.54747      843.091        31     1.038     0.994 -43.51   0
       125    845.4509    556.7990 300.2670532 +22.8082437     957.1555     69.24994      1.225     1.97    -10.54503     19.54747     148.1198        12     0.867     0.750  56.23   0
       126    930.0905    553.9653 300.2943565 +22.8327940     6000.437     69.24994      1.155     1.80    -10.53439     19.54747     1253.647        30     0.971     0.942  56.37   0
       127    494.4409    552.3937 300.1591780 +22.7017438     5745.937     69.32053      1.102     1.96    -10.18038     19.54747     836.7603        31     1.040     0.928  86.24   0
       128    221.8727    548.0530 300.0758248 +22.6187302     660.1672     69.28524      1.226     1.94    -10.42361     19.54747     125.5734        10     0.822     0.665  79.93   0
       129    768.9608    540.6418 300.2484700 +22.7806779     309.0798     69.37343      0.972     1.94      -10.439     19.54747     67.13375         7     0.680     0.617  50.94   0
       130    426.1676    540.5425 300.1417877 +22.6778657     2119.707     69.30289      1.100     1.86    -10.26552     19.54747     373.2054        17     0.895     0.818  87.05   0
       131    404.1914    538.8141 300.1355134 +22.6707779     639.3015     69.19695      1.207     2.48    -10.27849     19.54747     97.45094         9     0.783     0.750 -37.69   0
       132    158.8063    538.4460 300.0593482 +22.5970495     361.2264     69.30289      1.241     2.96    -10.46588     19.54747     59.03326         7     0.930     0.598  47.89   0
       133    845.8844    535.9039 300.2739785 +22.8023721      766.494     69.46149      1.231     3.02    -10.49205     19.54747     140.6313        13     1.061     0.762 -24.02   0
       134    726.4152    533.0922 300.2376697 +22.7657569     325.6025     69.21461      1.013     2.45    -10.35419     19.54747     80.84476         7     0.855     0.493  89.90   0
       135    542.7515    528.0924 300.1821088 +22.7092567     99711.78     69.32053      1.185     1.89    -9.734708     19.54747     18463.46       124     1.221     1.207 -40.50   0
       136    228.7596    528.2733 300.0843921 +22.6151233     1780.169     69.26759      1.237     2.21    -10.38262     19.54747     271.5547        21     1.073     0.932 -58.90   0
       137    794.7551    524.2651 300.2618280 +22.7837059     225.3285     69.28524      1.155     2.55    -10.43495     19.54747     60.18947         5     0.977     0.479  57.29   0
       138    433.3223    508.4002 300.1544569 +22.6707876     1323.993      69.1616      1.100     2.03    -10.12465     19.54747     191.6616        14     0.815     0.797  73.77   0
       139    830.1189    494.5493 300.2825026 +22.7857690     697.7579     69.30289      1.022     1.89    -10.42353     19.54747     163.9804        10     0.902     0.600  64.63   0
       140    701.4672    492.2118 300.2431818 +22.7465395     1257.213     69.28524      1.078     1.83    -10.21466     19.54747     220.1528        14     0.822     0.796  32.59   0
       141    945.7794    489.3345 300.3202490 +22.8189267     166.2897     69.26759      1.162     2.07    -10.56251     19.54747     43.04424         5     0.705     0.438 -18.46   0
       142    606.1503    488.8699 300.2145870 +22.7170062     291.2255     69.28524      1.246     3.90    -9.773204     19.54747      28.9727         6     0.768     0.567 -38.34   0
       143    488.7370    488.3753 300.1782036 +22.6816590     285.0411     69.26759      1.067     2.93    -9.720938     19.54747     61.98526         7     0.906     0.528  27.58   0
       144    958.6806    485.9577 300.3253686 +22.8218215     527.2217     69.26759      1.055     2.03    -10.60242     19.54747     137.5995         9     0.777     0.677 -13.07   0
       145    944.6876    485.2863 300.3212238 +22.8174365     368.3834     69.40867      0.977     2.26    -10.55145     19.54747     56.16671         5     0.718     0.431 -13.88   0
       146    830.6251    484.4396 300.2859449 +22.7830167     1103.339     69.32053      1.369     4.35    -10.40921     19.54747     186.6541        14     1.424     0.627  74.28   0
       147    583.8878    482.9506 300.2095795 +22.7086322     325.8394     69.28524      1.316     3.38    -9.728542     19.54747     41.69712         5     0.795     0.508 -37.48   0
       148    868.6946    479.5718 300.2993909 +22.7930259     2044.458     69.19695      1.063     1.93    -10.48734     19.54747     339.9966        17     0.912     0.792  47.15   0
       149    100.8369    470.3988 300.0634451 +22.5601372     517.3124     69.28524      1.162     2.36    -10.60672     19.54747     77.62793        10     0.861     0.711  73.03   0
       150    960.5016    469.9708 300.3311302 +22.8177734     386.2674     69.21461      1.156     2.58    -10.59275     19.54747     67.01908         9     0.853     0.667  15.42   0
       151     92.9068    460.5222 300.0641899 +22.5549248     206.2363     69.42628      1.183     4.04    -10.61085     19.54747     38.12154         5     0.866     0.549 -44.53   0
       152    701.2921    453.8700 300.2555831 +22.7354761     167.4918     69.40867      0.989     1.76    -10.01882     19.54747     56.22263         5     0.694     0.419 -71.49   0
       153    642.1012    450.0681 300.2383851 +22.7166423     418.3108     69.37343      1.180     2.21    -9.846325     19.54747     75.71332         7     0.810     0.514  53.70   0
       154    956.9050    442.0747 300.3390709 +22.8086801     313.1248     69.42628      1.233     3.19    -10.58543     19.54747     58.94974         8     0.867     0.628 -58.73   0
       155    702.8950    442.2984 300.2598411 +22.7326332     419.8795     69.46149      1.029     1.92     -9.94429     19.54747     80.11587         7     0.750     0.560  32.94   0
       156    860.1948    438.4346 300.3101051 +22.7786609      452.636     69.26759      1.093     2.09    -10.47464     19.54747     88.90324         9     0.791     0.676  81.64   0
       157    824.9623    434.9365 300.3002613 +22.7670993     173.8566     69.26759      1.182     3.70    -10.39034     19.54747     28.36994         5     0.644     0.612 -86.59   0
       158    844.6649    434.3509 300.3065915 +22.7728346     257.5273     69.30289      0.993     2.95    -10.43851     19.54747     53.53315         6     0.745     0.552 -39.81   0
       159    588.7536    432.8860 300.2273569 +22.6957167     1604.119     69.26759      1.166     1.85    -9.725307     19.54747     317.8456        15     0.930     0.748  76.79   0
       160    949.1077    431.3355 300.3401280 +22.8032583      315.729     69.39105      0.980     1.77    -10.56868     19.54747     67.06455         6     0.680     0.518  67.39   0
       161    999.9353    411.9345 300.3622790 +22.8129075      569.995     69.33817      1.159     1.93     -10.6791     19.54747     115.0329         9     0.733     0.684 -58.75   0
       162    871.8181    411.4405 300.3224956 +22.7743875      281.977     69.30289      1.392     2.89    -10.47858     19.54747     51.43987         6     0.917     0.558  65.78   0
       163    958.3743    410.7083 300.3497171 +22.8001065     429.3875     69.23228      1.089     2.07    -10.59106     19.54747     86.63576         5     0.674     0.462 -72.97   0
       164    699.2755    406.9191 300.2702047 +22.7213872     475.4616     69.39105      1.073     1.89     -9.78278     19.54747     102.6636         7     0.679     0.618 -57.72   0
       165    265.6183    400.9901 300.1371936 +22.5896637     1868.983     69.24994      1.238     2.03    -10.09666     19.54747     293.3853        19     0.949     0.886 -55.45   0
       166    998.6459    399.2191 300.3660066 +22.8088668     2231.229     69.32053      1.113     1.90      -10.677     19.54747     364.5119        18     0.929     0.821  69.14   0
       167    212.9583    395.8186 300.1225046 +22.5723836     3709.089     69.30289      1.230     2.14    -10.19833     19.54747     594.7642        26     1.020     0.922  73.43   0
       168    978.6477    390.3454 300.3626521 +22.8003268     977.3698     69.32053      1.079     2.01    -10.63508     19.54747     167.4058        13     0.844     0.803  39.16   0
       169    353.6781    389.9615 300.1681549 +22.6129099     2314.987     69.26759      1.167     2.13     -9.76517     19.54747     362.6674        20     0.959     0.876  63.80   0
       170    597.8476    386.5339 300.2452417 +22.6851326     9004.065     69.30289      1.161     1.90    -9.770844     19.54747      1537.17        34     1.040     0.970  56.94   0
       171    615.0999    386.7585 300.2505399 +22.6903683     522.4765     69.26759      2.086     5.39    -9.769698     19.54747      46.4477         8     1.538     0.533 -28.83   0
       172    931.3729    369.0267 300.3548348 +22.7800400     431.5775     69.24994      1.374     1.91    -10.53447     19.54747     80.89678         6     0.724     0.482 -86.14   0
       173    152.4948    366.7578 300.1131516 +22.5459073     979.2447     69.30289      1.221     2.29    -10.18567     19.54747     164.9761        16     0.996     0.861  70.23   0
       174    538.5015    356.0060 300.2366814 +22.6585770     3321.602     69.17928      1.171     1.97    -9.841426     19.54747     518.1532        24     1.005     0.903  80.91   0
       175    951.9805    356.2980 300.3653933 +22.7825541     488.2215     69.21461      1.104     2.04    -10.57848     19.54747     106.6133         9     0.809     0.640  74.20   0
       176    253.3698    355.3164 300.1482165 +22.5728833     436.5002     69.30289      1.750     3.47    -9.996298     19.54747     44.41425         5     0.780     0.446  73.30   0
       177    110.8606    348.6998 300.1060793 +22.5282362      321.278     69.37343      1.271     4.13    -10.16421     19.54747     40.36055         6     0.763     0.638 -55.16   0
       178    798.3349    347.4595 300.3203725 +22.7339891     281.9774     69.32053      1.292     4.04    -9.928976     19.54747     34.61676         6     1.082     0.430  53.11   0
       179    652.0680    345.9685 300.2752955 +22.6897330     214.8653     69.26759      1.220     2.22    -9.795072     19.54747     46.20828         5     0.604     0.579  85.79   0
       180    742.6563    344.8462 300.3038741 +22.7165562     535.9492     69.32053      1.164     2.10    -9.791281     19.54747     98.23191         8     0.810     0.588 -81.63   0
       181    445.1670    342.3955 300.2120570 +22.6266888     3134.079     69.26759      1.159     1.97    -9.696328     19.54747     515.9133        22     0.987     0.835  81.83   0
       182    934.6205    336.6391 300.3663639 +22.7717045     400.3703     69.32053      1.159     3.65     -10.4263     19.54747     49.26848         6     0.870     0.484  87.08   0
       183    836.9915    336.6241 300.3359367 +22.7424566     666.2983     69.28524      1.033     1.78    -10.12572     19.54747     115.5682         9     0.724     0.658 -65.92   0
       184    512.4054    329.2865 300.2372348 +22.6430819       258.83     69.21461      1.620     4.09     -9.84166     19.54747     27.20074         6     0.898     0.532 -46.50   0
       185    809.5099    324.1714 300.3314158 +22.7306456     263.7062     69.26759      0.982     2.43    -9.976992     19.54747      65.7893         7     0.891     0.477 -78.60   0
       186    332.8477    321.6163 300.1838675 +22.5870463     1196.228     69.32053      1.160     2.07    -9.521311     19.54747     203.5798        15     0.956     0.769  84.95   0
       187     51.0951    319.2895 300.0970627 +22.5018683     528.7627     69.46149      1.248     2.64     -10.0854     19.54747     80.48608        10     0.878     0.739 -62.53   0
       188    302.0699    311.0723 300.1777203 +22.5747904      14753.2      69.3558      1.254     2.02    -9.585266     19.54747     2507.074        42     1.102     1.020  67.85   0
       189    836.5778    308.2321 300.3450255 +22.7341739     723.9136     69.28524      1.333     2.63    -10.06492     19.54747     94.92484        13     0.911     0.857  69.26   0
       190    176.0028    297.5444 300.1429255 +22.5330995     233.6069     69.23228      1.311     3.33    -9.968344     19.54747     53.45994         6     1.087     0.450 -69.37   0
       191    752.1363    297.2009 300.3222956 +22.7057077     264.9286     69.28524      1.045     2.22    -9.818429     19.54747     49.47169         6     0.700     0.562  48.02   0
       192    712.4348    290.7124 300.3120347 +22.6919487      975.149     69.26759      1.212     2.15    -9.783137     19.54747     143.1402        13     0.883     0.763  69.82   0
       193    927.4262    283.2822 300.3814431 +22.7542135     167.8907     69.26759      1.037     2.19    -10.07674     19.54747       46.367         5     0.664     0.480  74.75   0
       194    374.3769    275.4670 300.2117629 +22.5862500     972.1088     69.26759      1.255     2.19    -9.223549     19.54747     137.3296        13     0.919     0.785  86.72   0
       195    813.4991    267.9829 300.3508990 +22.7156942     263.1093     69.19695      1.075     3.36    -9.894033     19.54747     39.39713         6     0.782     0.495  83.34   0
       196    450.1394    254.7899 300.2420416 +22.6030250     505.5162     69.24994      1.077     1.89    -9.380455     19.54747     111.2699         8     0.721     0.647  40.81   0
       197    694.8744    246.5221 300.3209085 +22.6739911     949.5319     69.39105      1.133     2.02    -9.579213     19.54747     191.5029        13     0.885     0.738  67.40   0
       198    956.1744    240.7942 300.4041975 +22.7506085     1537.289     69.26759      1.171     1.85    -9.740869     19.54747     297.7784        17     0.942     0.806  56.76   0
       199    403.1682    230.4460 300.2353295 +22.5819546     331.9211     69.32053      1.229     3.02    -9.210094     19.54747     47.51204         5     0.739     0.433  24.10   0
       200    109.0186    224.6718 300.1457632 +22.4920968     312.9213     69.30289      1.366     4.14    -9.828734     19.54747     38.50857         9     0.994     0.657 -53.63   0
       201     78.1785    224.8236 300.1361337 +22.4828901     702.5565     69.28524      1.582     3.40    -9.721842     19.54747     78.16896        13     1.145     0.736 -23.36   0
       202    971.9507    221.2206 300.4154693 +22.7497048     234.8408     69.28524      1.092     3.26    -9.471717     19.54747     46.62245         6     0.863     0.546  88.60   0
       203    766.4203    208.0072 300.3556946 +22.6843562     325.0677     69.24994      1.084     2.16    -9.638923     19.54747     56.02089         6     0.728     0.493  87.92   0
       204    857.1695    201.4314 300.3861074 +22.7096456      102.182     69.28524      1.121     3.60    -9.821302     19.54747     33.31172         5     1.019     0.367 -85.34   0
       205    864.6505    196.8957 300.3899109 +22.7105821     1073.837      69.3558      1.179     2.36    -9.823404     19.54747     164.8279        13     0.957     0.712  54.38   0
       206    283.2940    194.4296 300.2097376 +22.5356768     891.4843     69.21461      1.149     2.20    -8.967612     19.54747     152.8058        12     0.889     0.710  65.92   0
       207    361.1707    189.3065 300.2356159 +22.5575522     438.8182     69.21461      1.464     2.80    -9.194473     19.54747     69.90623         9     1.018     0.592 -28.38   0
       208    763.0963    188.4776 300.3609961 +22.6777479     278.0908     69.40867      0.941     1.94    -9.553091     19.54747     58.37901         5     0.682     0.448  25.39   0
       209    177.7741    181.9034 300.1810030 +22.5004419     341.8463     69.23228      1.244     3.48    -9.250702     19.54747     52.07113         9     0.988     0.641  62.71   0
       210    715.8129    178.3598 300.3495493 +22.6606772     889.5096     69.28524      1.149     2.18    -9.330688     19.54747     129.5824        11     0.859     0.693 -82.77   0
       211    780.6495    177.7405 300.3699489 +22.6799193     168.9085     69.33817      0.946     2.34    -9.594082     19.54747     46.56464         5     0.725     0.430  69.24   0
       212    987.1981    170.7542 300.4366001 +22.7397591       377.66     69.28524      1.009     1.74    -9.106646     19.54747     79.74754         6     0.660     0.537 -53.18   0
       213    720.0295    169.7063 300.3536704 +22.6594534     328.9786     69.21461      1.115     2.58    -9.297561     19.54747      78.2179         7     0.841     0.724 -23.73   0
       214    640.3099    169.0646 300.3290507 +22.6353883     473.1812     69.39105      1.060     2.08    -9.103559     19.54747     95.20554         7     0.675     0.646  33.16   0
       215    835.7390    160.6615 300.3926568 +22.6915083     635.6521     69.32053      1.093     2.38    -9.677996     19.54747     110.9477         9     0.813     0.701 -53.58   0
       216    566.5186    160.8870 300.3087298 +22.6109307     394.9938     69.40867      1.042     2.29    -8.958982     19.54747     84.01723         7     0.799     0.594 -13.07   0
       217    847.7741    159.7847 300.3966922 +22.6948602     414.7065     69.30289      1.181     2.56    -9.669162     19.54747     71.52781        10     0.869     0.720  69.56   0
       218   1008.4788    150.5245 300.4498004 +22.7403123     788.9747     69.39105      1.123     2.19    -8.918395     19.54747      113.712        13     0.854     0.792 -60.81   0
       219    964.4351    149.7078 300.4363301 +22.7268925     517.1414     69.23228      1.033     2.14    -9.075853     19.54747     89.07603         7     0.769     0.571  67.29   0
       220    198.3710    143.2138 300.1999552 +22.4955118     347.2971     69.30289      1.368     3.52    -9.143642     19.54747     60.58873         5     0.859     0.445  41.53   0
       221     60.5606    138.0077 300.1588269 +22.4526926     1061.023     69.30289      1.299     2.68    -8.950931     19.54747     126.1854        15     1.005     0.842  72.58   0
       222    883.7043    134.7485 300.4160136 +22.6984211     434.7903      69.3558      1.449     2.27    -9.353329     19.54747     57.42862         6     0.695     0.564  35.11   0
       223    217.8904    131.3434 300.2098724 +22.4979563     2812.734     69.33817      1.241     2.14    -9.142011     19.54747     404.7736        21     1.012     0.880  52.97   0
       224      2.0722    125.9276 300.1445808 +22.4316841     609.7321     57.88165      1.242     3.45    -8.725296     19.54747     78.83928        11     1.016     0.726  75.97  24
       225    201.4883    122.2068 300.2077381 +22.4904157     168.9026     69.19695      1.006     2.17    -9.148496     19.54747      52.6987         5     0.696     0.462 -68.47   0
       226   1016.6151    118.5510 300.4627106 +22.7335523     9078.002     69.32053      1.139     2.04    -8.702256     19.54747     1407.869        37     1.088     0.981  71.17  16
       227    861.8646    112.7489 300.4163426 +22.6855569     1735.857     69.32053      1.212     1.98    -9.280433     19.54747     313.8334        16     0.941     0.784  81.47   0
       228    965.5878    111.3006 300.4491490 +22.7161930     1392.643     69.19695      1.170     2.17    -8.796078     19.54747     200.0319        17     0.966     0.864  51.81   0
       229    411.4623    108.0275 300.2776258 +22.5492833     396.1952     69.28524      1.170     2.15    -8.891901     19.54747     59.71595         6     0.738     0.497 -85.40   0
       230    335.7430     99.8071 300.2567411 +22.5242291      472.184     69.26759      1.461     3.66    -9.226737     19.54747     37.17728         6     0.759     0.558  47.91   0
       231    101.7816     96.8457 300.1849819 +22.4532398      305.655     69.32053      1.174     3.12    -9.003798     19.54747      48.2925         8     0.888     0.626 -84.53   0
       232    462.8370     95.2962 300.2977385 +22.5610212     841.1177     69.28524      1.234     2.20    -8.769055     19.54747     128.4742        14     0.983     0.816  46.77   0
       233    236.8661     75.2546 300.2339619 +22.4875409     2870.766     69.33817      1.256     2.12    -9.206323     19.54747     427.0061        24     1.062     0.919  86.76   0
       234     88.0001     74.4215 300.1879728 +22.4426706     373.6967     69.21461      1.282     2.50    -8.897991     19.54747      51.0405         7     0.718     0.641   0.29   0
       235    482.9146     60.4613 300.3152832 +22.5570293     3210.135     69.39105      1.270     2.27    -8.554804     19.54747      432.761        24     1.027     0.965  72.16   0
       236    368.8835     60.4852 300.2798002 +22.5228675     324.6309     69.40867      1.260     4.00     -8.62892     19.54747     47.40729         6     0.947     0.499  -2.52   0
       237    735.4862     50.1209 300.3972746 +22.6297102     394.5859     69.42628      1.214     2.43    -8.851107     19.54747     60.12436         6     0.751     0.499 -86.87   0
       238    611.2289     40.4349 300.3617172 +22.5897130     2986.516     69.30289      1.202     2.18     -8.41124     19.54747     443.1234        24     1.032     0.925  73.78   0
       239    385.9991     39.5256 300.2919203 +22.5219759     655.1844     69.17928      1.198     2.19    -8.354982     19.54747     109.5254        11     0.870     0.698 -72.40   0
       240    652.3004     37.8020 300.3753598 +22.6012574     402.7349      69.1616      1.207     3.11     -8.66923     19.54747     64.54211         9     0.876     0.718  88.67   0
       241    668.5432     33.6525 300.3817636 +22.6049292      317.894     69.33817      0.981     2.67    -8.776302     19.54747     58.11759         6     0.853     0.444  71.94   0
       242    134.9261     31.8843 300.2163446 +22.4445287     312.8156     69.39105      1.215     4.03    -9.174495     19.54747     45.87316         8     0.951     0.666 -61.38   0
       243    655.4241     25.3040 300.3803851 +22.5986005       1355.9     69.17928      1.175     2.25    -8.687466     19.54747     184.8415        15     0.934     0.788  77.09   0
       244    670.5394     24.2201 300.3854438 +22.6028157     471.3893     69.23228      1.714     5.37    -8.788871     19.54747     47.32245        10     1.382     0.588  47.99   0
       245    741.8624     16.9458 300.4100183 +22.6220821     745.7774     69.33817      1.251     2.21    -8.751936     19.54747     119.4069         9     0.768     0.693  79.27   0
       246    957.7524   1018.6128 300.1518297 +22.9744968      227.777     69.30289      1.302     2.95    -14.25858     19.54747     32.00336         5     0.715     0.464  15.95   0
       247    285.6095   1006.1042 299.9466564 +22.7691851     408.8304     69.21461      1.191     2.58    -10.84482     19.54747     69.77051         9     0.863     0.658  21.95   0
       248    120.7437   1002.1351 299.8967186 +22.7185274     867.0057     69.33817      2.575     9.28     27.28774     19.54747     41.82416        17     2.239     1.073 -74.68   0
       249    184.9561    996.3568 299.9185484 +22.7361611     546.8533      69.3558      5.087     5.10     22.79644     19.54747     30.22195         5     1.105     0.667  17.89   3
