#   1 NUMBER                 Running object number                                     
#   2 X_IMAGE                Object position along x                                    [pixel]
#   3 Y_IMAGE                Object position along y                                    [pixel]
#   4 ALPHA_J2000            Right ascension of barycenter (J2000)                      [deg]
#   5 DELTA_J2000            Declination of barycenter (J2000)                          [deg]
#   6 FLUX_APER              Flux vector within fixed circular aperture(s)              [count]
#   7 FLUXERR_APER           RMS error vector for aperture flux(es)                     [count]
#   8 FLUX_RADIUS            Fraction-of-light radii                                    [pixel]
#   9 FWHM_IMAGE             FWHM assuming a gaussian core                              [pixel]
#  10 BACKGROUND             Background at centroid position                            [count]
#  11 THRESHOLD              Detection threshold above background                       [count]
#  12 FLUX_MAX               Peak flux above background                                 [count]
#  13 ISOAREA_IMAGE          Isophotal area above Analysis threshold                    [pixel**2]
#  14 A_IMAGE                Profile RMS along major axis                               [pixel]
#  15 B_IMAGE                Profile RMS along minor axis                               [pixel]
#  16 THETA_IMAGE            Position angle (CCW/x)                                     [deg]
#  17 FLAGS                  Extraction flags                                          
         1    790.0364     16.1824 300.4334615 +22.6232111     1016.959     69.38363      1.204     2.33    -8.593575     19.57523     152.6693        11     0.895     0.698  83.20   0
         2    173.5773     11.9414 300.2429824 +22.4372816     534.4899     69.38363      1.512     3.17    -8.832858     19.57523      55.5481         9     0.916     0.728  12.37   0
         3    965.0928      9.2911 300.4902709 +22.6736402      432.573      69.5425      1.319     2.29    -8.146591     19.57523     59.02508         7     0.718     0.616 -13.33   0
         4    738.5277      8.5949 300.4198720 +22.6056051     453.9245     69.33059      1.364     4.28    -8.577042     19.57523     53.34464        13     1.169     0.819  43.42   0
         5    639.3723   1013.0795 300.0625501 +22.8642471     4594.812      69.4013      1.071     1.72    -13.03663     19.57523     876.7526        28     0.979     0.900 -66.60   2
         6    250.6259   1022.3265 299.9385963 +22.7501624     794.2766     60.79299      2.854     4.10    0.4419708     19.57523     36.00317         5     1.148     0.418  -5.29  18
         7    200.4330   1014.9379 299.9254019 +22.7329671     2634.855     69.38363     10.580    25.72     9.469629     19.57523     66.61517       189     4.615     4.414 -69.78  19
         8    174.0740   1020.0214 299.9155554 +22.7265039     1307.488     68.70878      4.760     6.69     13.80951     19.57523     46.02431        14     1.574     0.798  24.41  19
         9     63.5919    960.9609 299.9004624 +22.6763927     1533.599      69.4013     17.571    20.50    -5.486992     19.57523     41.23275        66     4.547     2.568 -53.89   3
        10     76.3477   1015.8567 299.8865510 +22.6959467     2149.065     69.43663     23.419    57.13     7.663298     19.57523     55.96611       443    13.553     6.682  26.87  27
        11     77.9025    969.9806 299.9019708 +22.6832759     2546.453      69.3129     21.194    24.23    -1.321877     19.57523      68.1785       157     4.106     3.971  52.20   3
        12     76.4809    945.3459 299.9095489 +22.6757933     1822.871     69.41897     30.596    48.10    -6.810655     19.57523     65.54792       372     9.892     6.492  88.72   3
        13    926.7168    998.7048 300.1567604 +22.9463484      370.215     69.56013      1.162     2.76    -13.66481     19.57523     73.47601         8     0.937     0.552 -72.63   0
        14    220.2260   1014.0082 299.9318561 +22.7386470     3234.885     69.38363     11.545    33.01     6.820005     19.57523      71.9892       312     5.896     5.130 -30.24  27
        15    171.8964   1023.5753 299.9137215 +22.7268675     902.8654     54.47404      6.738     9.88     14.99433     19.57523     50.34462        18     2.501     1.088  -7.99  26
        16    146.7933    985.7130 299.9182500 +22.7084806     804.2167     69.29521      4.426    10.57     7.204398     19.57523     40.54476        17     1.879     1.657  25.40   0
        17    652.1089    982.4311 300.0764965 +22.8592821     3359.071     69.33059      1.097     1.87    -12.92613     19.57523     620.2627        21     0.943     0.831  47.87   0
        18    233.4799    980.8060 299.9467865 +22.7331170     646.4874      69.3129      3.101     4.41    -1.810482     19.57523     37.59737         5     0.912     0.606 -48.21   1
        19    167.5109   1004.9516 299.9184231 +22.7202156     1189.521     69.36595      6.811     8.97     11.02083     19.57523     39.98786        19     2.013     1.116  37.88   3
        20    560.5711    973.1155 300.0510310 +22.8291349     791.1672     69.38363      1.094     1.84    -13.05766     19.57523     162.5288        10     0.824     0.664  49.32   0
        21     98.1049    968.7225 299.9086557 +22.6889857     1299.577     69.50723     11.320    12.42     2.137136     19.57523     40.36118        28     3.166     1.357 -74.32   3
        22    113.8340    966.7140 299.9141958 +22.6931363     949.6157     69.34827      4.797     6.25     1.858951     19.57523     33.48889         9     1.307     0.839 -32.05   2
        23    110.0906    965.3575 299.9134745 +22.6916231     851.2026     69.38363      7.376     6.96     1.235178     19.57523      35.6418         5     2.534     0.536 -48.92   3
        24    454.2234    969.6562 300.0190621 +22.7962156     465.8647      69.4013      0.992     1.72    -12.93722     19.57523     99.45351         7     0.650     0.585   1.13   0
        25    385.1128    967.7493 299.9981842 +22.7749172     3238.347     69.38363      1.121     1.80     -12.8169     19.57523     639.7386        23     1.011     0.840  89.83   0
        26    104.1633    967.8575 299.9108193 +22.6905583     940.9435     69.38363      5.275     5.05     1.957632     19.57523     40.40588         6     1.087     0.664  74.19   1
        27     92.7725    955.8535 299.9111888 +22.6836977     997.0612      69.4013      6.039     4.86    -2.149876     19.57523     54.60544        15     1.313     0.976  -7.99   1
        28    417.0855    954.8194 300.0123390 +22.7808121     233.5558      69.3129      0.973     4.11    -12.69029     19.57523     55.88627         6     1.049     0.460 -23.74   0
        29    733.9079   1016.1249 300.0910006 +22.8934940     309.2477      69.5425      1.148     3.13    -12.76336     19.57523     78.70047         8     1.046     0.600  64.83   0
        30    931.3422    946.1914 300.1753021 +22.9326684     1124.917     69.36595      1.126     1.89    -13.14651     19.57523     192.2766        12     0.843     0.741 -78.27   0
        31    719.8090    935.0939 300.1129938 +22.8660235     354.8814      69.3129      1.270     4.38    -12.68677     19.57523      39.0685         6     1.229     0.443  60.27   0
        32     69.2336    991.2394 299.8923569 +22.6867592     2091.258     69.41897     25.053    44.05    0.6277473     19.57523     51.82111       360    10.210     5.275  13.12  19
        33    165.2170    999.3309 299.9195405 +22.7179165      803.246     69.41897      5.578     7.34     9.943218     19.57523     39.98886        10     1.485     1.017  69.04   3
        34    754.8998    929.2702 300.1258211 +22.8748823     464.5393     69.50723      1.061     1.69    -12.69215     19.57523     114.1133         7     0.637     0.622 -45.87   0
        35    777.1266    923.0705 300.1347643 +22.8797726     5532.796     69.45428      1.093     1.64    -12.68069     19.57523     1317.673        25     0.903     0.843  83.11   0
        36    968.4237    922.3612 300.1946229 +22.9369516      270.331      69.4013      1.056     2.49     -12.6601     19.57523     52.63676         5     0.717     0.448 -68.15   0
        37     88.5584    914.9991 299.9231786 +22.6707298     495.6865     69.38363      1.582     3.07    -10.15357     19.57523     56.81623         8     0.858     0.666  41.27   0
        38    482.1781    911.4324 300.0467149 +22.7879177     239.7391     69.38363      1.225     3.19    -12.66109     19.57523     35.58421         5     0.730     0.464  18.00   0
        39    785.6304    905.1609 300.1432441 +22.8771861     613.7611     69.38363      0.934     1.54    -12.59858     19.57523     155.2991         9     0.735     0.611  29.57   0
        40    968.6205    903.8133 300.2007224 +22.9316875     227.4545     69.34827      1.118     3.29    -12.60018     19.57523     44.62408         7     0.949     0.474 -82.83   0
        41    823.5258    898.3802 300.1572600 +22.8866091     472.1092     69.38363      0.967     2.88     -12.6256     19.57523     79.06608         5     0.723     0.456  68.67   0
        42    723.4988    889.0433 300.1291340 +22.8539216     263.9496     69.38363      0.888     1.87    -12.45964     19.57523     64.70945         6     0.703     0.495  81.58   0
        43    436.2339    885.4946 300.0408626 +22.7666892      2002.05     69.36596      1.067     1.89    -12.35521     19.57523     351.0757        16     0.874     0.777  40.59   0
        44    161.2459    871.2138 299.9600115 +22.6800214     379.7462      69.4013      1.230     2.86    -11.28281     19.57523     44.87975         8     0.775     0.686 -54.79   0
        45    138.5543    868.4976 299.9538448 +22.6724273     781.5769      69.4013      1.117     2.24    -11.72321     19.57523     131.4727        12     1.001     0.736 -51.50   0
        46     83.0134    985.1069 299.8986336 +22.6891436     2687.829      69.3129     23.544    43.12     3.121064     19.57523     64.29485       391    10.118     5.100  33.41  19
        47   1010.1837    856.9944 300.2289241 +22.9307126     975.9433      69.3129      1.013     1.72    -12.48275     19.57523     236.1886        11     0.846     0.668  -0.20   0
        48    964.4973    855.4506 300.2151787 +22.9165703      982.679     69.45428      0.956     1.75    -12.47549     19.57523     190.4549        12     0.740     0.729  41.90   0
        49    747.9808    849.2470 300.1497131 +22.8498500     217.2863     69.41897      1.095     2.77    -12.35557     19.57523     65.79243         8     0.917     0.623 -15.00   0
        50    616.2241    843.5116 300.1105446 +22.8086731     2307.708     69.33059      1.039     1.79    -12.18032     19.57523     415.6583        18     0.901     0.786 -61.27   0
        51    418.6619    840.9730 300.0498852 +22.7486504     300.8557     69.38363      1.242     4.50    -12.06163     19.57523      53.1024         7     1.039     0.555  67.28   0
        52    166.2748    837.5618 299.9725249 +22.6718896     593.6367     69.33059      1.168     2.76    -11.82116     19.57523     91.12315        11     0.971     0.678  85.26   0
        53    185.5592    834.6600 299.9794618 +22.6768498     251.8782     69.38363      1.163     3.43    -11.84997     19.57523     35.26999         5     0.723     0.470  73.21   0
        54    792.1301    823.1656 300.1719562 +22.8556104     2038.415     69.38363      1.070     1.73    -12.38829     19.57523     474.1105        17     0.830     0.802  76.88   0
        55   1008.9815    823.2045 300.2395461 +22.9206522     507.9777     69.33059      0.936     1.69    -12.47052     19.57523     128.5818         8     0.720     0.596  40.79   0
        56    200.1906    817.1808 299.9896962 +22.6762349     380.0501     69.36595      1.325     3.81    -11.85959     19.57523     42.97214         5     0.989     0.422  44.78   0
        57    509.2099    815.5615 300.0863280 +22.7685425     220.9499     69.38363      1.079     2.57    -11.70277     19.57523     51.53957         8     0.832     0.635  48.75   0
        58    155.6783    814.0537 299.9768811 +22.6619710     423.9032     69.41897      1.170     2.57    -11.86842     19.57523     85.91193         8     0.823     0.612  43.08   0
        59    305.3111    805.9691 300.0260218 +22.7045862     26193.91     69.36595      1.168     1.92    -11.91317     19.57523     4720.609        60     1.135     0.999  72.95   0
        60    571.0029    808.8217 300.1077543 +22.7851537     295.9281     69.33059      1.150     4.04    -11.83198     19.57523     45.58338         6     0.916     0.509  89.95   0
        61    563.0722    804.8526 300.1065770 +22.7816354     735.2587     69.38363      1.109     1.90    -11.73534     19.57523     147.5963        10     0.811     0.657  79.80   0
        62    975.8126    803.8089 300.2355132 +22.9051395     422.0269     69.27751      1.021     1.65    -12.43496     19.57523     105.6189         8     0.706     0.594 -40.46   0
        63    233.5662    803.7951 300.0044249 +22.6824211     254.7137     69.36595      0.976     2.83    -11.85888     19.57523     45.37739         5     0.720     0.455  69.41   0
        64    592.1016    800.9124 300.1168960 +22.7892162     498.5566      69.5425      1.120     2.54    -11.97102     19.57523     99.91991         9     0.918     0.587  57.81   0
        65    603.1031    798.9982 300.1209440 +22.7919682     368.6732     69.29521      1.171     1.84     -12.0525     19.57523     75.58315         6     0.688     0.530 -44.63   0
        66    746.0293    785.8315 300.1697407 +22.8310695     253.4032     69.38363      0.925     1.68    -12.28698     19.57523     80.38988         5     0.574     0.529  84.16   0
        67    355.0027    783.1871 300.0488863 +22.7129734     15248.19     69.22439      1.190     1.85    -11.81736     19.57523     2978.949        43     1.054     0.969  68.24   0
        68    369.0778    783.7052 300.0530953 +22.7173471     1046.656     69.50723      1.168     2.03    -11.78569     19.57523     173.3679        13     0.995     0.723  29.86   0
        69    877.8531    778.8091 300.2131054 +22.8685902     1380.114     69.38363      1.078     1.73    -12.05038     19.57523     315.0232        14     0.854     0.745  65.72   0
        70    366.1265    777.4100 300.0542254 +22.7146563     258.7696     69.38363      1.034     1.90    -11.75242     19.57523     52.33737         5     0.675     0.450  23.33   0
        71    237.5141    775.1231 300.0149799 +22.6753887     249.5505     69.48959      0.983     2.86    -11.81536     19.57523     67.52168         7     0.907     0.473  77.92   0
        72    636.0668    774.8230 300.1390732 +22.7949236     592.8997     69.36595      1.226     1.71    -11.98741     19.57523     116.1221         7     0.625     0.607  76.65   0
        73    483.0430    769.7532 300.0930888 +22.7475527     429.8402     69.41897      1.249     2.45    -11.50469     19.57523     81.88014         9     0.940     0.638  62.22   0
        74     42.0988    770.5583 299.9557477 +22.6153947     243.8337     69.36595      1.288     4.43    -12.13135     19.57523     42.13307         8     1.126     0.496  -0.70   0
        75     70.6677    764.7618 299.9665066 +22.6223148      429.553     69.34827      1.669     3.73    -12.11329     19.57523     44.52773         6     0.881     0.510 -44.09   0
        76    235.2755    759.0404 300.0195158 +22.6701067      369.577     69.34827      1.281     3.21    -11.80023     19.57523     51.32902         6     0.965     0.527  41.19   0
        77    558.2178    749.4637 300.1230859 +22.7642917     185.0206     69.36595      1.119     2.60    -11.49131     19.57523      38.8967         5     0.707     0.472  17.70   0
        78    528.0092    747.8140 300.1142197 +22.7547541     269.8204     69.29521      0.920     1.90    -11.47654     19.57523     78.40692         6     0.802     0.417  41.89   0
        79    944.2489    744.1147 300.2450925 +22.8785391     2243.764     69.36596      1.046     1.69    -11.82572     19.57523     514.2311        19     0.879     0.834 -12.07   0
        80    549.8823    745.1855 300.1218829 +22.7605634     692.5177     69.36595      1.115     2.01    -11.47384     19.57523     142.3193         9     0.848     0.583  62.47   0
        81    932.8613    735.4309 300.2443667 +22.8726319     868.8828     69.41897      1.062     1.87    -11.75884     19.57523     169.1361         9     0.800     0.608  72.81   0
        82    295.8905    729.5703 300.0479457 +22.6798566     254.5963     69.34827      1.049     2.81    -11.51965     19.57523     63.40499         7     0.836     0.630  52.15   0
        83    759.0214    726.8204 300.1929859 +22.8180323     1256.138     69.38363      1.103     1.76    -11.95135     19.57523     251.4992        13     0.873     0.768  48.69   0
        84    963.8788    725.5763 300.2572441 +22.8791016     659.5977     69.36595      0.926     1.64    -11.73212     19.57523     170.9908         8     0.687     0.592  68.63   0
        85    144.4564    713.7407 300.0060250 +22.6298533     338.6557     69.45428      1.146     2.62    -11.65368     19.57523     56.56291         5     0.724     0.422 -63.29   0
        86    877.5380    703.7495 300.2374245 +22.8469498     72137.91     69.43663      1.057     1.77    -11.64749     19.57523     13389.64        99     1.143     1.052  77.04   0
        87   1023.7217    705.3776 300.2824781 +22.8912404     419.4125     53.65756      0.925     1.88     -11.6937     19.57523     107.0672         6     0.768     0.576 -83.40  24
        88    730.0237    704.2483 300.1912938 +22.8028576     468.5627     69.38363      1.077     1.72    -11.77542     19.57523     88.02983         7     0.678     0.597   6.16   0
        89    563.8503    692.9828 300.1432102 +22.7497792     703.6766     69.38363      1.189     3.13    -11.40735     19.57523     131.8728        12     0.987     0.770 -72.66   0
        90    745.0936    689.9781 300.2006298 +22.8032818     4556.664      69.3129      1.146     1.81    -11.62934     19.57523     951.9838        25     1.023     0.849  55.39   0
        91    246.7070    685.3280 300.0470434 +22.6524080     2437.546     69.50723      1.166     1.95    -11.26255     19.57523     405.6088        19     0.979     0.817  76.20   0
        92    328.8973    683.3060 300.0732554 +22.6764994     555.9354     69.56013      1.111     2.33    -11.10575     19.57523     91.73731         9     0.874     0.606  53.40   0
        93    204.3418    680.9339 300.0353039 +22.6384300     212.2621     69.41897      1.099     3.71    -11.23851     19.57523     37.50867         7     0.868     0.577  55.64   0
        94    536.9639    678.8051 300.1394518 +22.7376455     404.2123      69.4013      1.234     2.35    -11.34552     19.57523     65.31239         7     0.695     0.667  40.18   0
        95    528.6266    670.9805 300.1394014 +22.7328995     1669.125      69.4013      1.198     2.08    -11.25403     19.57523     272.4187        16     0.970     0.798  74.09   0
        96    518.7791    664.6331 300.1384005 +22.7281241     712.1508     69.38363      1.101     2.05    -11.13063     19.57523     134.3223        12     0.903     0.715  65.82   0
        97    912.4285    662.3224 300.2617747 +22.8455163     334.3615     69.38363      1.250     2.50    -11.55617     19.57523     53.91718         6     0.822     0.467   2.28   0
        98    182.1944    661.0300 300.0348928 +22.6260751     198.1632     69.38363      1.020     2.38    -11.15071     19.57523     64.97479         6     0.734     0.515  62.74   0
        99    196.5948    659.5026 300.0398648 +22.6299604     248.0441     69.29521      1.174     3.54    -11.15036     19.57523     49.33815         6     0.874     0.486  84.74   0
       100    443.5753    654.5004 300.1182932 +22.7026533     816.6136     69.33059      1.199     2.12    -10.90939     19.57523     141.5032        13     0.950     0.825  48.26   0
       101    222.1846    656.1911 300.0488952 +22.6366931     257.2819      69.3129      0.944     1.87    -11.14896     19.57523     56.74406         6     0.665     0.554  46.01   0
       102     97.6597    649.5505 300.0123589 +22.5974039      9761.85     69.43663      1.141     2.04    -11.29117     19.57523     1432.476        35     1.057     0.958  53.15   0
       103   1019.2020    651.3033 300.2986547 +22.8743565     407.3549     69.29521      1.165     2.41    -11.57863     19.57523     62.33067         8     0.740     0.682 -70.27  16
       104     18.4506    650.8975 299.9873182 +22.5740047     374.3189     69.45428      1.280     3.32    -11.31564     19.57523     56.01181         7     0.942     0.600 -64.17   0
       105    528.4404    649.8005 300.1462306 +22.7267673     512.5652      69.4013      1.051     2.11     -10.9953     19.57523     91.35776         9     0.774     0.665  30.76   0
       106    946.4907    635.8925 300.2809897 +22.8481376     549.8784      69.5425      1.119     2.35    -11.42154     19.57523     97.81383         9     0.800     0.673  68.53   0
       107     43.3610    633.4736 300.0007194 +22.5764917      678.473     69.36596      1.668     4.66     -11.2465     19.57523     68.11163        13     1.338     0.673  89.35   0
       108    813.1961    633.5449 300.2402014 +22.8075043     99.95105     69.34827      0.869     1.80    -11.23576     19.57523     59.51105         5     0.676     0.476  17.69   0
       109    886.8032    628.4361 300.2648049 +22.8281048     406.0551      69.4013      1.247     2.60    -11.28627     19.57523      55.3963         6     0.703     0.600  37.71   0
       110    643.5201    619.9803 300.1917539 +22.7527302     275.3473     69.38363      1.331     2.63    -10.86124     19.57523     40.66825         6     0.767     0.497  85.25   0
       111    614.8108    618.8599 300.1831785 +22.7437980     270.6442     69.34827      1.400     4.00    -10.81056     19.57523     53.26101         5     0.953     0.508 -63.94   0
       112    492.9478    618.4763 300.1453691 +22.7071327     550.9907     69.38363      1.507     2.73    -10.82033     19.57523     62.94051         6     0.886     0.491  74.45   0
       113    926.4627    613.6762 300.2819685 +22.8357547     1554.839     69.43663      1.016     1.85    -11.23256     19.57523     293.4374        14     0.853     0.695  56.18   0
       114    458.5005    613.9342 300.1361265 +22.6954949      694.972     69.47194      1.091     2.21    -10.84663     19.57523      125.069        10     0.828     0.662  38.83   0
       115     20.4552    607.7064 300.0019821 +22.5622286     2492.465     69.43663      1.166     2.11     -11.1691     19.57523     345.2051        19     0.940     0.866  65.42   0
       116    321.8331    600.7899 300.0978876 +22.6507161     4444.015     69.38363      1.221     1.94    -10.73371     19.57523     769.7402        26     1.017     0.940  64.44   0
       117    444.2232    597.7719 300.1369385 +22.6865748      4341.16     69.38363      1.220     2.21    -10.71509     19.57523     628.5056        25     1.049     0.911  64.43   0
       118    855.8657    591.5982 300.2671382 +22.8082532     864.1421     69.36595      1.087     2.00    -10.98522     19.57523     166.4552        11     0.854     0.666  73.70   0
       119    940.3944    588.8581 300.2943812 +22.8328032     6024.833     69.34827      1.070     1.82     -11.1263     19.57523     1127.951        26     0.943     0.878  55.22   0
       120    504.8708    587.3727 300.1591913 +22.7017857     5523.268     69.36595      1.189     2.03    -10.50631     19.57523     925.6633        26     1.033     0.887  70.41   0
       121    674.6880    582.6808 300.2135867 +22.7513721     231.5831     69.50723      1.362     3.49    -10.65445     19.57523     42.44124         5     1.180     0.299 -53.30   0
       122    232.2069    582.8284 300.0758607 +22.6186666     577.1394     69.38363      1.219     2.57    -11.08199     19.57523     89.74223         9     0.796     0.719 -85.47   0
       123    436.4556    575.5278 300.1417527 +22.6778631     2225.595      69.4013      1.171     2.13    -10.53348     19.57523     281.1453        19     0.915     0.897  71.96   0
       124    779.1475    575.3026 300.2485267 +22.7805753      255.452     69.45428      1.012     2.08     -10.7463     19.57523     67.04907         7     0.754     0.595 -18.14   0
       125    414.8460    573.9971 300.1355272 +22.6709406     605.4948     69.38363      1.253     1.92    -10.53185     19.57523     115.3611         9     0.821     0.623  78.36   0
       126    169.2895    572.9547 300.0595151 +22.5969505     384.9023     69.36595      1.216     2.75    -11.08682     19.57523     65.10551         8     0.849     0.612   2.18   0
       127    856.2172    570.7223 300.2740342 +22.8023642     885.0807     69.38363      1.221     2.64    -10.79107     19.57523     136.7712        12     0.919     0.810  13.42   0
       128    736.8030    567.8452 300.2377578 +22.7657388     367.8808     69.38363      1.206     4.05    -10.62744     19.57523     59.54108         8     0.926     0.662  79.12   0
       129    553.0864    563.0403 300.1821081 +22.7092664     100149.4     69.36595      1.252     2.07    -10.20837     19.57523     16711.32       119     1.231     1.210  82.11   0
       130    239.3037    563.1395 300.0844664 +22.6151506     1632.894     69.45428      1.224     2.09    -11.02239     19.57523     259.7861        18     0.949     0.912  86.25   0
       131    805.1314    558.6667 300.2620313 +22.7835887      265.731     69.43663      1.287     2.93      -10.665     19.57523     38.48189         5     0.741     0.439 -16.79   0
       132    443.7069    543.6424 300.1543726 +22.6708906      1311.29      69.4013      1.246     2.23    -10.26704     19.57523     205.5849        17     1.369     0.799 -89.52   0
       133    760.9827    531.9068 300.2569724 +22.7626702     187.1294      69.3129      1.164     3.65    -10.52456     19.57523     34.72884         5     0.620     0.618 -41.86   0
       134    840.5422    529.4193 300.2825737 +22.7858051     914.2993     69.38363      1.145     2.13    -10.54226     19.57523     136.7797        12     0.874     0.754  79.59   0
       135    711.7476    527.1501 300.2431797 +22.7465437     1194.647     69.41897      1.165     2.19    -10.40375     19.57523     205.6349        15     0.907     0.816 -87.71   0
       136    969.1027    521.1154 300.3253536 +22.8219494     677.7149      69.5425      1.191     2.12    -10.94339     19.57523     125.3465        11     1.007     0.664  80.62   0
       137    499.1677    523.1946 300.1782762 +22.6816598     384.0425     69.38363      1.388     2.72     -10.0492     19.57523     55.16904         6     0.728     0.543  69.56   0
       138    840.9670    519.8695 300.2858098 +22.7831900     1166.629     69.36595      1.369     2.27    -10.53752     19.57523     174.5323        14     1.138     0.676  67.07   0
       139    954.5678    519.4118 300.3213746 +22.8171045     526.7458     69.36596      2.297     3.94    -10.85777     19.57523     62.78904         7     1.089     0.469  80.71   0
       140    594.4794    517.8104 300.2096948 +22.7086999     409.9417     69.36595      1.581     2.11    -9.974587     19.57523     58.25849         5     0.704     0.475  72.60   0
       141    879.0000    514.5377 300.2993978 +22.7930580     2056.962     69.33059      1.105     1.93    -10.56725     19.57523     354.8092        16     0.852     0.835  82.25   0
       142    970.8491    504.8835 300.3311736 +22.8178099     334.9132     69.36595      1.081     1.98    -10.86872     19.57523     74.88227         6     0.708     0.521  62.11   0
       143    110.8546    504.8580 300.0634882 +22.5598856      374.287     69.43663      1.257     2.80    -10.75648     19.57523     91.15131        10     0.913     0.818  71.27   0
       144    158.5615    497.6469 300.0806549 +22.5721368     119.7424     69.43663      1.199     4.30    -10.81119     19.57523     26.36463         5     1.003     0.526 -47.32   0
       145    652.5704    485.1037 300.2384120 +22.7167302     231.7348     69.33059      1.095     2.14    -9.795096     19.57523     58.17488         6     0.731     0.493  85.09   0
       146    966.9802    477.3449 300.3389162 +22.8087395     407.1728     69.36595      1.121     1.94    -10.69756     19.57523     68.79814         7     0.690     0.620  10.61   0
       147    713.1683    477.2744 300.2598305 +22.7326500     426.7826     69.38363      1.208     2.11    -10.15482     19.57523     69.85735         7     0.674     0.642  40.39   0
       148    870.6874    473.1500 300.3102562 +22.7786797     478.2124     69.38363      1.083     2.13    -10.43984     19.57523     84.50909         7     0.702     0.619  87.83   0
       149    854.6944    469.8581 300.3063407 +22.7729412     325.7544     69.45428      1.376     2.85    -10.41364     19.57523     52.98463         7     0.847     0.609  18.92   0
       150    598.9076    467.8770 300.2272994 +22.6956949     1500.516     69.52487      1.266     2.26    -9.742543     19.57523     252.6826        18     1.059     0.827  53.16   0
       151    438.9885    454.9890 300.1817125 +22.6440373      312.651     69.27751      1.435     3.59    -9.938007     19.57523     29.68824         5     0.618     0.618 -61.68   0
       152   1010.2715    446.7187 300.3623694 +22.8129108     584.9199     69.50723      0.997     1.89    -10.79993     19.57523     131.3309        10     0.828     0.666  81.54   0
       153    882.1969    446.6024 300.3224700 +22.7745034     289.2619     69.17123      1.246     2.90    -10.23351     19.57523     42.07957         7     0.812     0.616 -79.93   0
       154    968.6111    445.3790 300.3498114 +22.8000446      490.858     69.36596      1.059     2.31    -10.54135     19.57523      76.4909         9     0.847     0.641  63.25   0
       155    709.8002    441.7607 300.2703201 +22.7214433     498.6253     69.38363      1.226     2.25    -9.902909     19.57523      97.0005         9     0.848     0.634 -67.09   0
       156    505.2606    442.5912 300.2063631 +22.6603551      219.962     69.34827      1.258     3.05    -9.779903     19.57523     35.19983         5     0.707     0.481 -11.33   0
       157    213.5795    440.0326 300.1164725 +22.5721239     391.6924     69.38363      1.070     1.84    -10.42535     19.57523     68.23861         6     0.728     0.492  85.81   0
       158    275.9481    435.8761 300.1372116 +22.5896448     1821.923     69.38363      1.272     2.09    -10.21051     19.57523     309.9242        18     0.978     0.883  29.87   0
       159   1009.0061    434.0243 300.3660992 +22.8088842     2231.604     69.36595      1.150     1.80      -10.734     19.57523     479.0655        18     0.899     0.834  49.70   0
       160    223.2577    430.6545 300.1225274 +22.5723379     3935.396     69.43663      1.301     2.39    -10.32192     19.57523     476.6099        28     1.131     0.963  73.45   0
       161    988.9733    425.1086 300.3627475 +22.8003210     885.0819     69.33059      1.127     2.00    -10.56464     19.57523     183.6403        11     0.848     0.674  79.76   0
       162    364.0557    424.8755 300.1681847 +22.6129202     2217.298      69.4013      1.265     2.14    -9.893759     19.57523     361.0621        19     0.944     0.887  83.84   0
       163    608.1780    421.4395 300.2452727 +22.6851434     9051.918     69.41897      1.263     2.26    -9.673088     19.57523     1202.607        36     1.101     1.048  65.93   0
       164    624.7596    421.8398 300.2503059 +22.6902296     422.2991     69.45428      1.662     4.65     -9.67371     19.57523     45.86856         7     1.007     0.608 -75.03   0
       165    162.8907    401.9238 300.1130974 +22.5459833     1075.131     69.52487      1.345     2.63    -10.59888     19.57523     149.5894        17     1.257     0.855  89.52   0
       166    941.5875    403.9675 300.3548380 +22.7800504       394.13     69.36595      1.066     1.99    -10.16865     19.57523     61.58029         6     0.710     0.492 -89.00   0
       167    548.7860    390.9559 300.2366842 +22.6585850     3384.491      69.4013      1.316     2.35    -9.735118     19.57523     478.0441        25     1.077     0.961  56.09   0
       168    962.3597    391.1320 300.3654850 +22.7825856     606.0064     69.34827      1.054     2.12    -10.22175     19.57523     107.3019         9     0.744     0.715 -23.31   0
       169    121.6628    383.7238 300.1061975 +22.5283918     185.3692     69.43663      1.264     3.41    -10.60051     19.57523     34.96837         5     0.739     0.456  77.59   0
       170    662.2701    381.0880 300.2752248 +22.6897735     174.6275      69.5425      1.174     3.10    -9.663088     19.57523     35.52025         5     0.964     0.553  55.20   0
       171    752.8788    379.8621 300.3038482 +22.7165794     531.2108     69.45428      1.240     2.26    -9.815968     19.57523     83.63341         9     0.810     0.670  20.95   0
       172    455.4038    377.1296 300.2121118 +22.6266151     3050.162     69.33059      1.329     2.50    -9.763262     19.57523     370.6837        25     1.175     0.939  71.32   0
       173    847.3160    371.6636 300.3359409 +22.7425243     776.0952     69.47194      1.368     2.77    -9.932842     19.57523     109.1486        12     0.920     0.820 -16.45   0
       174    439.9202    365.7854 300.2109784 +22.6187158     140.2461     69.36595      1.091     3.87    -9.760704     19.57523     31.52434         5     0.739     0.689 -25.82   0
       175    820.1691    359.0206 300.3315861 +22.7307580     184.3252     69.38363      0.976     2.35    -9.931149     19.57523     46.01589         5     0.772     0.468  29.76   0
       176    342.9488    356.5097 300.1838250 +22.5869715     1309.294      69.4013      1.258     2.22     -9.68893     19.57523      182.687        18     1.187     0.785  82.89   0
       177     61.6114    354.0992 300.0971619 +22.5018748     556.2848     69.29521      1.321     3.29    -10.62013     19.57523     65.12764        11     0.988     0.803  25.40   0
       178    312.4031    345.9897 300.1777417 +22.5747909     14402.75     69.20667      1.268     2.27     -9.66069     19.57523     2007.607        47     1.157     1.051  83.81   0
       179    847.0418    343.2859 300.3450719 +22.7342896      537.907     69.34827      1.148     2.46    -9.912172     19.57523     104.2206         9     0.892     0.612  56.39   0
       180      8.7998    333.9591 300.0872987 +22.4802500     2421.661      69.4013      1.227     2.06    -10.42893     19.57523     394.9699        19     0.965     0.874  87.64   0
       181    762.2249    332.3441 300.3221928 +22.7057317     353.4218     69.38363      1.497     3.04    -9.710396     19.57523     40.59862         5     0.892     0.406 -82.91   0
       182    186.8102    332.3648 300.1431208 +22.5332067     287.8413     69.36595      1.373     4.09    -10.04896     19.57523     35.67503         7     1.013     0.581  80.54   0
       183    411.0070    331.1151 300.2132417 +22.6000941     220.4042      69.3129      1.084     3.66     -9.72297     19.57523     36.45601         5     0.808     0.485  65.96   0
       184    722.8140    325.6658 300.3120827 +22.6920030     912.4299     69.36595      1.258     2.39    -9.547036     19.57523     133.1957        14     0.986     0.787  65.81   0
       185    384.6696    310.4005 300.2117745 +22.5862506     1087.936     69.33059      1.562     2.35    -9.677156     19.57523     146.3613        20     1.208     1.039  43.93   0
       186    823.6222    302.6939 300.3509539 +22.7156107     326.4796      69.3129      1.392     2.42    -9.820914     19.57523     59.09579         6     0.901     0.553 -57.72   0
       187    460.4008    289.5438 300.2421081 +22.6029715     610.3322      69.3129      1.311     2.59     -9.67984     19.57523     90.33369        11     0.919     0.735  73.87   0
       188    705.1757    281.4187 300.3209550 +22.6740079     1186.074      69.4013      1.274     2.57    -9.287165     19.57523     144.6934        16     1.002     0.889  76.43   0
       189    966.3413    275.5642 300.4042575 +22.7505670     1562.115     69.38363      1.184     2.23    -9.926697     19.57523     230.3255        15     0.909     0.820  69.74   0
       190    413.4779    264.9349 300.2354975 +22.5818381     370.7797     69.47194      1.278     4.10    -9.537395     19.57523     52.37097         6     0.793     0.605  55.43   0
       191     88.3989    259.8823 300.1360726 +22.4828883     705.2023     69.27751      1.508     3.30    -9.937786     19.57523     74.23756        14     1.093     0.835 -77.20   0
       192    982.3862    256.6764 300.4153936 +22.7499436     211.1816      69.4013      1.418     3.53    -9.877568     19.57523     39.47972         5     0.789     0.456 -74.71   0
       193    172.6003    252.3447 300.1646833 +22.5059856     245.0036      69.3129      1.116     3.93    -9.715657     19.57523     39.16312         6     0.905     0.489 -87.31   0
       194    776.8129    242.8409 300.3557983 +22.6843901     386.5125     69.38363      1.271     2.03    -9.397511     19.57523     55.63943         6     0.710     0.535  38.60   0
       195    874.8874    231.7742 300.3899580 +22.7105898     1076.794     69.33059      1.218     2.25    -9.480779     19.57523     179.4272        12     0.959     0.689  72.22   0
       196    293.5510    229.3970 300.2097318 +22.5356762      1076.84     69.38363      1.271     2.41    -9.547769     19.57523     141.5488        17     1.000     0.917  58.32   0
       197    371.3698    224.4691 300.2355335 +22.5575961     533.3718     69.36596      1.499     3.19     -9.53635     19.57523     58.90628        10     0.949     0.802  64.56   0
       198    773.5173    223.4780 300.3610566 +22.6778395     190.3021     69.48959      1.151     3.28    -9.318597     19.57523     40.31938         6     0.883     0.434  71.22   0
       199    188.3757    216.6172 300.1811825 +22.5004656     472.0661     69.38363      1.499     4.08    -9.558797     19.57523     45.08639         8     1.031     0.617  81.82   0
       200    726.0497    213.2309 300.3495931 +22.6606740     869.4913     69.41897      1.293     2.34     -9.27481     19.57523     127.2826        10     0.871     0.711  74.77   0
       201    997.5276    205.6702 300.4366734 +22.7398158     458.7206     69.45428      1.009     2.27    -9.569703     19.57523     68.75056         7     0.830     0.494 -83.64   0
       202    730.2379    205.0920 300.3535395 +22.6595905     314.6012     69.38363      1.255     2.32     -9.26455     19.57523     60.02584         5     0.745     0.400  76.61   0
       203    650.5928    203.9281 300.3291084 +22.6353922     572.2065     69.34827      1.276     3.05     -9.29352     19.57523     77.30791        12     1.020     0.777  85.70   0
       204    576.8954    196.0613 300.3087130 +22.6110476     508.2119     69.47194      1.315     2.35    -9.287253     19.57523     80.85033        10     0.873     0.689  79.41   0
       205    845.8849    195.2671 300.3927669 +22.6914111     635.7628     69.47194      1.219     2.49     -9.35301     19.57523     107.0146        11     0.862     0.829  20.67   0
       206    857.9796    194.6002 300.3967534 +22.6948421     520.6853      69.3129      1.236     2.59     -9.36235     19.57523     74.95327         9     0.862     0.647 -77.88   0
       207   1018.9474    185.3057 300.4499644 +22.7403748     833.4313     69.45428      1.141     1.99    -9.397655     19.57523     140.8675        12     0.822     0.761 -86.25  16
       208    974.6480    184.6768 300.4363511 +22.7269295     452.1945     69.38363      0.989     2.04    -9.438529     19.57523     96.67677         8     0.775     0.601 -87.50   0
       209    208.7775    178.3313 300.1999487 +22.4955972     297.3887      69.4013      1.260     3.99    -9.476093     19.57523     47.77419         8     0.964     0.629  72.45   0
       210     70.9819    173.0911 300.1588294 +22.4527635      1012.87      69.3129      1.297     2.38    -9.484457     19.57523     164.3925        16     1.071     0.850  86.82   0
       211    893.8337    169.8156 300.4159743 +22.6984569      398.402     69.36595      1.068     2.05     -9.37172     19.57523     64.32758         6     0.659     0.572  52.63   0
       212    228.2104    166.2813 300.2098997 +22.4979665     2708.927     69.34827      1.292     2.57    -9.450526     19.57523     337.9403        24     1.180     0.861  66.27   0
       213     12.4043    160.7971 300.1446234 +22.4316637     691.0269     69.20667      1.424     3.17    -9.311811     19.57523     73.99672        14     1.060     0.835  73.47   0
       214    872.0692    147.5664 300.4164092 +22.6855436     1709.677     69.38363      1.209     2.20    -9.294003     19.57523     275.6548        19     0.972     0.915  12.60   0
       215    975.7571    146.2662 300.4491621 +22.7162190     1311.046     69.36596      1.174     2.16     -9.24932     19.57523     216.7669        12     0.806     0.772  29.83   0
       216    421.6297    142.8241 300.2776645 +22.5492222     200.7112     69.38363      1.128     3.67    -8.907827     19.57523     52.13359         6     1.009     0.465  81.60   0
       217    346.2872    135.0052 300.2567637 +22.5243917     408.8268      69.3129      1.358     3.99    -9.277553     19.57523      44.6881         6     1.013     0.528  41.39   0
       218    473.0351    130.1835 300.2977614 +22.5609999     790.5177     69.38363      1.271     2.60    -8.884191     19.57523     107.8162        11     0.930     0.703  87.07   0
       219    401.3637    131.0009 300.2751954 +22.5397524     250.4635     69.38363      1.451     3.83    -8.975392     19.57523     33.73906         5     0.891     0.473 -83.15   0
       220    111.6995    131.6056 300.1849400 +22.4530729     322.4189     69.27751      1.324     2.84    -9.199494     19.57523     41.84315         5     0.703     0.471  14.64   0
       221    247.1357    110.1331 300.2340004 +22.4875245     2996.203     69.43663      1.325     2.50    -9.057918     19.57523     376.1214        24     1.084     0.981  85.59   0
       222     97.9209    109.6290 300.1877885 +22.4426338     304.6143     69.38363      1.216     3.64    -9.001719     19.57523      42.5912         6     0.901     0.608 -67.92   0
       223    261.9738    102.2014 300.2411868 +22.4896963     133.8192     69.33059      1.243     3.94     -8.98512     19.57523     25.13601         5     1.311     0.339 -64.79   0
       224    493.1988     95.4544 300.3153038 +22.5570682     3104.921      69.3129      1.360     2.47    -8.813964     19.57523     378.0469        25     1.120     0.983  68.54   0
       225    378.5175     94.9558 300.2797820 +22.5225537     270.6639     69.34827      1.508     4.23    -8.857403     19.57523     37.26802         5     0.753     0.678 -11.74   0
       226    745.5131     84.8995 300.3972991 +22.6296286     405.5268      69.5425      1.365     4.17    -9.010074     19.57523     42.59182         8     0.815     0.718  10.02   0
       227    838.3668     83.7556 300.4266067 +22.6571086     180.7526     69.41897      1.015     2.29    -9.004198     19.57523     39.25387         5     0.677     0.472 -78.50   0
       228    621.4753     75.4678 300.3617222 +22.5897624      2989.74     69.45428      1.287     2.37      -8.7805     19.57523     398.4336        23     1.041     0.970  61.68   0
       229    396.5553     74.4679 300.2920393 +22.5220767      708.234     69.34827      1.265     2.86    -8.692989     19.57523     94.75702        12     0.966     0.775 -41.12   0
       230    662.4658     73.0604 300.3752689 +22.6013503     424.8822     69.41897      1.357     3.21    -8.905208     19.57523     54.19242         8     0.856     0.761 -87.04   0
       231    145.4968     67.3895 300.2162731 +22.4447787     272.7453     69.29521      1.153     3.53    -8.896091     19.57523     48.13958         8     0.838     0.772 -73.29   0
       232    717.1958     64.5145 300.3950893 +22.6152885     293.6229      69.3129      1.196     4.14    -8.896355     19.57523     38.06807         6     0.921     0.579 -65.48   0
       233    681.0259     59.3362 300.3855017 +22.6029663      375.632     69.36595      2.056     6.09    -8.862251     19.57523     41.98704         9     1.622     0.644  65.05   0
       234    665.6277     60.2477 300.3804098 +22.5986157     1366.224      69.4013      1.324     2.43    -8.844269     19.57523     186.9445        17     0.997     0.872  69.67   0
       235    751.9866     51.9362 300.4100087 +22.6220935     702.0567     69.34827      1.196     2.48    -8.819213     19.57523     116.8796         9     0.847     0.678 -70.31   0
       236    689.8157     44.9045 300.3929206 +22.6014517     338.8004      69.3129      1.350     4.15    -8.782675     19.57523     50.38109        10     1.058     0.893 -70.04   0
       237    495.8373     44.4504 300.3326691 +22.5432081     448.4021     69.36595      1.290     2.53    -8.544897     19.57523     72.68973        10     0.901     0.703  80.70   0
       238    399.8277     42.4236 300.3034509 +22.5138545     343.7265     69.36595      1.169     3.45    -8.475142     19.57523     50.61106         8     0.925     0.651 -72.88   0
       239    171.0556     32.6927 300.2354693 +22.4424828     1906.135     69.43663      1.358     2.52     -8.86232     19.57523     257.3244        18     1.019     0.893  54.08   0
       240    739.1601     33.1006 300.4121214 +22.6128383     326.0539     69.38363      1.137     3.41    -8.713779     19.57523     52.80889         7     0.756     0.666 -88.57   0
       241    732.2960     24.7302 300.4126976 +22.6083767     574.6239     69.50723      1.459     3.93    -8.668995     19.57523     63.53068        12     1.065     0.874  20.15   0
       242    286.8297     24.8394 300.2740077 +22.4749361     602.1641     69.36595      1.313     2.92    -8.558695     19.57523     76.35312        12     0.915     0.848  48.60   0
       243    770.0309     19.6095 300.4261159 +22.6182055     371.2726     69.38363      1.399     3.72    -8.626351     19.57523     33.48136         6     1.180     0.337  49.68   0
       244    693.1725     19.6417 300.4021597 +22.5951967     335.4388      69.4013      1.432     3.00    -8.640575     19.57523     33.39106         6     0.726     0.623  66.00   0
       245    239.3400   1004.5570 299.9408745 +22.7416816     4382.761     69.36596      9.728    30.78     1.085129     19.57523     104.5843       492     9.150     4.739  61.55  26
       246    547.3374   1020.1829 300.0315852 +22.8386551     988.4825     68.35092      1.052     2.00    -13.12365     19.57523     199.8702        11     0.774     0.715 -77.63  16
       247    633.7654   1015.3726 300.0600575 +22.8632216     4100.322      69.4013      1.070     1.79     -13.0465     19.57523     776.3699        26     0.993     0.887  72.68   2
