#   1 NUMBER                 Running object number                                     
#   2 X_IMAGE                Object position along x                                    [pixel]
#   3 Y_IMAGE                Object position along y                                    [pixel]
#   4 ALPHA_J2000            Right ascension of barycenter (J2000)                      [deg]
#   5 DELTA_J2000            Declination of barycenter (J2000)                          [deg]
#   6 FLUX_APER              Flux vector within fixed circular aperture(s)              [count]
#   7 FLUXERR_APER           RMS error vector for aperture flux(es)                     [count]
#   8 FLUX_RADIUS            Fraction-of-light radii                                    [pixel]
#   9 FWHM_IMAGE             FWHM assuming a gaussian core                              [pixel]
#  10 BACKGROUND             Background at centroid position                            [count]
#  11 THRESHOLD              Detection threshold above background                       [count]
#  12 FLUX_MAX               Peak flux above background                                 [count]
#  13 ISOAREA_IMAGE          Isophotal area above Analysis threshold                    [pixel**2]
#  14 A_IMAGE                Profile RMS along major axis                               [pixel]
#  15 B_IMAGE                Profile RMS along minor axis                               [pixel]
#  16 THETA_IMAGE            Position angle (CCW/x)                                     [deg]
#  17 FLAGS                  Extraction flags                                          
         1    164.2330      8.4111 300.2354023 +22.4424318     1874.694     69.33692      1.212     2.23    -8.538599     19.56704     270.1926        18     0.974     0.882  15.05   0
         2    732.0956      8.5202 300.4120515 +22.6125749     259.3858      69.4605      1.001     2.94    -8.006469     19.56704     45.10799         6     0.769     0.494   6.99   0
         3    280.2352      1.3233 300.2737577 +22.4751615     320.6938     53.88579      0.908     2.28    -8.474335     19.56704     90.74426         5     0.734     0.558  40.63  24
         4    725.3540      1.2474 300.4123094 +22.6084652     236.8003     53.54365      0.917     2.13    -7.917994     19.56704     79.05285         5     0.716     0.418  10.47  24
         5    166.3580    995.2963 299.9154435 +22.7261797     1010.914     69.35459      7.690    10.38     20.63424     19.56704     41.43079        16     2.460     1.220  53.12   3
         6     52.3101    975.9175 299.8863268 +22.6863695     1886.879      69.4605     19.521    29.24    -1.070827     19.56704     48.37792       156     5.168     4.591  19.10   3
         7     71.4214    956.4655 299.8985935 +22.6865375     2520.053     69.33692     28.984    87.37   -0.4628465     19.56704      57.6945      1592    18.363    11.535 -88.84  19
         8    626.9214    991.0628 300.0600615 +22.8632340      4234.51     69.44286      1.211     1.90    -12.75943     19.56704     798.1998        27     1.028     0.939  29.33   3
         9    159.8893    981.7766 299.9178350 +22.7203628     865.3867     69.28389      3.892     7.69     15.69922     19.56704     35.30643        16     2.093     0.790 -82.81   0
        10    191.7888    977.9709 299.9289852 +22.7288528      314.254     69.35459      2.172     5.16     13.26148     19.56704      31.4726         5     1.194     0.630  -1.96   0
        11    168.1651   1003.8200 299.9132301 +22.7291649     1548.888     69.37225      6.100    12.97      24.1237     19.56704     42.83901        33     2.281     2.052  33.84   2
        12    919.7774    974.6777 300.1566286 +22.9463835     423.7581     69.31925      1.352     2.64    -13.34461     19.56704     74.95151         7     0.955     0.460  29.14   0
        13     71.1509    920.1222 299.9103379 +22.6760429     1791.124     69.35459     22.208    40.79    -8.229883     19.56704     53.08238       357     7.622     6.060 -48.16   3
        14     51.3202   1002.1442 299.8774819 +22.6935856     891.0236     69.38992      9.499    10.50     2.936619     19.56704     34.74523        14     2.403     1.279 -85.22   3
        15    138.5852    963.7899 299.9170713 +22.7088100     545.3425      69.2662      2.663     3.39     8.601689     19.56704     29.40453         5     0.764     0.436  68.53   1
        16    137.7313    959.3069 299.9182652 +22.7072689     779.0667     69.47814      6.336     8.17     6.638215     19.56704     43.31759        12     1.571     1.188 -24.79   0
        17    645.2919    958.1132 300.0765078 +22.8592945     3377.548      69.5134      1.182     2.05    -12.65365     19.56704     579.7183        24     1.017     0.880  38.47   0
        18    540.5504    995.9066 300.0316001 +22.8387031      1152.19     69.40757      1.108     1.91    -12.98373     19.56704     193.8563        14     0.863     0.796  35.90   0
        19    193.1744    990.5490 299.9253212 +22.7328735     1914.993     69.37225      6.945    15.10     18.59163     19.56704     57.66217        55     2.929     2.163 -48.75   2
        20    100.8217    943.6658 299.9118909 +22.6917010     1318.084     69.31925     17.215    17.65    0.2864859     19.56704     33.54202        30     5.183     1.671 -79.66   3
        21    632.5910    988.7734 300.0625719 +22.8642786     4617.854     69.35459      1.159     1.91    -12.74991     19.56704     769.2038        30     1.016     0.977  13.38   3
        22    109.3847    941.0348 299.9154070 +22.6935191      855.705     69.35459      5.988     6.72   -0.8054306     19.56704     38.93708         9     1.939     0.654 -38.47   3
        23    226.9329    977.9274 299.9399205 +22.7393947     1774.395     69.38992      9.545    15.67     11.54888     19.56704     57.53998        51     3.548     1.924 -83.57   3
        24     97.1982   1021.0452 299.8855766 +22.7127829     2937.903     65.83836      6.855    27.61     31.19601     19.56704     73.25081       224     6.313     3.353  -1.65  27
        25    553.7565    949.0273 300.0509713 +22.8292214     817.8875     69.37225      1.053     1.83    -12.54693     19.56704     160.1826         9     0.777     0.626  25.87   0
        26    447.6913    945.6145 300.0190794 +22.7964099     598.2612     69.28389      1.065     1.89     -12.5107     19.56704     100.1165         8     0.793     0.560 -21.62   0
        27    378.3116    943.5376 299.9981758 +22.7749883     3205.942     69.44286      1.107     1.94     -12.4687     19.56704     506.0125        21     0.944     0.868  19.01   0
        28    234.8746    980.2876 299.9416204 +22.7424561     3900.808     69.49577      6.363    32.87     9.275394     19.56704     96.58924       294     9.176     3.571  54.27  18
        29    270.2242    926.9136 299.9699806 +22.7377722     119.9396     69.31925      1.042     3.78    -11.06815     19.56704      32.7622         5     0.795     0.516  33.58   0
        30    222.8387   1004.6221 299.9299578 +22.7458156     171.5385     69.37225      1.073     2.34     24.18121     19.56704       56.504         5     0.732     0.421  23.72   0
        31    203.4077    997.8965 299.9261090 +22.7380524     887.2734     69.24852      6.647     5.85     21.35713     19.56704     50.03552        17     1.672     1.189  69.12   3
        32    924.3831    921.9587 300.1752262 +22.9326315     1175.072     69.37225      1.142     1.98    -12.93782     19.56704     188.0992        13     0.842     0.803  66.16   0
        33    211.9251    993.2936 299.9302543 +22.7392914     1816.009     69.49577      8.198    14.18     19.10678     19.56704       49.675        48     2.777     2.014 -74.19   3
        34    216.5527    989.2778 299.9329997 +22.7395303     1508.638     69.35459      5.534     8.41     17.29464     19.56704     46.48695        23     2.274     0.868 -67.94   3
        35    713.7557    910.9651 300.1131743 +22.8663069     296.0731     69.40757      1.441     4.82    -12.64863     19.56704     50.30638         6     1.160     0.568  54.27   0
        36    211.3693    986.1866 299.9323952 +22.7370878      1904.72     69.33692      9.639    10.69     16.13004     19.56704     62.53863        52     2.429     1.917  28.73   3
        37    748.2593    905.1248 300.1258221 +22.8749806     461.8501     69.40757      1.047     1.79    -12.65561     19.56704     104.6123         8     0.693     0.647 -43.69   0
        38    770.3555    898.8957 300.1347327 +22.8798205     5627.056     69.37225      1.109     1.76     -12.6428     19.56704     1076.924        29     0.961     0.912  65.08   0
        39    815.9633    898.8080 300.1489708 +22.8934738     302.5117     69.35459      1.467     2.15    -12.65767     19.56704     48.58968         5     0.764     0.455  56.10   0
        40     81.7189    890.9124 299.9231255 +22.6708469     419.7639     69.47814      1.284     2.36    -9.337145     19.56704     56.93406         7     0.703     0.650 -74.65   0
        41    822.2370    886.4182 300.1549579 +22.8917991     209.6794     69.35459      1.241     3.46    -12.61805     19.56704     31.76181         5     0.771     0.448  19.30   0
        42    727.2750    991.3277 300.0912248 +22.8934205     208.6996     69.40757      1.109     2.38     -12.7493     19.56704     59.84661         5     0.715     0.443  84.08   0
        43    778.9200    880.9249 300.1432494 +22.8772316     781.9572      69.4605      1.036     1.78    -12.58593     19.56704     168.5664         8     0.710     0.616 -46.60   0
        44    817.0964    874.3182 300.1572939 +22.8867844     495.1788     69.49577      1.331     2.20    -12.58148     19.56704     76.69777         7     0.731     0.600  -1.49   0
        45    865.3086    865.6285 300.1751460 +22.8987473     331.5018     69.31925      1.281     3.46     -12.5571     19.56704     51.16012         5     0.744     0.464 -13.38   0
        46    716.7119    864.5022 300.1292159 +22.8538605     425.7274      69.5134      1.153     2.35    -12.43253     19.56704     72.88274         8     0.847     0.588  64.65   0
        47    429.4965    861.1283 300.0409148 +22.7667201     1893.856      69.4605      1.019     1.73     -11.8636     19.56704     371.0743        15     0.864     0.742  34.58   0
        48    154.7812    846.7645 299.9601858 +22.6801348     347.4228     69.35459      1.117     2.47    -10.59296     19.56704     68.82729         9     0.859     0.643 -72.28   0
        49    131.7733    843.9193 299.9539636 +22.6724106     786.7346     69.33692      1.246     2.57    -10.66708     19.56704     127.1772        14     0.922     0.870  37.42   0
        50   1003.3975    832.6501 300.2289271 +22.9306769     1066.961     69.35459      1.105     2.05    -12.35076     19.56704     181.7936        13     0.860     0.774 -50.92   0
        51    957.6157    831.2963 300.2150920 +22.9165647      1006.12      69.2662      1.066     1.91    -12.37601     19.56704     200.9666        12     0.840     0.752  64.75   0
        52    741.1606    825.4354 300.1495427 +22.8499810     370.0714     69.40757      1.220     2.24    -12.37804     19.56704     71.26321         5     0.738     0.533  51.30   0
        53    164.0202    825.2793 299.9700462 +22.6767501     166.5835     69.35459      1.176     2.93    -10.82118     19.56704     40.87844         5     0.791     0.483  59.37   0
        54    609.4073    819.1755 300.1105510 +22.8086664     2174.745     69.35459      1.018     1.77    -11.77748     19.56704     436.4934        16     0.851     0.757  82.16   0
        55    411.7620    816.2957 300.0499849 +22.7485393     195.6405     69.33692      1.088     2.05    -11.63096     19.56704     56.05489         6     0.670     0.604  48.91   0
        56    159.6268    813.1802 299.9726171 +22.6719627      579.762     69.35459      1.196     2.62    -10.93543     19.56704     97.34302        10     0.917     0.705  16.34   0
        57    629.9650    811.6965 300.1193843 +22.8126870     336.1597     69.35459      1.054     1.84    -11.80296     19.56704     89.67981         7     0.702     0.586  30.44   0
        58    785.4112    798.9469 300.1719456 +22.8556474     2119.149     69.35459      1.057     1.72    -12.28965     19.56704     414.0711        16     0.860     0.762  56.46   0
        59   1002.2926    798.9697 300.2395408 +22.9206730     633.4243     69.30157      1.042     1.90    -12.29953     19.56704     132.8727         9     0.808     0.616  26.51   0
        60    148.7880    789.6298 299.9769101 +22.6619573     477.8167     69.35459      1.096     2.22    -11.08741     19.56704     81.77326         8     0.812     0.599  19.02   0
        61    564.1224    784.7066 300.1076678 +22.7851913     239.7225     69.49577      1.043     2.18    -11.64316     19.56704     56.80976         6     0.715     0.575  78.20   0
        62    298.5087    781.6918 300.0260234 +22.7046256      26326.7      69.5134      1.124     1.90    -11.34261     19.56704     4146.178        57     1.073     1.031 -85.29   0
        63    556.4054    780.6405 300.1065885 +22.7817095     726.9935     69.37225      0.988     1.85    -11.64393     19.56704      134.917         9     0.751     0.637  63.48   0
        64    969.2374    779.7046 300.2355006 +22.9052326     418.0287     69.33692      1.143     2.36    -12.17038     19.56704     84.19739         9     0.821     0.690   9.49   0
        65    226.7919    779.7499 300.0043625 +22.6825421     108.7566     69.35459      0.991     2.99    -11.08339     19.56704     44.41051         6     0.859     0.615 -70.20   0
        66    585.2082    776.8139 300.1167985 +22.7892517     339.8179      69.2662      1.052     2.21    -11.62961     19.56704     69.31471         8     0.768     0.627  36.62   0
        67    596.2552    775.1338 300.1207838 +22.7920832     255.4412     69.40757      0.824     1.88     -11.6246     19.56704     62.32732         6     0.690     0.531  36.62   0
        68    739.0595    761.4735 300.1696958 +22.8309911     281.0683     69.38992      0.941     1.77    -11.86434     19.56704     71.77134         6     0.690     0.494   8.47   0
        69    348.2141    758.8974 300.0488921 +22.7130058     15298.87     69.24852      1.131     1.82    -11.33601     19.56704     3033.698        40     1.005     0.972  71.21   0
        70    362.4760    759.4175 300.0531579 +22.7174349     904.2535     69.35459      1.021     2.02    -11.36562     19.56704     139.1738        12     0.790     0.756 -35.85   0
        71    871.3203    754.5950 300.2131436 +22.8686707     1328.952     69.28389      1.031     1.74    -11.91862     19.56704     264.1196        14     0.806     0.749  13.83   0
        72    359.2278    753.4064 300.0541028 +22.7147360     432.8507     69.35459      1.146     1.85    -11.35073     19.56704     66.13605         5     0.675     0.445  24.29   0
        73    230.6772    750.9596 300.0149338 +22.6754530     479.8258     69.33692      1.258     2.98    -11.11434     19.56704     70.08833         7     0.836     0.637  86.25   0
        74    629.0931    750.6087 300.1389841 +22.7948944     632.2236     69.28389      1.250     2.29    -11.63675     19.56704     108.9571        10     0.847     0.734  25.02   0
        75    465.8809    751.0225 300.0880524 +22.7460539     174.1061     69.31925      1.025     3.92    -11.57942     19.56704     37.53929         6     1.001     0.439  49.92   0
        76     35.3443    746.5666 299.9556792 +22.6155511     243.6567     69.37225      1.060     2.98    -12.00003     19.56704     40.19677         5     0.709     0.461 -19.80   0
        77    476.1703    745.4572 300.0930638 +22.7475442     331.0367     69.37225      0.985     2.90    -11.58634     19.56704     61.94743         6     0.759     0.494   6.11   0
        78    877.4878    742.4177 300.2190267 +22.8670227     297.5579     69.30157      1.007     3.75    -11.77543     19.56704     57.95807         6     1.037     0.459  44.78   0
        79    378.6858    741.8604 300.0639091 +22.7172630     168.4596      69.4605      1.065     3.92    -11.39212     19.56704     44.43997         5     0.930     0.472  40.73   0
        80    228.5825    734.8867 300.0195099 +22.6702153     243.1805     69.30157      1.116     2.75    -11.11292     19.56704      40.9939         5     0.719     0.462  71.66   0
        81    521.5102    723.6959 300.1142492 +22.7549018     389.1614     69.53102      1.156     3.36    -11.49016     19.56704     54.64799         5     0.732     0.448  67.37   0
        82    430.7089    722.4850 300.0863914 +22.7273141     114.7483      69.5134      1.097     3.42    -11.38622     19.56704     41.42794         5     0.760     0.445 -21.72   0
        83    937.6324    719.8724 300.2451079 +22.8785758     2265.436     69.35459      1.038     1.61    -11.61241     19.56704     471.9235        19     0.881     0.795  88.87   0
        84    543.1418    721.1036 300.1218244 +22.7606466     599.5269     69.42522      1.102     1.97    -11.47131     19.56704     139.4247         9     0.727     0.691  50.98   0
        85    926.0705    711.2761 300.2442990 +22.8726415     806.0319     69.42522      1.031     1.68    -11.49666     19.56704     181.8571        10     0.771     0.670  65.81   0
        86    289.1249    705.3107 300.0479465 +22.6799035     444.0135     69.49577      1.096     2.61    -11.09776     19.56704     82.93394         8     0.868     0.604  -2.81   0
        87    752.2630    702.5855 300.1929609 +22.8180441     1192.079     69.31925      1.114     2.06    -11.56385     19.56704     189.9056        12     0.859     0.693  30.77   0
        88    957.1580    701.4188 300.2571969 +22.8791272     929.6363     69.37225      1.046     1.70     -11.4492     19.56704     172.2182        10     0.771     0.632  77.82   0
        89    970.5760    692.2563 300.2643602 +22.8805165     198.9145     69.35459      1.156     3.33    -11.37295     19.56704     34.22187         5     0.765     0.421 -66.06   0
        90    137.7209    689.1819 300.0061375 +22.6298360     315.9695     69.35459      1.172     3.07    -11.12945     19.56704     55.85677         6     0.905     0.644  83.08   0
        91    870.8279    679.5521 300.2373953 +22.8469727     72436.57     69.37225      1.063     1.73    -11.21292     19.56704     13542.47        92     1.120     1.058  75.78   0
        92   1017.9191    681.2380 300.2827070 +22.8915380     556.3878     69.31925      1.119     2.30    -11.31061     19.56704     129.0262        10     0.874     0.656  64.19  16
        93    723.2453    680.1282 300.1912245 +22.8028963     497.1121     69.31925      1.375     3.36    -11.49537     19.56704     61.37571         9     0.892     0.734 -87.75   0
        94    903.5619    672.1929 300.2499914 +22.8546700     219.5143     69.37225      1.048     2.20    -11.12148     19.56704     43.31108         5     0.676     0.483 -76.11   0
        95    557.2136    668.3939 300.1433435 +22.7497401     768.0076     69.23082      1.014     1.81    -10.99901     19.56704     139.9066         9     0.727     0.678 -88.08   0
        96    738.3501    665.7184 300.2006148 +22.8032876     4505.709     69.37225      1.064     1.76     -11.3989     19.56704     872.0867        25     0.943     0.854  77.94   0
        97    239.9282    660.9916 300.0470632 +22.6524281      2433.68     69.33692      1.191     1.98    -10.98422     19.56704     438.0243        20     0.944     0.857  53.98   0
        98    321.8945    658.9871 300.0731962 +22.6764492     503.9119     69.28389      1.107     1.93    -10.95542     19.56704     114.6732         9     0.740     0.674  56.31   0
        99    530.1058    654.2011 300.1395210 +22.7375366     459.0417     69.24852      1.249     1.99    -10.97135     19.56704     79.64673         8     0.738     0.639 -61.06   0
       100    521.7191    646.5533 300.1393974 +22.7328263     1495.522     69.35459      1.098     1.81    -10.94153     19.56704     264.8334        16     0.938     0.766 -68.90   0
       101    512.2554    640.3165 300.1384798 +22.7281979      805.873     69.44286      1.219     2.07    -10.91239     19.56704     142.4284        12     0.909     0.712  55.36   0
       102    175.3276    636.4711 300.0349581 +22.6260082     268.8567     69.42522      1.019     2.59    -11.09598     19.56704     54.71737         8     0.866     0.645 -85.84   0
       103    189.4234    635.1573 300.0397654 +22.6298618     302.0255     69.40757      1.033     2.28    -11.08277     19.56704     62.01683         5     0.716     0.427  64.31   0
       104    215.3801    631.8455 300.0489084 +22.6367016      251.713     69.40757      1.034     2.28    -11.06287     19.56704     44.93214         6     0.707     0.582  33.95   0
       105    437.0113    630.2474 300.1183415 +22.7027392     736.1227     69.37225      1.159     2.20    -10.87663     19.56704     144.0673        11     0.864     0.747  53.91   0
       106   1012.6060    627.2032 300.2986187 +22.8744215     381.8372     69.17771      1.021     1.85    -11.23475     19.56704     78.48103         6     0.664     0.556  38.81   0
       107     90.8594    625.1810 300.0123859 +22.5974179     9614.068     69.30157      1.203     1.99    -11.28159     19.56704     1666.991        36     1.023     0.986 -82.01   0
       108     11.6407    626.7306 299.9872799 +22.5740816     448.8925     69.33692      1.285     2.22    -11.39913     19.56704     53.90407         5     0.686     0.461  74.94   0
       109    521.8116    625.0678 300.1464107 +22.7266875     543.1566     69.35459      1.424     3.94    -10.84597     19.56704     77.22142         8     1.066     0.578 -50.99   0
       110    939.8171    611.4811 300.2810324 +22.8480949     523.7748     69.37225      1.062     2.12     -11.0012     19.56704     112.3117         8     0.781     0.593  72.01   0
       111     36.8154    609.0412 300.0008468 +22.5765673     713.9133     69.37225      1.665     4.19     -11.3154     19.56704     83.56496        11     1.180     0.636 -78.10   0
       112    880.0021    604.0978 300.2647860 +22.8280496     375.8549      69.2662      0.936     1.76    -10.73257     19.56704     81.97672         5     0.600     0.520  -0.13   0
       113    442.0031    598.3819 300.1302524 +22.6950920      390.025      69.2662      1.017     2.27    -10.69415     19.56704     93.58129         7     0.865     0.471  -9.57   0
       114    590.0800    596.5925 300.1769155 +22.7389860     219.6707     69.28389      0.963     2.64    -10.48759     19.56704     63.82829         5     0.843     0.504 -47.38   0
       115    637.0976    595.1780 300.1920133 +22.7526775     173.3179     69.28389      1.055     2.86      -10.504     19.56704     34.92441         6     0.748     0.555  41.29   0
       116    486.1023    594.0814 300.1453707 +22.7070842     490.1252     69.49577      1.275     2.29    -10.57279     19.56704      80.4246         6     0.678     0.579  47.27   0
       117    919.8465    589.5299 300.2819417 +22.8358045     1526.892     69.33692      0.989     1.67    -10.87275     19.56704       328.54        13     0.785     0.724  62.22   0
       118    451.7661    589.6822 300.1361173 +22.6955235     915.2531     69.31925      1.132     2.08    -10.58602     19.56704     145.0894        12     0.846     0.746 -71.16   0
       119   1017.8295    587.7103 300.3130859 +22.8646387     320.6919     69.31925      1.083     2.67    -11.28573     19.56704     65.05927         6     0.734     0.557  44.90   0
       120     13.7000    583.4353 300.0019907 +22.5622866     2573.116     69.33692      1.199     2.14    -11.34085     19.56704     330.3356        20     1.054     0.888  22.46   0
       121    315.0926    576.3918 300.0979286 +22.6507123     4327.655      69.2662      1.123     1.92    -10.75127     19.56704     731.3885        26     1.000     0.920  65.52   0
       122    437.4647    573.4282 300.1369508 +22.6865693     4265.658     69.35459      1.095     1.98    -10.43993     19.56704     601.6307        25     0.949     0.930 -83.35   0
       123    849.1394    567.3121 300.2671236 +22.8082338     863.2278     69.42522      1.105     1.80    -10.60715     19.56704      174.056        11     0.803     0.731  43.35   0
       124    933.6945    564.6989 300.2943298 +22.8328197     6068.934     69.53102      1.062     1.76    -10.87331     19.56704     1182.953        22     0.906     0.822  50.54   0
       125    498.0066    563.0316 300.1591663 +22.7017421     5752.051     69.35459      1.196     1.93    -10.09065     19.56704     1074.006        28     1.038     0.908 -82.43   0
       126    225.6143    558.7628 300.0758419 +22.6188090     733.0272     69.35459      1.258     2.55    -10.98503     19.56704     99.69701        14     0.964     0.812  86.90   0
       127    472.0782    556.0308 300.1533735 +22.6919569     161.2583     69.33692      0.869     3.68    -10.09713     19.56704     33.32389         5     0.644     0.605 -87.11   0
       128    429.6909    551.2467 300.1417409 +22.6778716      2113.16     69.33692      1.150     1.87     -10.2451     19.56704     353.8219        20     1.049     0.839  65.31   0
       129    772.5062    550.9955 300.2485472 +22.7805806     305.1258     69.24852      1.069     2.61    -10.47427     19.56704     63.70084         6     0.760     0.497 -84.65   0
       130    408.0114    549.7132 300.1354954 +22.6709292     653.6834     69.30157      1.152     2.25     -10.3095     19.56704     119.9541         9     0.869     0.602  53.03   0
       131    162.1701    549.2589 300.0592141 +22.5970457     353.3333     69.37225      1.199     2.75    -10.97352     19.56704     55.34875         9     0.880     0.656 -71.01   0
       132    849.4355    546.5054 300.2739779 +22.8023454     779.4739     69.35459      1.239     2.21    -10.52402     19.56704     107.6174        11     0.853     0.721 -55.75   0
       133    546.3243    538.7651 300.1820891 +22.7092647     98897.66     69.31925      1.153     1.92    -9.575487     19.56704     16993.52       123     1.218     1.177 -74.80   0
       134    729.9259    543.5361 300.2377066 +22.7656759     458.4582     69.38992      1.276     2.11    -10.42665     19.56704     81.41016         7     0.878     0.519 -75.62   0
       135    822.6118    541.4265 300.2672691 +22.7928482     196.4767     69.35459      1.127     4.24    -10.45895     19.56704     25.80619         5     0.986     0.519  44.60   0
       136    232.4527    538.7681 300.0844646 +22.6151246     1736.411     69.37225      1.101     1.97    -10.87527     19.56704     271.3249        15     0.861     0.774 -69.34   0
       137    577.9960    525.6945 300.1961947 +22.7150081     139.4234      69.2662      1.157     4.12    -9.564058     19.56704     29.68236         5     0.810     0.599  89.47   0
       138    436.9038    518.9610 300.1544758 +22.6707681     1236.176     69.33692      1.223     1.95    -9.965264     19.56704     229.2576        16     0.960     0.805  86.93   0
       139    848.2641    515.4665 300.2836993 +22.7930774     179.1564     69.40757      0.982     2.83    -10.42071     19.56704     44.13031         5     0.737     0.461 -19.29   0
       140    754.4136    507.6708 300.2569892 +22.7627140     247.8036     69.35459      1.057     3.15    -10.34845     19.56704     37.34095         5     0.731     0.443 -68.21   0
       141    833.7471    504.9951 300.2825776 +22.7857192     854.3511     69.33692      1.175     1.73    -10.37539     19.56704     162.1396        10     0.779     0.703 -71.64   0
       142    705.1322    502.7529 300.2432361 +22.7465314     1215.686     69.33692      1.166     1.98    -10.13014     19.56704     244.3667        14     0.856     0.829  11.82   0
       143    492.2537    498.8926 300.1782175 +22.6816051     299.5118     69.40757      1.159     2.28     -9.68856     19.56704     60.30486         8     0.766     0.655  46.24   0
       144    962.4156    496.7868 300.3253538 +22.8219100     608.1542     69.30157      1.027     2.00    -10.67837     19.56704     115.5683         9     0.788     0.635 -23.90   0
       145    834.2271    495.5527 300.2857952 +22.7831502     1023.933     69.37225      1.082     1.71    -10.34982     19.56704     189.8535        14     1.064     0.682  52.70   0
       146    587.4337    493.2069 300.2096884 +22.7085093     251.3887     69.35459      1.224     3.21    -9.458237     19.56704     34.89254         5     0.726     0.467  72.52   0
       147    872.3352    490.3179 300.2993729 +22.7930643     2148.806      69.4605      1.091     1.83    -10.35936     19.56704      396.539        17     0.921     0.804  54.62   0
       148    964.1591    480.8452 300.3310770 +22.8178509     319.9725     69.42522      1.120     1.93    -10.58832     19.56704     85.93054         7     0.711     0.623 -45.21   0
       149    104.3308    480.8337 300.0634755 +22.5600623     557.5775     69.35459      1.230     2.45    -10.68567     19.56704      87.5462        10     0.894     0.678  56.55   0
       150     96.8733    470.5215 300.0645087 +22.5548665     321.6764      69.4605      1.146     4.10    -10.68346     19.56704     50.29982         6     0.949     0.505 -35.65   0
       151    645.8785    460.9861 300.2383525 +22.7167757     218.9414     69.37225      1.033     2.15    -9.589679     19.56704     60.88111         5     0.595     0.579  -5.22   0
       152    706.6210    453.0629 300.2598431 +22.7327051     546.9464     69.31925      1.178     2.13    -9.925559     19.56704     76.88287         7     0.778     0.540  62.40   0
       153    863.7333    449.0717 300.3100918 +22.7786356     509.5562     69.38992      1.162     1.93    -10.13747     19.56704     105.8711         7     0.772     0.536  64.48   0
       154    847.9207    445.0170 300.3064806 +22.7727332     268.2973     69.35459      1.161     3.70    -10.11103     19.56704     66.00864         6     1.057     0.499  75.48   0
       155    592.4109    443.5231 300.2273781 +22.6957339      1559.19     69.35459      1.097     2.06    -9.522814     19.56704     256.3611        16     0.925     0.816  58.21   0
       156    952.8651    442.3386 300.3400651 +22.8034011      286.726     69.38992      1.109     2.63    -10.38459     19.56704     47.76235         7     0.719     0.641 -38.46   0
       157   1003.7210    422.5201 300.3623616 +22.8129365     643.0879     69.47814      1.055     1.96    -10.78642     19.56704     128.5697        12     0.962     0.646 -30.85   0
       158    875.7932    422.5327 300.3224714 +22.7746223     186.0974     69.33692      1.205     3.42      -10.007     19.56704     40.44041         5     0.745     0.455  20.33   0
       159    961.9227    421.1425 300.3497745 +22.8000219     465.8035     69.38992      1.127     2.09    -10.40129     19.56704      86.3237         7     0.791     0.525 -43.96   0
       160    702.9003    417.4245 300.2702604 +22.7213527     416.3585     69.30157      1.022     2.05    -9.822322     19.56704     81.59882         7     0.751     0.580 -65.09   0
       161    207.2319    416.0291 300.1164977 +22.5723416     285.1747     69.35459      1.308     2.21    -10.23931     19.56704     55.99088         7     0.702     0.651 -88.14   0
       162    269.2644    411.5341 300.1372392 +22.5896580     1730.663     69.40757      1.136     2.06    -10.00912     19.56704     276.8999        14     0.843     0.799 -87.26   0
       163   1002.2894    409.8148 300.3660419 +22.8088556     2330.486     69.30157      1.153     1.83    -10.68635     19.56704     433.2936        18     0.959     0.776  64.81   0
       164    216.4793    406.4670 300.1224771 +22.5723715     3741.312      69.4605      1.152     2.09    -10.19709     19.56704     498.9386        26     1.057     0.933  86.39   0
       165    357.3323    400.6517 300.1681568 +22.6129457     2285.278     69.35459      1.140     2.16    -9.709227     19.56704     362.6293        19     1.017     0.827  67.78   0
       166    982.2480    400.9168 300.3626819 +22.8002957     861.5093     69.35459      1.158     1.95    -10.44525     19.56704     185.4214        11     0.819     0.736  55.79   0
       167    601.4277    397.2286 300.2452215 +22.6851409     8869.023     69.31925      1.158     2.08    -9.634526     19.56704     1252.285        34     1.061     0.955  81.73   0
       168    619.2037    397.1786 300.2507721 +22.6904542     369.4835     69.31925      1.752     4.46    -9.653065     19.56704     47.45849         6     1.270     0.445 -34.99   0
       169    935.0932    379.6925 300.3548715 +22.7800722     421.6451      69.5134      1.147     2.75     -10.0295     19.56704     78.50848         8     0.847     0.701  88.03   0
       170    156.1356    377.4638 300.1131428 +22.5459479      970.196     69.38992      1.122     2.34    -10.25883     19.56704     143.7082        12     0.905     0.744  64.05   0
       171    542.0965    366.6722 300.2366754 +22.6585817     3209.576     69.47814      1.218     2.07     -9.64798     19.56704     522.1802        23     1.002     0.910 -82.33   0
       172    955.6903    366.9752 300.3654235 +22.7825853     592.0751     69.30157      1.260     2.68     -10.0716     19.56704     95.31911         9     0.891     0.677 -18.07   0
       173    256.9381    366.1664 300.1481398 +22.5729403     322.0414     69.37225      1.223     3.54    -9.855783     19.56704     42.89205         5     0.787     0.509  60.70   0
       174    114.3803    359.2132 300.1060956 +22.5281854     200.2421     69.31925      1.164     2.18    -10.29821     19.56704     48.07027         5     0.690     0.458  71.96   0
       175    746.3483    355.3659 300.3039482 +22.7165418     598.7411     69.37225      1.348     2.83    -9.951769     19.56704     84.59822        10     1.047     0.575 -82.56   0
       176    655.8423    356.6745 300.2753338 +22.6897993     207.2679     69.33692      1.014     2.11    -9.777107     19.56704     47.43914         5     0.720     0.426  19.58   0
       177    448.7129    352.9625 300.2120674 +22.6266521     3040.504     69.33692      1.174     1.94    -9.684143     19.56704     526.0085        22     0.985     0.870  53.16   0
       178    840.5585    347.2431 300.3359407 +22.7424304     614.7082      69.4605      1.039     2.07    -9.947549     19.56704     126.4592         9     0.840     0.643  53.65   0
       179    937.9682    347.2377 300.3663071 +22.7716041     331.7549     69.37225      1.192     2.11    -9.947173     19.56704     78.15407         5     0.646     0.507  87.29   0
       180    813.5903    334.6811 300.3316153 +22.7307419     213.4103     69.30157      1.072     2.79    -9.945689     19.56704     42.04099         5     0.697     0.473  74.73   0
       181    336.2909    332.1791 300.1838468 +22.5869795     1235.786     69.30157      1.204     2.14    -9.660311     19.56704     200.8973        15     0.992     0.771  65.77   0
       182     54.6266    329.7272 300.0971075 +22.5017995     447.2877     69.35459      1.343     3.12    -10.22774     19.56704     64.61473         8     0.913     0.587  70.43   0
       183    305.5991    321.7008 300.1777050 +22.5747687     14547.99     69.19542      1.204     2.03    -9.591443     19.56704     2373.736        45     1.152     1.001  80.65   0
       184    840.1528    319.0167 300.3449791 +22.7341964     670.4186     69.38992      1.150     2.04    -9.922802     19.56704      126.736         9     0.733     0.701  81.44   0
       185      2.0631    309.6509 300.0873010 +22.4802700     2326.326     57.87611      1.205     2.36    -10.17984     19.56704     334.3017        19     1.083     0.797  73.79  24
       186    755.5516    307.8684 300.3222369 +22.7056504     348.5921     69.35459      1.127     2.19    -9.947641     19.56704     54.24927         5     0.688     0.481  74.91   0
       187    403.9702    306.9445 300.2130886 +22.6000250     246.8407     69.37225      1.202     2.71    -9.536763     19.56704     42.86112         5     0.614     0.599 -84.71   0
       188    715.9911    301.2918 300.3120483 +22.6919091     1003.974     69.28389      1.237     2.07    -9.936446     19.56704     156.6053        15     0.928     0.839  82.92   0
       189    377.7557    286.0631 300.2117131 +22.5861702     973.0654     69.37225      1.269     2.69    -9.552957     19.56704     137.5483        14     0.990     0.792  80.55   0
       190    817.1935    278.6946 300.3509143 +22.7157301     248.3865     69.24852      1.050     1.89    -9.857952     19.56704     67.13937         6     0.663     0.598  71.60   0
       191    453.5931    265.3899 300.2420150 +22.6029658     627.2964     69.23082      1.283     2.38    -9.392153     19.56704     82.89387         9     0.827     0.698 -81.63   0
       192     25.7805    266.3595 300.1087176 +22.4749641      207.808     69.38992      1.218     2.80    -10.02668     19.56704     32.79557         5     0.731     0.445 -18.03   0
       193    698.4339    257.1255 300.3209164 +22.6739577     1066.209     69.33692      1.192     2.44    -9.732825     19.56704      174.418        15     0.956     0.836  63.64   0
       194    959.5607    251.2797 300.4041922 +22.7504821     1511.371     69.33692      1.108     2.04    -9.743216     19.56704     239.0486        16     0.954     0.780  53.85   0
       195   1020.4379    246.0570 300.4248726 +22.7672061      370.332     67.69177      1.782     3.05    -9.787098     19.56704      35.2206         5     0.753     0.580   8.08  16
       196    407.0648    241.0311 300.2354458 +22.5820240     406.1947     69.35459      1.158     2.03    -9.223628     19.56704     64.12919         5     0.614     0.549 -88.48   0
       197    112.3803    235.4710 300.1456410 +22.4920747     250.2925     69.38992      1.163     3.13    -9.784878     19.56704     44.01932         7     0.848     0.640  68.62   0
       198     81.7435    235.2175 300.1362059 +22.4828135     704.6699     69.31925      1.531     3.74    -9.886366     19.56704     81.90508        14     1.109     0.979 -25.64   0
       199    975.5521    231.7686 300.4155115 +22.7496595     198.1302     69.38992      1.033     2.34    -9.697619     19.56704     45.30816         5     0.697     0.452  67.05   0
       200    165.1851    227.0156 300.1647918 +22.5054833     268.1258     69.31925      1.428     4.01    -9.378755     19.56704     31.25928         5     0.859     0.534 -35.26   0
       201     21.0689    223.9833 300.1210065 +22.4613909     203.8602     69.38992      1.244     3.71    -9.828864     19.56704     40.64076         6     0.898     0.642 -45.80   0
       202    770.3282    218.7937 300.3557533 +22.6844760     364.5569     69.31925      1.486     4.58    -9.512982     19.56704     47.88818         8     1.073     0.645  74.21   0
       203    868.2066    207.3845 300.3899579 +22.7105078     911.1509      69.2662      1.093     2.07    -9.506301     19.56704     162.6507        13     0.889     0.746  76.51   0
       204    286.8736    205.1465 300.2097123 +22.5356904     1011.677     69.37225      1.297     2.33    -9.246094     19.56704     158.7753        14     1.103     0.709  84.88   0
       205    364.8019    200.0075 300.2356128 +22.5575745     596.7546     69.17771      1.425     3.19    -9.238586     19.56704      74.3819        10     0.908     0.756   1.24   0
       206    766.8114    198.9554 300.3610954 +22.6777203     373.7443     69.35459      1.314     4.12     -9.46322     19.56704     46.33518         9     0.928     0.826  38.49   0
       207    181.5294    192.2013 300.1811675 +22.5003902     346.5064     69.28389      1.020     2.93    -9.286461     19.56704     63.63148         8     0.884     0.604  30.21   0
       208    719.3920    189.1717 300.3494976 +22.6607058     785.1438     69.35459      1.264     3.11     -9.43091     19.56704     96.70194        12     0.940     0.816 -45.77   0
       209    202.8529    185.7341 300.1898929 +22.5049269     254.0769     69.38992      1.169     2.92    -9.290453     19.56704     42.69156         6     0.740     0.567  44.73   0
       210    990.8540    181.4412 300.4366158 +22.7397672     454.5618     69.33692      1.101     2.49    -9.480377     19.56704      73.5944         8     0.797     0.632  82.23   0
       211    723.6323    180.6878 300.3535714 +22.6595373     333.5817     69.31925      1.063     2.78    -9.409391     19.56704     58.25109         6     0.742     0.534  38.65   0
       212    643.8592    179.8309 300.3290041 +22.6353964     681.0618     69.37225      1.236     2.43    -9.402904     19.56704     102.6839         9     0.874     0.656  78.45   0
       213    839.4280    171.2116 300.3927260 +22.6914904     669.9314     69.35459      1.153     2.46    -9.408675     19.56704     119.7102        10     0.855     0.683  55.84   0
       214    570.0267    171.6393 300.3086745 +22.6109240     464.7042     69.37225      1.202     2.87    -9.187505     19.56704     69.51178         9     0.892     0.666  44.74   0
       215    851.2496    169.9462 300.3968210 +22.6946663     400.9557     69.38992      1.216     2.52    -9.406837     19.56704     75.86378         8     0.877     0.597  84.60   0
       216   1012.0604    161.0607 300.4498426 +22.7402531      746.199     69.38992      1.140     2.06    -9.381787     19.56704     150.9457         9     0.735     0.723  74.55   0
       217    968.0940    160.5218 300.4363058 +22.7269376     589.8225     69.47814      1.043     1.87    -9.381787     19.56704      108.623         8     0.758     0.602  46.83   0
       218    202.0711    153.5463 300.2000927 +22.4954510     305.0268     69.37225      0.995     2.81    -9.155917     19.56704      51.4188         8     0.818     0.673 -50.23   0
       219     63.9564    148.6162 300.1587790 +22.4526231     1016.967     69.37225      1.254     2.45    -9.049672     19.56704     154.0886        13     0.926     0.801  66.67   0
       220    887.0521    145.2926 300.4159796 +22.6982969     435.6378     69.40757      1.274     2.73    -9.316562     19.56704      70.5902         7     0.950     0.632  45.56   0
       221    221.4307    141.9550 300.2098701 +22.4979266     2827.895     69.38992      1.264     2.12    -9.144023     19.56704      392.972        22     1.095     0.872  60.95   0
       222      5.4518    136.3271 300.1445955 +22.4315508      457.081     69.35459      1.194     2.68     -9.03258     19.56704     71.01941        13     0.941     0.824  57.51  16
       223    204.3617    132.4767 300.2076395 +22.4900880     296.6784     69.33692      1.087     3.01    -9.126625     19.56704     50.86406         5     0.707     0.470  18.70   0
       224   1020.2225    129.2297 300.4627155 +22.7335402     9129.548     68.21463      1.159     1.91    -9.303223     19.56704     1628.648        39     1.055     0.970  51.43  24
       225    865.4018    123.4465 300.4163182 +22.6855330     1710.984     69.35459      1.106     2.19     -9.19156     19.56704     236.2467        13     0.850     0.780 -79.77   0
       226    969.0762    122.0430 300.4490959 +22.7161646     1330.315     69.33692      1.168     1.97    -9.286036     19.56704     252.7173        14     0.920     0.807 -79.27   0
       227    414.7545    118.4780 300.2776012 +22.5491267     343.6125     69.33692      1.021     3.36    -8.948465     19.56704      45.1125         5     0.771     0.424 -24.16   0
       228    339.1347    110.1714 300.2567749 +22.5240792     353.3957     69.35459      1.352     4.02    -9.099216     19.56704     38.05286         6     0.794     0.581  55.54   0
       229    466.2438    106.0564 300.2976499 +22.5609860     718.8979     69.35459      1.218     2.59    -8.889246     19.56704     114.4447        11     0.942     0.755 -65.29   0
       230    105.0808    107.4434 300.1849091 +22.4531353     334.9622     69.33692      1.315     3.36    -9.035637     19.56704     42.15463         5     0.754     0.435  22.98   0
       231    528.1467    104.9867 300.3172611 +22.5792246      301.127     69.37225      1.607     3.96    -8.648591     19.56704     27.30975         6     0.938     0.478  56.00   0
       232    240.3390     85.8750 300.2339376 +22.4874903     2994.782     69.40757      1.255     2.30    -9.025129     19.56704     425.8981        25     1.067     0.961  58.76   0
       233     91.4965     85.3301 300.1878609 +22.4427138     376.0816     69.47814      1.354     2.72    -8.954555     19.56704     56.94202         6     0.685     0.654  58.45   0
       234    486.4550     71.1478 300.3152612 +22.5570108      3004.78     69.38992      1.216     2.18    -8.902833     19.56704     422.8236        19     0.966     0.899 -47.69   0
       235    372.0295     70.8390 300.2797623 +22.5226383       295.21     69.33692      1.281     2.70    -8.991698     19.56704     54.39312         7     0.738     0.652 -26.75   0
       236    738.9518     60.4124 300.3973601 +22.6295485     389.9133     69.35459      1.176     2.09    -8.586842     19.56704     71.21214         7     0.681     0.652 -84.88   0
       237    614.7324     51.1037 300.3616912 +22.5896739     3292.281      69.4605      1.296     2.23    -8.409718     19.56704      475.174        25     1.123     0.945  86.33   0
       238    389.6709     50.2224 300.2919354 +22.5220013     710.6532     69.38992      1.193     2.31    -8.941721     19.56704     108.2952        12     0.827     0.814  12.79   0
       239    656.0259     48.5526 300.3753769 +22.6013071      452.668     69.37225      1.321     3.32    -8.437743     19.56704     67.89816         8     1.036     0.577  44.63   0
       240    671.9175     44.9395 300.3814977 +22.6050273     242.1808      69.4605      1.360     3.69    -8.410728     19.56704     32.59065         5     0.635     0.618 -75.43   0
       241    138.6986     42.8017 300.2163172 +22.4446539     279.4635      69.2662      1.353     4.86    -8.728763     19.56704     47.48506         9     0.996     0.842 -48.63   0
       242    980.9908     41.7629 300.4788502 +22.6966376     267.1711     69.35459      1.187     3.78    -9.224657     19.56704     24.42533         5     0.818     0.501  55.79   0
       243    941.6043     41.7729 300.4665650 +22.6848530     334.2206     69.31925      1.105     2.16    -9.224657     19.56704     57.99649         5     0.713     0.427  65.27   0
       244    710.0206     39.5833 300.3951024 +22.6148970     196.3117     69.33692      1.132     2.59    -8.355775     19.56704     54.25452         5     0.690     0.622  84.47   0
       245    658.8597     36.0130 300.3803258 +22.5985508     1348.561     69.31925      1.225     2.24     -8.31016     19.56704     212.0412        14     0.860     0.824  37.00   0
       246    300.3354     36.7343 300.2685260 +22.4913571     323.0471     69.40757      1.667     4.25    -8.747558     19.56704     36.38789         6     0.895     0.705 -14.81   0
       247    673.9570     34.8117 300.3854171 +22.6027263     299.8716     69.35459      1.432     5.01    -8.301868     19.56704     48.88216         9     1.017     0.698  76.55   0
       248    745.3886     27.4492 300.4100549 +22.6219977     891.4211     69.37225      1.443     2.42    -8.248941     19.56704      104.037        13     0.898     0.819  78.54   0
       249    489.1230     20.0458 300.3326627 +22.5431247     619.6449     69.33692      1.449     3.24     -8.96699     19.56704     64.90174        11     0.967     0.783  86.04   0
       250    392.6954     18.2624 300.3032395 +22.5137248     455.9178     69.44286      1.283     3.62    -8.921195     19.56704     65.23804        11     1.082     0.736  52.57   0
       251    775.1118     16.7016 300.4228005 +22.6278059     266.4758      69.5134      1.363     3.84    -8.309932     19.56704     35.66194         6     0.757     0.636  57.55   0
       252    288.8393   1016.8500 299.9464907 +22.7691406     405.4017     69.37225      1.116     2.89    -11.81846     19.56704     84.21693         8     0.875     0.665 -24.37   0
       253     75.2816   1016.4877 299.8802535 +22.7048932     3051.913     69.47814     15.398    49.41     17.74481     19.56704     80.82886       604     9.019     7.511 -80.78  27
       254    925.8368   1014.1254 300.1456734 +22.9595229     1161.319     69.30157      0.587     1.32    -13.75639     19.56704     646.7086         6     0.575     0.329   4.72   0
