#   1 NUMBER                 Running object number                                     
#   2 X_IMAGE                Object position along x                                    [pixel]
#   3 Y_IMAGE                Object position along y                                    [pixel]
#   4 ALPHA_J2000            Right ascension of barycenter (J2000)                      [deg]
#   5 DELTA_J2000            Declination of barycenter (J2000)                          [deg]
#   6 FLUX_APER              Flux vector within fixed circular aperture(s)              [count]
#   7 FLUXERR_APER           RMS error vector for aperture flux(es)                     [count]
#   8 FLUX_RADIUS            Fraction-of-light radii                                    [pixel]
#   9 FWHM_IMAGE             FWHM assuming a gaussian core                              [pixel]
#  10 BACKGROUND             Background at centroid position                            [count]
#  11 THRESHOLD              Detection threshold above background                       [count]
#  12 FLUX_MAX               Peak flux above background                                 [count]
#  13 ISOAREA_IMAGE          Isophotal area above Analysis threshold                    [pixel**2]
#  14 A_IMAGE                Profile RMS along major axis                               [pixel]
#  15 B_IMAGE                Profile RMS along minor axis                               [pixel]
#  16 THETA_IMAGE            Position angle (CCW/x)                                     [deg]
#  17 FLAGS                  Extraction flags                                          
         1    789.8989     15.2204 300.4334745 +22.6231485     1036.564     69.35187      1.310     2.76    -8.439396     19.58624     137.6238        14     0.943     0.821  55.85   0
         2    173.2811     10.9944 300.2429722 +22.4371997     444.2263     69.35187      1.287     2.53    -8.405356     19.58624     58.99851         7     0.712     0.647  66.79   0
         3    964.8502      8.6084 300.4901518 +22.6736194     370.3598     69.42264      1.063     2.47     -8.22873     19.58624      64.2126         5     0.708     0.456  18.79   0
         4    738.3073      7.6367 300.4198605 +22.6055205     422.2027     69.40495      1.315     2.82    -7.178392     19.58624     77.47034        11     1.003     0.674  45.83   0
         5    633.6267   1014.4244 300.0600781 +22.8632084     3975.619     69.38727      1.036     1.79    -12.68121     19.58624     689.6915        22     0.941     0.855  32.08   2
         6    200.3415   1014.6989 299.9252281 +22.7331882     2675.341     69.51099     12.217    27.75     9.629509     19.58624     77.50098       181     4.892     4.369 -47.54  27
         7    238.8493   1002.3496 299.9412156 +22.7412170     4498.911     69.45799      9.859    34.17    0.6130704     19.58624     116.5341       526     9.745     4.612  65.55  18
         8    105.3921    993.4259 299.9026579 +22.6985704     1316.497     69.42264     20.326    20.93     8.342673     19.58624     46.73676        48     3.782     3.216 -42.80   3
         9     76.3151    945.8525 299.9091152 +22.6762077     1792.278     69.45799     26.418    55.18    -6.179979     19.58624     66.47425       440    13.141     6.430 -56.65  19
        10    639.2062   1012.1168 300.0625667 +22.8642213     4481.158     69.35187      1.073     1.64     -12.6843     19.58624     1019.053        23     0.882     0.859 -18.44   2
        11    172.9963   1004.1000 299.9201830 +22.7219375     675.2666     69.29875      4.191     4.39     9.906466     19.58624     34.33392         5     1.043     0.526 -33.75   1
        12     67.2135    988.8703 299.8922841 +22.6857951     2144.154     69.42264     26.781    42.74   -0.1384642     19.58624     55.18829       354     8.254     6.141 -19.58  19
        13    926.5091    998.0146 300.1566606 +22.9463765     402.8959     69.35188      1.111     2.37    -13.13245     19.58624     61.59845         8     0.787     0.630  -2.39   0
        14     48.9415    986.1697 299.8874893 +22.6795316     728.6631     69.44032      4.761     5.11    -4.913441     19.58624     32.22315         5     1.147     0.644 -77.45   1
        15    128.2942    983.1200 299.9131270 +22.7024986      921.246     69.54631      4.941     6.86     5.770298     19.58624     32.63003         8     1.973     0.669  84.14   2
        16    651.9119    981.5770 300.0764673 +22.8592764     3316.762     69.35187      1.107     1.90    -12.59362     19.58624     568.1589        20     0.894     0.867  80.27   0
        17    172.9574   1023.1139 299.9139795 +22.7273727      744.577     56.94982      5.541     6.78     14.55203     19.58624     52.92219        16     1.575     0.818 -10.31  27
        18    145.5865    981.9665 299.9188742 +22.7073629     766.9802     69.42264      4.793     6.42     5.536912     19.58624     32.78449         8     1.325     0.873  64.41   0
        19    167.5514   1022.5829 299.9124729 +22.7255965     846.8757     59.70687      8.484     9.74     15.13057     19.58624     36.66581        20     1.748     1.513 -57.17  27
        20     58.1580   1011.5112 299.8821002 +22.6895587     728.9008     69.42264      3.489     3.68    0.7032083     19.58624     36.01421         5     1.093     0.357  85.84   1
        21    100.7951    973.2736 299.9077913 +22.6914168      1034.62     69.36957      9.449     9.05     3.132872     19.58624      39.9641        16     1.969     1.161  38.49   3
        22    560.3814    972.2859 300.0510006 +22.8291416     699.1581     69.36957      1.019     1.83     -12.8035     19.58624     145.0358        10     0.773     0.650  -0.82   0
        23    108.9740    967.1378 299.9123292 +22.6921163     1179.475     69.42264     10.220    10.77     1.594988     19.58624     45.37675        23     2.534     1.276 -33.95   1
        24    454.1020    968.6310 300.0191220 +22.7961908     555.6484     69.38726      1.205     2.50    -12.86231     19.58624     74.46478         8     0.767     0.659  89.95   0
        25    384.9510    966.9048 299.9981762 +22.7749347     3264.375     69.47567      1.131     1.77    -12.61453     19.58624     699.8274        21     0.880     0.857  82.56   0
        26    166.5324   1004.3971 299.9180780 +22.7200808     1299.526     69.40495      6.379    11.80     10.51751     19.58624     43.83567        31     3.104     1.249  89.42  19
        27     91.8636    955.5583 299.9107845 +22.6836591      1012.36     69.40495      5.682     5.00    -2.013956     19.58624     68.60979        14     1.340     0.922 -38.66   1
        28    931.1329    945.4351 300.1752229 +22.9326747     977.8676     69.42264      0.966     1.63    -12.58141     19.58624      244.115        10     0.776     0.643 -84.05   0
        29    581.1426    942.9753 300.0670052 +22.8269678     254.8478     69.42264      1.337     2.88    -12.42128     19.58624      45.5927         6     0.900     0.439 -53.03   0
        30     77.5734   1017.1085 299.8863070 +22.6969955     2387.038     69.36957     20.193    52.54     8.158285     19.58624     61.73865       431    10.441     7.335  25.21  27
        31     90.0256    992.2397 299.8982716 +22.6936140     2267.321     69.45799     22.690    25.76      6.27776     19.58624     53.65451       143     5.388     3.420 -45.80  19
        32    720.0067    933.3591 300.1133706 +22.8658791     301.9176     69.45799      1.095     2.04    -12.53868     19.58624     55.52337         7     0.666     0.658  79.64   0
        33    218.2523   1014.4553 299.9308729 +22.7384986       2894.9     69.45799     12.198    35.24      7.44019     19.58624     64.02361       336     7.064     4.879 -36.46  27
        34    754.6009    928.5284 300.1257181 +22.8748721     562.5167     69.31646      1.074     3.32    -12.59994     19.58624     101.6723         9     1.005     0.641  20.97   0
        35    113.9979   1002.4438 299.9023946 +22.7037389     834.8811     69.40495      7.614     9.53     10.67299     19.58624     35.71387        11     2.494     1.015  70.13   3
        36    777.0200    922.1923 300.1347645 +22.8797799      5453.01     69.38726      1.044     1.61    -12.60588     19.58624      1312.44        23     0.866     0.829 -76.33   0
        37    968.2424    921.7653 300.1944983 +22.9370100     252.5492     69.47567      1.219     3.88    -12.39874     19.58624     35.49843         5     0.758     0.673  24.34   0
        38    171.8484   1019.3767 299.9148519 +22.7259690     1342.729     69.42264      5.772     8.10      13.6868     19.58624     43.24296        19     1.423     1.289  18.45  19
        39    482.1400    910.4275 300.0467925 +22.7879204     249.4401     69.42264      1.150     3.46    -12.27419     19.58624     45.86887         6     0.729     0.648 -67.54   0
        40    785.4477    904.3027 300.1432136 +22.8771752     683.4759     69.45799      0.993     1.57    -12.53414     19.58624     142.2372        10     0.736     0.660  54.97   0
        41    968.5467    903.5559 300.2005210 +22.9318746     248.9437     69.44032      1.187     2.43    -12.35257     19.58624     61.66875         5     0.762     0.416 -64.71   0
        42    823.5984    897.7782 300.1572236 +22.8867466      444.486     69.35188      0.961     1.95    -12.56046     19.58624     84.11093         6     0.659     0.578 -50.08   0
        43    932.0804    894.0214 300.1922560 +22.9182030     186.7933     69.38726      1.293     4.46    -12.32973     19.58624     33.63416         7     0.884     0.654  35.28   0
        44    871.9396    888.6053 300.1752736 +22.8986129     267.4562     69.38726      1.008     3.29    -12.51464     19.58624     57.59986         7     0.906     0.540  82.37   0
        45    723.2855    888.2193 300.1290859 +22.8539131      321.824     69.35188      1.048     1.77    -12.37282     19.58624     79.41441         6     0.695     0.498  42.94   0
        46    734.6451    884.9579 300.1336855 +22.8563853     334.3123     69.49333      1.068     1.88    -12.37188     19.58624     66.31391         5     0.687     0.428  66.57   0
        47    436.0962    884.5616 300.0408879 +22.7666833     1931.986     69.40495      1.053     1.70    -12.12116     19.58624     390.6317        15     0.811     0.796 -72.88   0
        48    213.8965    873.1552 299.9755173 +22.6967022      254.049     69.44032      1.082     3.34    -11.30175     19.58624     32.89211         6     0.752     0.568 -43.77   0
        49    161.1456    870.1171 299.9601155 +22.6799900     250.8998     69.45799      1.201     3.00    -11.03126     19.58624     60.55593         8     0.887     0.653 -66.61   0
        50     68.9908    868.4899 299.9320201 +22.6518451     241.4105     69.35188      1.378     4.37    -11.92323     19.58624      46.8905         5     0.991     0.547 -40.89   0
        51    138.3653    867.5162 299.9538848 +22.6724032     622.5683     69.38727      1.077     2.12    -11.27879     19.58624      111.479        13     0.880     0.770  63.64   0
        52   1009.9697    856.1382 300.2288717 +22.9306823     981.2667     69.44032      1.068     1.82     -12.2419     19.58624     229.2726        11     0.807     0.694 -58.54   0
        53    964.3130    854.6309 300.2151260 +22.9165611     924.4097     69.40495      0.994     1.71    -12.25074     19.58624     196.4433        13     0.781     0.760 -26.98   0
        54    748.0802    848.5047 300.1497344 +22.8499562     272.6444     69.52866      0.950     2.48    -12.27826     19.58624     65.87618         5     0.794     0.495  51.16   0
        55    616.0483    842.5899 300.1105452 +22.8086503     2256.937     69.44032      1.043     1.71    -12.18289     19.58624     476.4164        15     0.812     0.782  33.63   0
        56    417.9508    839.7553 300.0498256 +22.7483896     296.1778     69.45799      1.151     2.08    -11.80598     19.58624     66.89645         6     0.714     0.528  47.56   0
        57    166.2050    836.5618 299.9726065 +22.6718935     764.6185     69.44032      1.055     2.78     -11.4976     19.58624     123.3979        10     0.906     0.653  81.88   0
        58    636.6097    835.2104 300.1193478 +22.8127023     322.1183     69.31646      0.984     1.89    -12.19637     19.58624     71.97127         5     0.679     0.447 -67.46   0
        59    185.6310    833.7406 299.9795602 +22.6769185     344.4518     69.44032      1.661     3.37    -11.49943     19.58624     34.79276         5     0.737     0.452  73.14   0
        60    792.0672    822.2607 300.1719776 +22.8556185     1948.554     69.45799      1.063     1.65    -12.27363     19.58624     449.5416        14     0.836     0.749 -85.56   0
        61   1008.9537    822.1147 300.2396276 +22.9206094      656.248     69.40495      1.172     1.84    -12.23765     19.58624     125.0854         9     0.728     0.673  49.73   0
        62    200.2208    816.5066 299.9897011 +22.6763602     351.9124     69.35188      1.329     3.96    -11.53447     19.58624     67.03323         6     1.061     0.424  29.86   0
        63    509.0838    815.1550 300.0861816 +22.7686855     287.2168     69.38726      0.945     1.87    -11.69912     19.58624     75.52384         6     0.706     0.524  45.84   0
        64    155.3133    812.9208 299.9769147 +22.6618477     496.4282     69.56396      1.119     2.38    -11.69083     19.58624      89.6904         7     0.804     0.538  65.46   0
        65    594.7794    810.3525 300.1144144 +22.7930213     3565.149     69.45799      0.650     0.98    -12.02767     19.58624     2135.018         7     0.580     0.337 -50.96   0
        66    305.1281    805.0660 300.0260296 +22.7045772     26189.06     69.45799      1.168     1.83    -11.71568     19.58624     5220.692        60     1.096     1.015  68.65   0
        67    562.9575    803.9502 300.1065928 +22.7816370     761.5771     69.45799      1.060     1.59    -11.76271     19.58624     208.4669         9     0.729     0.652 -15.46   0
        68    975.8335    802.8947 300.2355544 +22.9051621     352.5491     69.40495      0.998     1.49    -12.23591     19.58624     107.0382         6     0.620     0.523  38.95   0
        69    245.1063    802.8401 300.0080965 +22.6859197     881.8142     69.44032      0.592     1.22    -11.55631     19.58624     458.8661         5     0.604     0.299 -81.65   0
        70    233.2206    802.8580 300.0043968 +22.6823563     207.2919     69.42264      1.205     2.93     -11.5011     19.58624     43.01649         6     0.734     0.574 -34.81   0
        71    591.8214    799.7623 300.1169394 +22.7890958     459.3403     69.44032      1.219     1.78    -11.95658     19.58624      107.061         8     0.815     0.703 -12.21   0
        72    602.7774    798.2875 300.1208297 +22.7919597     350.3351     69.35188      1.202     2.92    -12.00544     19.58624     62.32073         8     0.876     0.690 -73.31   0
        73    707.9761    794.7592 300.1547326 +22.8225050     178.3701     69.45799      1.055     3.09    -12.12954     19.58624     51.52201         7     0.887     0.575 -15.56   0
        74    746.1394    784.8179 300.1698535 +22.8310987     394.5858     69.36957      1.112     1.83    -12.09056     19.58624       88.576         6     0.710     0.511 -45.70   0
        75    354.8497    782.3040 300.0488943 +22.7129763     15456.63     69.47567      1.132     1.80    -11.45091     19.58624     2898.976        44     1.047     0.973 -73.58   0
        76    369.1551    782.7054 300.0532121 +22.7173851     929.6512     69.44032      1.159     2.17    -11.46167     19.58624     165.2734        11     0.868     0.689 -80.70   0
        77    877.8045    778.0345 300.2130843 +22.8686349     1435.489     69.42264      1.029     1.57    -12.02618     19.58624     360.2896        13     0.848     0.699 -86.93   0
        78    366.1693    776.6118 300.0542661 +22.7147416     276.4228     69.42264      1.041     2.39     -11.4232     19.58624     47.92198         6     0.706     0.591  50.26   0
        79    635.7589    773.9979 300.1389999 +22.7948854      507.277     69.42264      1.089     2.03    -11.61492     19.58624      110.689         8     0.839     0.558  34.50   0
        80    237.3402    774.0630 300.0150448 +22.6753389     395.9302     69.45799      1.143     2.26    -11.38603     19.58624     63.54988         7     0.706     0.638  72.71   0
        81     41.6828    769.7732 299.9556578 +22.6153585     169.8088     69.40495      0.942     3.44    -11.77641     19.58624     41.47017         5     0.778     0.440  76.29   0
        82    483.0272    768.8994 300.0931235 +22.7475996     284.0417     69.36957      0.932     1.82    -11.20717     19.58624     95.21843         6     0.663     0.543  49.53   0
        83    428.5973    763.7605 300.0778625 +22.7297922      245.559     69.45799      1.119     2.23    -11.31512     19.58624     45.01694         5     0.691     0.456  69.77   0
        84     70.3187    763.4051 299.9666219 +22.6221336     179.8064     69.35188      1.162     3.47    -11.64156     19.58624      36.9332         5     0.732     0.475  12.94   0
        85    861.6998    760.4020 300.2138017 +22.8587445     182.4135     69.29875      1.053     2.96    -11.90856     19.58624     46.43477         6     0.837     0.500  47.30   0
        86    234.8135    758.2955 300.0193886 +22.6700602     322.0147     69.35187      1.202     3.38     -11.3054     19.58624     46.70354         5     0.941     0.351  47.85   0
        87    527.9848    747.1692 300.1141814 +22.7548559     263.1165     69.42264      1.191     2.83    -10.96538     19.58624     64.74324         6     0.858     0.578  40.72   0
        88    549.7336    744.3590 300.1218638 +22.7605747     670.2207     69.38727      1.090     2.28    -10.92747     19.58624     116.7524        11     0.894     0.718 -20.74   0
        89    944.1254    743.2568 300.2450716 +22.8785335     2185.721     69.45799      1.028     1.63    -11.55224     19.58624     513.9153        17     0.855     0.764  45.74   0
        90    932.7045    734.7140 300.2442902 +22.8726569     834.5678     69.59924      1.024     1.82    -11.38808     19.58624     154.3622         9     0.766     0.609  75.75   0
        91    295.6171    728.9047 300.0478482 +22.6798859     318.1216     69.35187      1.101     1.64    -11.10023     19.58624     81.12083         6     0.704     0.486 -87.49   0
        92    758.9319    726.0932 300.1929423 +22.8180810     1100.074     69.56396      1.036     1.68    -11.59737     19.58624     275.8004        10     0.764     0.664 -86.65   0
        93    963.8008    724.6758 300.2572503 +22.8790959     701.6862     69.31646      0.992     1.60    -11.54048     19.58624     163.0413         7     0.644     0.572   1.16   0
        94    144.5192    712.7568 300.0061431 +22.6298977     210.5431     69.40495      1.114     2.19    -11.24967     19.58624     54.08996         5     0.680     0.473  70.61   0
        95    877.4257    702.9039 300.2374063 +22.8469521     71951.08     69.38726      1.056     1.68    -11.37604     19.58624     14524.04        96     1.121     1.068  89.57   0
        96   1023.7723    704.2295 300.2826017 +22.8911989     374.0372     53.41264      1.053     2.41    -11.59782     19.58624     114.3709         8     1.248     0.530 -82.03  24
        97    729.9175    703.0934 300.1913855 +22.8027788        335.7      69.5816      1.078     2.32    -11.19887     19.58624     55.38641         7     0.804     0.534  49.48   0
        98    563.7709    691.8895 300.1432985 +22.7497321     659.1758     69.40495      1.068     1.89    -10.63468     19.58624     139.3216         9     0.816     0.599  63.66   0
        99    744.9161    689.1108 300.2006049 +22.8032630     4566.786     69.54631      1.116     1.78    -11.09776     19.58624     968.2527        21     0.900     0.842 -84.88   0
       100    246.5393    684.4412 300.0470531 +22.6524058     2356.059     69.40495      1.132     2.07    -10.85495     19.58624     356.1409        20     1.024     0.816  89.26   0
       101    328.6453    682.6813 300.0731494 +22.6765437     679.5427     69.40495      1.229     2.95    -10.85219     19.58624     94.51232        11     0.983     0.714  45.68   0
       102    204.7270    680.0182 300.0354968 +22.6385870     186.3206     69.42264      1.197     2.71    -10.87355     19.58624      37.7876         7     0.726     0.648  84.41   0
       103    528.4037    670.1282 300.1393683 +22.7328790     1647.701     69.36957      1.170     2.15    -10.54279     19.58624     259.9313        16     0.939     0.822  60.01   0
       104    518.5734    663.7538 300.1383821 +22.7281012     666.4719     69.44032      1.135     2.28    -10.48045     19.58624     122.1314        11     1.040     0.674  86.16   0
       105    912.2495    661.3085 300.2617885 +22.8454473     277.5109     69.45799      1.134     3.71    -11.05127     19.58624     39.26939         5     0.864     0.458  46.39   0
       106    181.9359    659.8048 300.0349874 +22.6259502     302.6519     69.40495      1.073     2.16     -10.8089     19.58624     69.49309         7     0.688     0.638 -79.00   0
       107    196.2888    658.5640 300.0398507 +22.6299028     211.0152     69.40495      1.034     2.56    -10.78395     19.58624     60.08371         7     0.827     0.592 -73.94   0
       108    221.9557    654.9728 300.0489947 +22.6365773     215.0887     69.44032      1.148     2.38    -10.72592     19.58624     42.12366         5     0.603     0.594 -83.48   0
       109    542.5768    653.8746 300.1490643 +22.7324669     226.5545     69.45799      1.122     3.50    -10.31494     19.58624     36.31519         5     0.793     0.445  70.97   0
       110    443.5530    653.5062 300.1183730 +22.7026550     937.0273     69.44032      1.242     2.41    -10.55701     19.58624     128.4024        12     0.862     0.816  41.75   0
       111     97.4978    648.6910 300.0123688 +22.5974157     9684.704     69.59924      1.155     2.09     -10.8705     19.58624     1391.615        35     1.053     0.966  62.64   0
       112   1019.0035    650.4630 300.2986006 +22.8743269     352.9978     69.40495      1.037     2.31    -10.86755     19.58624     86.38342         7     0.815     0.602 -21.32  16
       113     18.5370    650.1914 299.9873593 +22.5741382     155.0284     69.36957      0.971     2.07    -10.60299     19.58624      51.6284         5     0.679     0.465 -68.74   0
       114    528.4227    648.9364 300.1462652 +22.7268042     449.4781     69.40495      1.040     2.49    -10.27099     19.58624     74.93832         6     0.745     0.478  77.50   0
       115    946.3029    634.7429 300.2810430 +22.8480246     504.2412     69.51099      1.043     2.02    -10.85167     19.58624     96.39042         8     0.797     0.552  83.71   0
       116     43.5607    632.6277 300.0008398 +22.5766175      707.623     69.45799      1.543     4.67    -10.67938     19.58624     78.07313        15     1.425     0.693 -87.10   0
       117    812.9239    633.1343 300.2399949 +22.8075833     140.3112     69.51099      1.038     3.11    -10.77958     19.58624     52.27995         6     0.958     0.605  -8.60   0
       118    886.8245    627.6817 300.2647979 +22.8281699     541.7509     69.38726      1.409     3.00    -10.84354     19.58624     68.10448         8     0.850     0.718 -13.09   0
       119    448.4597    621.8768 300.1301832 +22.6950530     335.7321     69.47567      1.054     2.44    -10.18913     19.58624     53.95172         6     0.742     0.483  77.46   0
       120    643.6672    618.7974 300.1919376 +22.7527193     224.1062     69.40495      1.252     2.27    -10.10711     19.58624     40.38533         5     0.727     0.429  70.54   0
       121    613.7766    618.2921 300.1827958 +22.7436105     337.1719     69.35188      1.313     3.57    -9.963738     19.58624     47.13365         8     1.027     0.623  -0.34   0
       122    492.7380    617.8445 300.1452701 +22.7071788     490.9493     69.44032      1.557     2.23    -9.878245     19.58624      60.9483         7     0.718     0.629  86.07   0
       123    926.3850    612.8840 300.2819408 +22.8357772      1683.76     69.38726      1.079     1.73    -10.74883     19.58624     320.2809        14     0.846     0.736 -78.29   0
       124    458.2711    613.1733 300.1360651 +22.6954992     900.4391     69.42264      1.252     2.29    -10.00513     19.58624     130.0235        12     0.824     0.775  54.23   0
       125     20.1722    606.9075 300.0019384 +22.5622228     2519.651     69.36957      1.209     2.00    -10.64101     19.58624     427.2979        21     0.964     0.915  31.72   0
       126    321.6602    599.9390 300.0978798 +22.6507163     4238.733     69.45799      1.200     2.07    -10.40183     19.58624     732.9299        26     1.010     0.935  85.50   0
       127     82.5975    600.5524 300.0233903 +22.5791424     172.4727     69.42264      1.492     4.13    -10.71369     19.58624     26.07758         5     0.987     0.493   4.21   0
       128    444.0594    596.8742 300.1369426 +22.6865595     4309.985     69.45799      1.236     2.01    -10.01243     19.58624     746.0578        26     1.013     0.952  37.66   0
       129    855.6506    590.6960 300.2671069 +22.8082048     1065.935     69.49333      1.161     2.12      -10.672     19.58624     160.6339        14     0.984     0.754 -77.33   0
       130    940.3004    588.0203 300.2943625 +22.8328061     6061.113     69.35187      1.108     1.73    -10.66322     19.58624     1269.349        29     0.964     0.896 -63.81   0
       131    504.6737    586.4742 300.1591822 +22.7017574      5549.77     69.47567      1.135     2.03    -9.729706     19.58624     868.6285        28     1.020     0.958  53.03   0
       132    232.3800    581.9619 300.0759700 +22.6187690     660.7521     69.44032      1.197     2.91    -10.47953     19.58624     113.3838        11     1.014     0.735 -70.33   0
       133    673.9504    582.1731 300.2132736 +22.7512870     287.6119     69.44032      1.268     3.55    -10.03232     19.58624     35.98949         6     0.890     0.482 -34.67   0
       134    478.8855    579.4872 300.1534293 +22.6920174     171.3227     69.54631      1.155     4.20     -9.71586     19.58624     38.34831         5     0.778     0.646 -70.65   0
       135    436.3517    574.6768 300.1417604 +22.6778785     2137.126     69.42264      1.217     2.25    -9.924406     19.58624     285.2509        19     0.945     0.923  10.29   0
       136    778.9958    574.4559 300.2485010 +22.7805642     353.5232     69.38727      1.094     2.76    -10.37712     19.58624     67.64808         8     0.811     0.686 -60.60   0
       137    414.6676    573.2390 300.1354827 +22.6709611     508.7272     69.38727      1.122     2.37    -10.01353     19.58624     85.26302         9     0.830     0.655  87.25   0
       138    169.2259    572.2601 300.0594979 +22.5970333     332.5081     69.42264      1.140     2.21    -10.69409     19.58624     62.61791         6     0.695     0.587 -45.83   0
       139    856.1100    570.1736 300.2739216 +22.8024488     828.2648     69.38726      1.268     2.56    -10.65643     19.58624     128.7765        13     0.924     0.824 -46.14   0
       140    736.5004    566.9998 300.2376867 +22.7656842     322.1183     69.26331      1.012     2.88    -10.24907     19.58624     66.22977         7     0.897     0.487 -81.46   0
       141    552.9348    562.1917 300.1820943 +22.7092631      99180.8     69.40495      1.255     2.06    -9.755159     19.58624      15989.7       118     1.239     1.224 -70.07   0
       142    376.8233    567.9161 300.1254425 +22.6580809     241.4373     69.38726      1.281     4.35    -10.21969     19.58624     37.62669         5     0.778     0.694 -57.51   0
       143    239.1683    562.2015 300.0845026 +22.6151389     1682.522     69.38726      1.239     2.22    -10.45007     19.58624     260.8256        17     0.998     0.805  79.49   0
       144    804.7238    558.4360 300.2617243 +22.7836761     250.2101     69.38727      1.246     4.41    -10.43672     19.58624     32.11803         7     0.962     0.576 -57.06   0
       145    287.4900    544.7957 300.1051801 +22.6246460     324.2855     69.33417      1.208     3.94    -10.38649     19.58624      38.4617         5     0.877     0.557  39.95   0
       146    443.5583    542.3773 300.1545006 +22.6707723     1226.627     69.45799      1.171     2.19    -9.711463     19.58624     179.8426        15     0.975     0.768  61.65   0
       147    840.4389    528.3816 300.2826218 +22.7857494     866.8367     69.44032      1.132     2.20    -10.58573     19.58624     128.9484        12     0.971     0.675  58.23   0
       148    711.7053    526.3958 300.2431613 +22.7465927     1126.335     69.33417      1.120     2.11    -9.961278     19.58624     189.2163        13     0.855     0.778  62.54   0
       149    921.3983    522.7665 300.3096806 +22.8083980     52.99673     69.38727      0.855     3.44     -10.6228     19.58624     30.25662         5     0.736     0.465 -74.43   0
       150    499.0486    522.2232 300.1783151 +22.6816316     360.0294     69.42264      1.137     2.41    -9.703444     19.58624       62.702         7     0.849     0.563 -76.65   0
       151    969.0070    519.8695 300.3254652 +22.8218308     613.3694     69.38726      1.146     1.94    -10.36555     19.58624     121.7875        10     0.816     0.671  80.09   0
       152    840.8992    518.8442 300.2858650 +22.7831481     1081.419     69.42264      1.229     2.04     -10.5953     19.58624     189.6496        13     0.933     0.710  82.57   0
       153    954.7771    519.1816 300.3212520 +22.8173696     450.0995     69.42264      1.195     2.11     -10.4475     19.58624     63.86655         6     0.706     0.544 -40.98   0
       154    594.1531    516.8287 300.2096676 +22.7086026     445.1243     69.44032      1.372     2.49    -9.757998     19.58624     47.95875         6     0.721     0.563 -45.80   0
       155    878.8867    513.6284 300.2993991 +22.7930342     1981.394     69.42264      1.094     1.90    -10.63766     19.58624       399.24        15     0.915     0.724  87.20   0
       156    111.0947    504.3418 300.0635101 +22.5601102     372.9277     69.49333      1.150     3.27    -10.73719     19.58624     77.42062         8     0.927     0.624  39.29   0
       157    970.7423    504.0819 300.3311372 +22.8178150     248.6275     69.47567      1.039     2.09    -10.28404     19.58624     68.53337         8     0.761     0.635  31.68   0
       158    103.4861    494.4260 300.0643686 +22.5549831     231.6159     69.40495      1.292     3.31    -10.75408     19.58624     40.66078         6     0.909     0.414 -19.56   0
       159    652.3732    484.0327 300.2384510 +22.7166425     413.9608     69.42264      1.228     2.79    -9.767802     19.58624     51.96092         7     0.739     0.633  80.76   0
       160    967.0293    476.5386 300.3389300 +22.8087890     196.2887     69.44032      1.084     2.01     -10.2056     19.58624     53.32827         6     0.722     0.494   7.54   0
       161    713.2434    476.5465 300.2598396 +22.7327398     389.4502     69.45799      1.297     3.18    -9.775096     19.58624     68.32501         8     1.106     0.464 -10.37   0
       162    870.1352    472.2592 300.3101150 +22.7785283     615.7098     69.45799      1.358     3.62    -10.59466     19.58624     80.96999        11     1.144     0.680  60.78   0
       163    854.7760    468.7614 300.3064646 +22.7729211     267.5657     69.44032      1.210     2.97    -10.60109     19.58624     50.72672         7     0.823     0.633  78.48   0
       164    598.9286    466.9456 300.2273636 +22.6957140     1551.802     69.42264      1.239     2.08    -9.729916     19.58624     259.0761        14     0.913     0.774  69.72   0
       165   1010.1478    445.9489 300.3623152 +22.8129161     670.4839     69.45799      1.131     1.71    -9.938797     19.58624     146.2504        10     0.829     0.709   9.11   0
       166    882.5691    445.8164 300.3225821 +22.7746576     304.5126     69.40495      1.139     4.39    -10.48557     19.58624     44.68239         6     0.889     0.617  54.48   0
       167    968.5368    444.4329 300.3498320 +22.8000156      476.857     69.42264      1.005     2.02    -10.11634     19.58624      88.9842         7     0.782     0.504  33.09   0
       168    709.4315    440.8223 300.2702594 +22.7213382     413.8615     69.42264      1.013     2.46    -9.724571     19.58624     82.21004         8     0.838     0.614 -81.03   0
       169    505.4587    441.2115 300.2066326 +22.6603014      216.082     69.36957      1.450     4.22    -9.721782     19.58624     30.42465         6     1.076     0.472 -31.60   0
       170    275.8914    435.0453 300.1372350 +22.5896809     1795.349     69.40495      1.271     2.15    -9.969336     19.58624     280.2179        17     0.992     0.859  64.28   0
       171   1008.8329    433.1532 300.3660624 +22.8088451     2030.561     69.45799      1.093     1.79    -9.962814     19.58624     432.0902        17     0.871     0.782 -88.66   0
       172    223.0796    429.8788 300.1224977 +22.5723552     3641.697     69.54631      1.281     2.20    -10.00162     19.58624     558.8315        26     1.066     0.945  78.60   0
       173    988.8729    424.2142 300.3627420 +22.8002975     892.5073     69.42264      1.190     1.97    -10.02377     19.58624      171.176        15     0.924     0.846   9.02   0
       174    363.8876    424.0255 300.1681752 +22.6129135     2311.914     69.36957      1.281     2.08    -9.767823     19.58624     372.9705        18     0.999     0.855  73.03   0
       175    624.7656    421.5130 300.2501675 +22.6904150     357.8896     69.38727      1.893     4.46    -9.611015     19.58624     34.76974         7     0.925     0.613 -73.65   0
       176    608.0203    420.5982 300.2452513 +22.6851326     8973.383     69.35188      1.281     2.26    -9.609187     19.58624     1303.756        35     1.096     1.030  76.10   0
       177    941.7162    402.7737 300.3550035 +22.7800104     355.8975     69.40495      1.143     3.11    -10.10155     19.58624     68.19016         7     0.958     0.527 -64.34   0
       178    162.6552    400.9715 300.1131101 +22.5459340     934.9308     69.42264      1.262     2.11    -9.968735     19.58624     158.2909        11     0.836     0.750  27.52   0
       179    962.2802    390.2132 300.3654951 +22.7825609      651.863     69.40495      1.115     2.24    -10.06733     19.58624     104.4524        10     0.841     0.703 -61.44   0
       180    548.6668    390.0623 300.2366946 +22.6585719      3240.46     69.47567      1.257     2.23    -9.498032     19.58624     485.0813        24     1.036     0.932  68.26   0
       181    263.6402    389.5970 300.1481890 +22.5729656     417.3232     69.44032      1.318     3.34    -9.711761     19.58624     49.01848         7     0.916     0.520  61.43   0
       182    120.8749    382.8067 300.1060292 +22.5281878     233.0714     69.36957      1.051     4.11    -10.03697     19.58624     43.11832         7     0.882     0.577 -57.69   0
       183    662.4795    380.2252 300.2753218 +22.6898629     257.0166     69.40495      1.339     4.74    -9.391095     19.58624     33.12056         6     0.935     0.680  30.59   0
       184    752.8908    378.8532 300.3039266 +22.7165641     598.8926     69.47567      1.384     2.98    -9.688665     19.58624     76.44961         9     0.890     0.689 -34.70   0
       185    455.2477    376.5126 300.2120255 +22.6266734     3177.477     69.42264      1.332     2.39    -9.493956     19.58624     360.2193        28     1.138     1.040 -77.82   0
       186    847.2610    370.8051 300.3359448 +22.7425280     677.9572     69.40495      1.218     2.28    -10.17051     19.58624     105.8498        10     0.821     0.794  13.64   0
       187    944.9582    371.0342 300.3663239 +22.7718608      387.759     69.47567      1.399     2.82    -10.09642     19.58624     58.10359         5     0.775     0.498  63.54   0
       188    819.8384    358.4889 300.3313993 +22.7307736     155.4683     69.40495      0.976     3.37    -9.802237     19.58624     44.92677         5     0.753     0.439 -22.93   0
       189    342.8149    355.7063 300.1838117 +22.5869865     1173.609     69.35187      1.313     2.36    -9.406163     19.58624     189.9714        15     0.991     0.821  82.31   0
       190     61.2804    353.0497 300.0971814 +22.5017711     483.2481     69.44032      1.223     2.06    -9.697117     19.58624     81.44971         7     0.720     0.599 -86.02   0
       191    312.2123    345.1249 300.1777322 +22.5747720     14556.07     69.44032      1.312     2.36    -9.417114     19.58624     1863.563        45     1.181     1.067  84.70   0
       192    846.6758    342.4264 300.3449791 +22.7341988     753.6631     69.44032      1.354     2.27    -9.932791     19.58624     105.2811        12     0.841     0.801 -89.84   0
       193      8.6472    333.1059 300.0873124 +22.4802573     2358.916     69.44032      1.264     2.18      -9.7193     19.58624     343.7251        23     1.086     0.910  80.90   0
       194    762.1305    331.1472 300.3222985 +22.7056282     247.1984     69.42264      1.341     2.94    -9.440278     19.58624     40.40664         6     0.748     0.558  52.28   0
       195    186.6810    331.4897 300.1431400 +22.5332078     234.0793     69.52866      1.127     3.44    -9.465268     19.58624     39.63302         5     0.766     0.446 -21.22   0
       196    410.3108    330.5668 300.2129671 +22.6000102      428.701     69.38727      1.783     3.48    -9.347075     19.58624     29.21096         5     0.754     0.462 -17.40   0
       197    722.6180    324.7982 300.3120517 +22.6919650     971.6786     69.33417      1.284     2.48    -9.342307     19.58624     138.0311        14     0.912     0.852  51.74   0
       198    937.7006    317.5497 300.3814309 +22.7543159     238.2801     69.51099      0.982     2.24    -9.807268     19.58624     49.29993         5     0.662     0.487  12.88   0
       199    384.4043    309.6095 300.2117141 +22.5862263       1120.5     69.26331      1.491     2.43    -9.293351     19.58624     150.5982        15     1.144     0.754  62.14   0
       200    823.5182    302.0646 300.3508690 +22.7156639     281.1322     69.52866      1.191     3.78    -9.495316     19.58624     51.44836         8     0.853     0.659   4.62   0
       201    460.1401    288.7623 300.2420421 +22.6029475     559.7894     69.44032      1.325     2.82    -9.310564     19.58624     73.80283        10     0.951     0.676  42.35   0
       202    704.9734    280.5357 300.3209278 +22.6739625     1037.013     69.40495      1.263     2.25    -9.203348     19.58624     161.2876        15     0.912     0.856  31.67   0
       203    966.3732    274.7531 300.4042667 +22.7506020     1470.219     69.45799      1.166     2.07    -9.671751     19.58624     258.4613        15     0.885     0.815 -86.47   0
       204    413.5974    264.6137 300.2354026 +22.5820611     361.3911     69.26331      1.266     2.90    -9.355186     19.58624     51.98637         6     0.873     0.433  72.28   0
       205    119.1718    259.0414 300.1456849 +22.4921699     332.1353     69.44032      1.337     3.13    -9.502766     19.58624      50.0989         7     0.876     0.603 -74.00   0
       206     88.2130    258.8589 300.1361269 +22.4828307      710.769     69.40495      1.499     4.87    -9.517408     19.58624     76.99503        13     1.318     0.701 -28.46   0
       207    825.9749    252.1836 300.3678291 +22.7020658     130.4035     69.44032      1.052     3.14    -9.423928     19.58624     32.18002         5     0.793     0.495  53.21   0
       208    172.5144    250.8689 300.1649113 +22.5058246     277.3647     69.51099      1.089     3.38    -9.444556     19.58624      47.4958         5     0.759     0.435  66.74   0
       209    967.6479    247.8573 300.4133959 +22.7432522     184.1275     69.47567      1.116     3.48    -9.586482     19.58624      34.2149         5     0.831     0.421  71.59   0
       210    776.6909    241.8091 300.3558405 +22.6843217     351.0091     69.35188      1.208     2.97    -9.364232     19.58624     55.01926         7     0.971     0.506  44.22   0
       211    874.7272    230.8796 300.3899388 +22.7105451     1056.699     69.54631      1.226     2.22    -9.443898     19.58624     158.6079        16     1.091     0.758  61.42   0
       212    293.3704    228.5934 300.2097061 +22.5356741     1128.016     69.42264      1.408     2.62    -9.489455     19.58624     128.5589        15     1.011     0.893 -75.14   0
       213    371.0312    223.8248 300.2354029 +22.5575891     528.2673     69.42264      1.319     2.31     -9.36664     19.58624     74.22255         8     0.859     0.579 -67.21   0
       214    773.2904    222.5929 300.3610187 +22.6777811      212.603     69.33417      1.150     3.83     -9.35969     19.58624     38.75157         6     0.929     0.454 -89.04   0
       215    880.6075    219.3375 300.3955182 +22.7089886      226.882     69.36957      1.101     4.22    -9.444413     19.58624     40.23433         7     0.896     0.659  66.89   0
       216    188.2573    215.7268 300.1812095 +22.5004609     367.2814     69.45799      1.287     3.81    -9.438244     19.58624      64.0064         9     1.118     0.644   0.29   0
       217    725.9081    212.3817 300.3495724 +22.6606530      738.555     69.35187      1.263     2.36    -9.286119     19.58624     113.4699        11     0.922     0.690  51.55   0
       218    997.3378    204.5723 300.4367047 +22.7396979     417.4464     69.42264      1.295     2.61    -9.329643     19.58624     66.19857         7     0.869     0.522  57.73   0
       219    790.8049    211.6662 300.3700222 +22.6798873     306.4096     69.42264      1.411     3.83    -9.376896     19.58624     42.06814         8     0.933     0.755 -82.93   0
       220    650.5038    203.1167 300.3290956 +22.6354004     602.4691      69.5816      1.254     2.92    -9.233059     19.58624     77.56232        10     0.849     0.764   7.86   0
       221    576.6977    195.0314 300.3087409 +22.6109630     502.1477     69.38726      1.227     3.35    -9.186234     19.58624     71.02599         9     1.013     0.608 -89.26   0
       222    845.8492    194.5937 300.3927160 +22.6914669     717.1977     69.42264      1.311     2.54    -9.391446     19.58624     100.7944        14     0.997     0.802  21.58   0
       223    857.8647    193.7988 300.3967187 +22.6948369     385.6306     69.44032      1.311     2.76    -9.399348     19.58624     49.39191         8     0.766     0.687 -28.23   0
       224   1018.7916    184.4557 300.4499246 +22.7403367     853.4994     69.42264      1.165     2.09     -9.05452     19.58624      135.615        13     0.915     0.770  15.77  16
       225    974.6332    183.9291 300.4363243 +22.7269648     522.5682     69.42264      1.151     2.28    -9.233951     19.58624     84.34138         7     0.709     0.631  84.79   0
       226     70.5860    172.1541 300.1587910 +22.4526650     973.9084     69.44032      1.220     2.42    -9.331534     19.58624     148.9774        15     0.946     0.801  74.07   0
       227    893.6832    168.6112 300.4160574 +22.6983228     426.3785     69.38727      1.206     3.68    -9.385585     19.58624     60.23478         7     0.918     0.561  56.46   0
       228     19.9871    168.9735 300.1441085 +22.4365752     296.1049     69.42264      1.206     2.21    -9.254153     19.58624     50.61232         7     0.830     0.509 -48.30   0
       229    228.0643    165.4491 300.2098969 +22.4979665     2813.417     69.45799      1.310     2.46     -9.35515     19.58624     348.0826        23     1.077     0.933  57.86   0
       230     12.0998    159.8770 300.1446108 +22.4315993     601.6406     69.56396      1.313     3.14    -9.203925     19.58624     79.96715        10     0.949     0.737  84.57   0
       231    872.0295    146.7701 300.4163954 +22.6855600     1754.232     69.38726      1.271     2.41    -9.300139     19.58624     238.1453        19     1.025     0.857  60.49   0
       232    975.6623    145.4768 300.4491237 +22.7162168     1369.819     69.47567      1.143     2.06    -9.040712     19.58624     207.0796        15     0.881     0.817 -78.43   0
       233    421.6012    142.4093 300.2775530 +22.5493689     127.4084     69.24558      1.278     3.86    -9.030423     19.58624     32.35757         5     0.975     0.438 -75.49   0
       234    345.6662    133.7689 300.2567383 +22.5241275      221.835     69.42264      1.095     3.48    -8.975344     19.58624      43.4422         5     0.766     0.458  79.30   0
       235    112.1420    130.7906 300.1851202 +22.4532576     264.1681     69.38726      1.179     3.40    -9.220813     19.58624     37.30671         5     1.089     0.307  80.83   0
       236    472.9528    129.4959 300.2977191 +22.5610496     782.2725     69.44032      1.311     2.56    -8.972744     19.58624      92.0235        14     0.905     0.879  58.52   0
       237    216.2161    124.8494 300.2193871 +22.4827592     213.5966     69.45799      1.231     4.36    -9.182261     19.58624     33.37778         6     0.941     0.575  25.89   0
       238    247.0061    109.3425 300.2339881 +22.4875384     2911.381     69.38726      1.337     2.38    -9.037312     19.58624     387.4537        28     1.146     1.057 -66.07   0
       239     98.1904    108.5508 300.1880010 +22.4426907     339.3165     69.44032      1.408     3.37    -9.069557     19.58624     59.00277         6     0.968     0.621 -57.21   0
       240    493.0232     94.6381 300.3152730 +22.5570508     3086.283     69.44032      1.352     2.39    -8.899981     19.58624     416.9706        23     1.061     0.986  60.43   0
       241    378.2322     94.2195 300.2796970 +22.5225309     357.6051     69.42264      1.378     2.87    -8.865993     19.58624     40.81938         6     0.730     0.566  52.41   0
       242    745.6108     83.7643 300.3974442 +22.6295911     414.4708     69.42264      1.782     5.38    -8.798773     19.58624     46.41904        10     1.184     0.781 -88.33   0
       243    186.0452     78.3789 300.2250851 +22.4603727     331.1088     69.47567      2.580     4.79    -9.021666     19.58624     25.82217         5     1.006     0.646 -88.35   0
       244    621.3286     74.5212 300.3617361 +22.5897104      3072.46     69.52866      1.303     2.41    -8.773146     19.58624     382.6847        25     1.092     0.968  53.23   0
       245    396.1994     73.6376 300.2919618 +22.5220042     743.0434     69.42264      1.364     2.95    -8.716111     19.58624     81.92584        12     0.942     0.819  75.67   0
       246    662.4672     71.7190 300.3754550 +22.6012276     477.4808     69.52866      1.329     2.76     -8.94424     19.58624     58.80738         7     0.890     0.490  82.84   0
       247    145.1394     66.0775 300.2163640 +22.4445769      381.528     69.47567      1.390     3.68    -8.962267     19.58624     46.68092         7     0.855     0.633  61.79   0
       248    716.8937     63.7550 300.3949893 +22.6152396     226.9781     69.44032      1.234     3.88    -8.533257     19.58624     42.83171         6     0.767     0.568  46.28   0
       249    665.5033     59.5955 300.3803329 +22.5986527     1379.023     69.33417      1.348     2.37    -8.878835     19.58624     172.2691        15     0.932     0.858  42.99   0
       250    680.0942     58.0561 300.3853763 +22.6025803     363.0782     69.47567      1.525     2.84    -8.836653     19.58624     45.93735         5     0.758     0.514 -61.98   0
       251    752.0568     50.9312 300.4101025 +22.6220837     820.7061     69.44032      1.372     2.21    -8.248129     19.58624     117.6659        12     0.860     0.787  22.61   0
       252    689.9973     44.0272 300.3930107 +22.6015141     460.1338     69.36957      1.717     4.85    -8.584501     19.58624     48.40005         8     1.010     0.664 -58.53   0
       253    495.4722     43.5618 300.3326025 +22.5431110     457.2153     69.38727      1.253     2.64    -8.503942     19.58624     66.47421        11     0.910     0.764  66.88   0
       254     68.8075     43.3792 300.2000123 +22.4151739     244.3428     69.40495      1.372     3.36    -8.689254     19.58624     45.52653         6     1.029     0.522  68.78   0
       255    399.4634     41.3104 300.3034622 +22.5136969     462.3062     69.51099      1.590     3.87    -8.468806     19.58624     59.97896         8     0.947     0.762 -65.04   0
       256    170.8882     31.8761 300.2354571 +22.4424778     1967.746     69.54631      1.375     2.33    -8.620971     19.58624     274.5301        23     1.152     0.965  87.99   0
       257    731.9404     23.9932 300.4125727 +22.6083161     435.2751     69.40495      1.381     2.77    -7.588863     19.58624     67.48031        10     0.914     0.761 -61.98   0
       258    286.5446     23.8542 300.2740077 +22.4748427     543.6092     69.45799      1.153     2.25    -8.441425     19.58624      103.917         9     0.862     0.631  65.58   0
       259    769.5926     19.0669 300.4259002 +22.6181743     229.1985     69.42264      1.377     3.46     -8.06125     19.58624     34.19222         5     0.800     0.431 -69.58   0
       260    547.0478   1019.3410 300.0315286 +22.8386307     1191.022     69.47567      1.123     1.83    -13.53331     19.58624     241.7096        14     0.927     0.748 -71.25  16
       261    495.0481     13.6438 300.3421732 +22.5343881     302.5808     69.44032      1.189     3.43    -8.268301     19.58624     54.27266         5     0.844     0.402  20.54   0
       262     79.8181    976.9417 299.9000821 +22.6861654     2683.166     69.38726     25.588    45.19    0.6189235     19.58624     61.03511       514    10.011     5.660  70.37  19
       263    733.9844   1015.2751 300.0910512 +22.8935698     318.5876     69.42264      1.140     2.44    -12.72221     19.58624     82.41676         7     0.797     0.645  62.65   0
