#   1 NUMBER                 Running object number                                     
#   2 X_IMAGE                Object position along x                                    [pixel]
#   3 Y_IMAGE                Object position along y                                    [pixel]
#   4 ALPHA_J2000            Right ascension of barycenter (J2000)                      [deg]
#   5 DELTA_J2000            Declination of barycenter (J2000)                          [deg]
#   6 FLUX_APER              Flux vector within fixed circular aperture(s)              [count]
#   7 FLUXERR_APER           RMS error vector for aperture flux(es)                     [count]
#   8 FLUX_RADIUS            Fraction-of-light radii                                    [pixel]
#   9 FWHM_IMAGE             FWHM assuming a gaussian core                              [pixel]
#  10 BACKGROUND             Background at centroid position                            [count]
#  11 THRESHOLD              Detection threshold above background                       [count]
#  12 FLUX_MAX               Peak flux above background                                 [count]
#  13 ISOAREA_IMAGE          Isophotal area above Analysis threshold                    [pixel**2]
#  14 A_IMAGE                Profile RMS along major axis                               [pixel]
#  15 B_IMAGE                Profile RMS along minor axis                               [pixel]
#  16 THETA_IMAGE            Position angle (CCW/x)                                     [deg]
#  17 FLAGS                  Extraction flags                                          
         1    163.6600      6.5843 300.2353649 +22.4424225     1858.888     69.24889      1.253     2.30    -8.294063     19.54718     259.9459        18     1.010     0.914 -73.10  16
         2    731.8067      6.7609 300.4120943 +22.6126737     224.5564     69.31949      1.113     1.81    -8.206593     19.54718      61.4965         6     0.665     0.542  55.53   0
         3    123.3732   1010.8067 299.8965311 +22.7184190     564.9128     69.28419      2.314     5.85     27.67414     19.54718     35.57083         8     1.219     0.789  34.60   0
         4     69.6832    956.3663 299.8975786 +22.6866920     2672.118     69.24889     30.260    94.31   -0.3977732     19.54718     63.08662      1888    19.149    12.886 -71.90  27
         5    632.1064    986.8157 300.0625632 +22.8642815     4581.567     69.21357      1.153     1.85    -12.87984     19.54718     867.5947        24     0.957     0.866 -75.01   3
         6    726.8960    989.7288 300.0911343 +22.8935588     462.5352     69.39001      1.108     2.02     -13.0016     19.54718     70.52936         7     0.704     0.623  10.12   0
         7    223.9652    970.7898 299.9408173 +22.7371644     2016.076     69.24889      5.717    14.94     9.079943     19.54718     54.17396        51     3.832     1.620   7.46   3
         8    156.6890    970.7942 299.9199096 +22.7169605      691.786     69.19591      9.954     9.39     11.72152     19.54718     33.58092        14     2.790     0.882  60.34   2
         9    159.7804    979.4609 299.9180485 +22.7203727     1159.798     69.23124      3.465     6.20     14.90856     19.54718     39.66776         9     2.040     0.530 -58.43   2
        10     68.4287    919.8408 299.9090787 +22.6758489     1898.717     69.30184     21.949    39.38    -8.431389     19.54718     56.31351       350     8.371     5.142 -54.97   3
        11    140.4027    959.4897 299.9185298 +22.7088292     906.1797     69.19591      4.874     6.60     6.918661     19.54718     37.66222        12     1.688     0.724  63.06   0
        12     96.5722   1018.8852 299.8855751 +22.7126825     3109.627     69.28419      7.115    29.34      30.9004     19.54718     72.44978       283     6.335     3.773   0.31  27
        13    644.8216    956.2774 300.0764658 +22.8593361     3436.905      69.2842      1.175     2.01    -12.76081     19.54718     607.9959        24     0.983     0.880  62.28   0
        14    192.3668    988.6017 299.9251979 +22.7327795     1919.931     69.24889      7.912    16.48     18.07539     19.54718     60.94819        64     3.016     2.502 -37.96   3
        15    119.0165    953.9054 299.9137038 +22.7008054      847.681     69.21357      5.579     6.23     4.888766     19.54718     53.95959         8     1.785     0.611   2.06   0
        16    919.5010    972.8268 300.1566577 +22.9464811     412.9402     69.23124      1.222     2.67    -12.86009     19.54718     59.44836         9     0.930     0.646 -19.20   0
        17    524.4855    950.9786 300.0407309 +22.8217051     312.2622     69.23124      1.169     1.99    -12.53486     19.54718     40.90605         6     0.719     0.500 -89.61   0
        18    796.6666    949.8618 300.1258516 +22.9030489     221.0728     69.31949      1.106     2.70    -12.93419     19.54718      43.1062         5     0.743     0.431  71.54   0
        19    347.8253   1000.7019 299.9695839 +22.7829319     285.1412     69.24889      1.360     3.42    -12.97575     19.54718     39.87968         5     0.771     0.438  12.01   0
        20    553.3281    946.9942 300.0510048 +22.8292182      752.796     69.23124      1.059     1.95    -12.47899     19.54718     152.9718         9     0.869     0.625 -79.82   0
        21     74.8010   1016.9387 299.8794467 +22.7055842     3455.806     69.24889     14.673    41.88     18.76165     19.54718     91.93991       611     9.041     7.367 -75.24  27
        22    447.0629    943.5873 300.0190464 +22.7963476     501.4578     69.26655      1.098     3.34     -12.5066     19.54718     75.04692         7     0.925     0.520 -24.61   0
        23    377.8032    941.5968 299.9981505 +22.7749863     3155.334     69.07211      1.101     1.87    -12.49759     19.54718     536.3177        19     0.918     0.841 -84.04   0
        24    203.4965    996.8654 299.9259660 +22.7384905     1071.121        69.39      6.512     9.60     21.26447     19.54718     42.75141        17     2.273     1.132  72.24   3
        25    540.0392    993.9974 300.0315647 +22.8387115     1218.138     69.31948      1.178     1.84    -12.94837     19.54718     251.9128        10     0.769     0.696 -88.84   0
        26    211.6899    987.5733 299.9315378 +22.7382882     2449.675     69.24889     11.862    24.64     17.10791     19.54718     56.74011       144     4.291     3.928 -37.61   3
        27    924.2393    920.1188 300.1752961 +22.9327710     1132.553     69.24889      1.257     1.90    -12.79126     19.54718      207.123        15     0.907     0.830  66.93   0
        28    233.5946    978.0307 299.9414527 +22.7421316     3998.645      69.2842      7.340    29.22      8.83109     19.54718     99.10943       313     8.031     3.754  64.49  18
        29    573.9822    917.3590 300.0670815 +22.8269151     141.0312     69.30184      0.985     2.43    -12.29025     19.54718     47.10981         5     0.737     0.580 -86.84   0
        30    422.4677    916.1650 300.0203219 +22.7811010     167.3145     69.28419      0.867     1.78     -12.3477     19.54718     58.91329         5     0.675     0.483 -74.59   0
        31    166.5483    995.6086 299.9148938 +22.7270329     1179.938      69.2842      9.154    12.35     21.55411     19.54718     38.57322        16     2.680     1.584  81.13   3
        32    167.0487   1003.4087 299.9125095 +22.7294184     1243.201     69.30184      5.207     8.23     24.37671     19.54718     37.57321        14     2.068     0.916 -55.58   3
        33    712.3598    908.2529 300.1131335 +22.8658188     378.7915     69.26655      1.332     3.62    -12.69707     19.54718     46.21965         7     0.856     0.622 -55.14   0
        34    161.2825   1000.2846 299.9117351 +22.7267912     1285.055     69.40762      5.050     9.09     23.26676     19.54718     39.84414        21     2.017     1.142 -42.34   3
        35    222.4842   1002.9825 299.9298752 +22.7459463      474.937     69.24889      1.565     4.21     23.60683     19.54718     54.66714        11     1.235     0.708  33.75   0
        36    747.8466    903.0605 300.1258778 +22.8749736     646.4499     69.31949      1.146     2.14    -12.65544     19.54718     100.6535         9     0.821     0.705  -6.89   0
        37    769.9044    896.9167 300.1347495 +22.8798264     5545.837     69.46045      1.101     1.70    -12.59148     19.54718     1309.983        23     0.893     0.826  87.31   0
        38    815.4532    896.6777 300.1490196 +22.8934189     281.2831     69.31949      1.152     2.79    -12.59398     19.54718     48.10532         6     0.694     0.645   4.32   0
        39    153.8679    999.7487 299.9096058 +22.7244105      533.326     69.26655      2.549     7.29     23.26888     19.54718     33.21288        11     1.862     0.799 -65.22   0
        40    821.4364    884.6645 300.1547944 +22.8917649      178.613      69.2842      1.036     3.93    -12.49252     19.54718     43.79961         6     0.863     0.524  46.53   0
        41    474.9740    885.5172 300.0466331 +22.7880698     107.5422     69.26655      1.012     1.96    -12.31656     19.54718     46.78916         6     0.717     0.498  -3.94   0
        42    778.5675    879.0128 300.1432763 +22.8772859     640.5236     69.26655      1.007     1.94    -12.41553     19.54718     133.9403        10     0.797     0.670 -55.82   0
        43    961.3768    878.3101 300.2004850 +22.9319019      202.918     69.21357      0.955     3.53    -12.65335     19.54718     45.99734         5     1.025     0.351 -69.71   0
        44    816.5521    872.3531 300.1572796 +22.8867661     480.8867     69.30184      1.091     2.74    -12.37205     19.54718     68.27046         7     0.897     0.470  77.65   0
        45    155.6000    872.7769 299.9514762 +22.6885406     318.4956     69.19591      1.271     3.36    -9.878208     19.54718     33.75917         5     0.765     0.426  67.68   0
        46    924.8287    869.6323 300.1919141 +22.9184526     313.3337     69.28419      1.316     3.44    -12.43339     19.54718     27.46822         5     0.773     0.442  17.71   0
        47    864.7702    863.4410 300.1752075 +22.8986671     271.4865     69.30184      1.006     2.30    -12.38815     19.54718     58.08392         6     0.772     0.519  46.46   0
        48    727.7096    859.9094 300.1336501 +22.8565491     288.3683     69.44285      0.952     1.96    -12.25255     19.54718     76.96734         7     0.757     0.576 -65.82   0
        49    428.9604    859.2375 300.0408703 +22.7667227     1960.483     69.35475      1.055     1.63    -12.32425     19.54718     472.5823        13     0.850     0.673  84.41   0
        50    154.1940    845.0518 299.9600616 +22.6801710     329.3683     69.26655      1.116     2.59    -10.96065     19.54718      61.2962         6     0.730     0.559  44.41   0
        51    131.2171    842.0908 299.9538863 +22.6724228     793.3639     69.21357      1.219     2.28    -11.19298     19.54718      120.352        13     0.896     0.857  12.37   0
        52    626.4755    989.1387 300.0600536 +22.8632582      4180.36     69.33712      1.101     1.89    -12.88858     19.54718      686.421        26     1.002     0.902 -75.44   2
        53      6.0237    831.9576 299.9182989 +22.6319205     232.5745     69.33712      1.397     3.81    -11.91602     19.54718     31.03086         5     0.656     0.636  87.73   0
        54   1003.0084    830.8599 300.2289110 +22.9307558     1136.138     69.23124      1.164     1.76    -12.57778     19.54718     252.0922        12     0.819     0.730  19.19   0
        55    957.1775    829.3384 300.2151141 +22.9165804     1009.431     69.26655      1.079     1.84    -12.35384     19.54718     204.1906        13     0.826     0.768 -40.84   0
        56    163.4811    823.4493 299.9699764 +22.6767668     221.2086     69.30184      1.091     3.73    -11.34207     19.54718     33.72453         6     0.915     0.436  17.33   0
        57    608.9090    817.2622 300.1105321 +22.8086743     2271.822     69.37238      1.012     1.57    -12.12848     19.54718     556.3863        16     0.864     0.713  70.50   0
        58    411.4055    814.3126 300.0500283 +22.7485684     292.7501     69.19591      1.016     2.75    -12.30908     19.54718     57.59752         8     0.794     0.761  -6.57   0
        59    159.1978    811.1737 299.9726395 +22.6719615     669.4739     69.23124      1.194     1.95    -11.56499     19.54718      133.012        12     0.940     0.776 -47.85   0
        60    629.5917    809.8083 300.1193971 +22.8127395      339.731     69.14288      0.984     2.15    -11.98917     19.54718     68.48853         7     0.731     0.607 -62.89   0
        61    178.3421    808.2064 299.9795538 +22.6768587     252.5551     69.24889      1.212     3.38    -11.65576     19.54718     39.99088         5     0.770     0.430  71.72   0
        62    784.8737    796.9016 300.1719628 +22.8556064     2027.545     69.42523      1.088     1.55    -11.97256     19.54718     527.6949        17     0.834     0.805  57.07   0
        63   1001.8113    797.0995 300.2395238 +22.9207006     648.7815     69.19591      1.043     1.74     -12.2893     19.54718     133.5715        10     0.774     0.674  -2.95   0
        64    193.2670    791.4256 299.9896513 +22.6765284     263.5527     69.26655      1.107     2.45    -11.72181     19.54718     47.93444         5     0.699     0.455  21.32   0
        65    501.7513    789.7909 300.0861160 +22.7686434     351.0588     69.30184      1.034     2.62    -12.04984     19.54718     58.15412         5     0.738     0.419  80.10   0
        66    148.2481    787.6172 299.9769011 +22.6619205     451.6495     69.31949      1.115     2.11    -11.77868     19.54718     77.90379         7     0.726     0.584  12.28   0
        67    563.6196    782.8160 300.1076408 +22.7852033     210.8292     69.26655      0.937     2.67    -11.92552     19.54718     53.68246         5     0.731     0.439  69.21   0
        68    297.9807    779.7347 300.0260040 +22.7046092     26262.35     69.24889      1.127     1.77    -11.68126     19.54718     5287.851        53     1.016     0.994 -64.40   0
        69    555.8405    778.6481 300.1065754 +22.7816736     751.1313     69.33712      0.999     1.51    -11.87588     19.54718     185.3136        11     0.854     0.619  75.47   0
        70    968.5198    777.7817 300.2354272 +22.9051736     327.0939      69.2842      0.917     1.89    -12.02834     19.54718     102.4058         7     0.712     0.594  57.78   0
        71    584.8405    774.8534 300.1168373 +22.7892841     541.6161     69.24889      1.200     2.35    -11.86712     19.54718     84.81622         7     0.793     0.543  45.01   0
        72    595.7787    773.1483 300.1207973 +22.7920760      267.711     69.28419      1.208     2.87    -11.86224     19.54718     69.70538         6     0.985     0.382  79.65   0
        73    701.2420    769.3470 300.1548746 +22.8226167     117.8024      69.2842      1.009     2.24    -11.72755     19.54718     50.49076         5     0.730     0.421  21.90   0
        74    738.7170    759.6821 300.1696921 +22.8310804     454.1609     69.40762      1.058     1.94    -11.81554     19.54718     76.23856         6     0.675     0.531  55.26   0
        75    347.7129    756.9650 300.0488754 +22.7130044     15382.12     69.26655      1.098     1.76    -11.58332     19.54718     3205.226        44     0.984     0.964  69.50   0
        76    362.0482    757.4324 300.0531815 +22.7174405     1219.331     69.31949      1.241     1.78    -11.59466     19.54718     190.3912        16     0.917     0.889 -11.34   0
        77    870.7436    752.6293 300.2131272 +22.8686404      1436.04      69.2842      1.037     1.81    -11.86245     19.54718     277.2419        13     0.824     0.756 -84.97   0
        78    358.5306    751.6293 300.0539753 +22.7147202     450.0877      69.2842      1.479     3.00    -11.51498     19.54718     53.30363         5     0.732     0.466 -71.45   0
        79    465.1315    749.3401 300.0878805 +22.7460504     291.3576     69.30184      0.929     2.36    -11.65628     19.54718     57.92746         5     0.879     0.333 -86.11   0
        80    628.5222    748.7623 300.1389250 +22.7948984     419.9913     69.26655      0.949     1.62    -11.64707     19.54718     120.9037         8     0.782     0.599  86.01   0
        81    230.1340    748.8303 300.0149658 +22.6753816     506.0408      69.2842      1.180     2.65    -11.36641     19.54718     78.13803         7     0.875     0.530  36.42   0
        82     34.6130    744.5103 299.9556246 +22.6154427     300.0178     69.23124      1.499     4.11     -11.9725     19.54718      32.6627         5     0.972     0.496   4.20   0
        83    475.7211    743.6263 300.0930341 +22.7475881     349.1719      69.2842      0.937     1.55    -11.65527     19.54718      91.4188         5     0.612     0.474  14.27   0
        84    876.7857    740.0581 300.2191001 +22.8668416     343.3437     69.24889      1.513     2.61    -11.78909     19.54718     47.16356         6     0.854     0.463 -52.32   0
        85    333.7097    739.4680 300.0502123 +22.7037831     256.2274     69.42523      0.952     2.41    -11.29976     19.54718     43.45644         5     0.683     0.470 -19.67   0
        86     63.4246    738.0308 299.9666802 +22.6222365     325.1878      69.2842      1.193     3.28    -11.94082     19.54718      39.8558         6     0.800     0.485 -81.43   0
        87    227.3581    732.8599 300.0192976 +22.6699684     331.3396     69.26655      1.347     5.08    -11.26974     19.54718     47.63898         9     1.076     0.701  13.93   0
        88    520.6303    721.4451 300.1142244 +22.7546958     344.8069     69.31949      1.207     2.41    -11.32556     19.54718     72.30389         7     0.949     0.449  77.82   0
        89    542.4540    719.2513 300.1217303 +22.7606127     685.0536     69.31949      1.063     1.71    -11.24174     19.54718     142.6367        10     0.820     0.666 -41.52   0
        90    937.0242    717.9628 300.2450668 +22.8785518     2165.313     69.30184      1.054     1.56    -11.53316     19.54718     553.4929        17     0.843     0.774 -80.40   0
        91    925.5082    709.2615 300.2443066 +22.8726010       878.33     69.37238      0.967     1.65    -11.45864     19.54718     171.9047         9     0.707     0.644 -62.17   0
        92    288.6367    703.4027 300.0479274 +22.6799115     410.7603     69.31949      1.160     2.06    -11.06719     19.54718     72.52219         5     0.639     0.487  -8.14   0
        93    751.8583    700.7110 300.1929683 +22.8180897     1325.937     69.35475      1.064     1.67    -11.52905     19.54718     269.6707        12     0.854     0.695 -48.90   0
        94    956.6848    699.4269 300.2572261 +22.8791199     837.4617      69.2842      0.977     1.93    -11.40886     19.54718     141.7214        10     0.726     0.682  -1.32   0
        95    834.6048    686.3954 300.2234078 +22.8387858     398.5241     69.14288      1.596     3.78    -11.22234     19.54718     70.17389         7     0.977     0.810  25.70   0
        96    137.1579    687.4537 300.0060339 +22.6298718     337.6098     69.28419      1.132     2.45    -11.47529     19.54718     51.22535         6     0.757     0.498  -1.26   0
        97    870.3698    677.6152 300.2374104 +22.8469846     72873.59      69.2842      0.992     1.61    -11.16023     19.54718     14611.27        95     1.106     1.009  79.92   0
        98   1017.2451    679.2653 300.2826700 +22.8914760     581.1332      69.2842      1.059     1.85    -11.36923     19.54718     109.4166         8     0.714     0.614 -47.98   0
        99    722.7969    677.9423 300.1913201 +22.8028388     452.4725     69.24889      1.111     1.56    -11.52441     19.54718     108.3672         6     0.760     0.431  56.68   0
       100    556.7405    666.4631 300.1433450 +22.7497471     759.5524     69.31949      0.946     1.80    -10.80524     19.54718     147.1775         8     0.731     0.627  69.16   0
       101    737.8689    663.7859 300.2006188 +22.8032928     4563.344     69.30184      1.038     1.60    -11.45129     19.54718     1126.153        25     0.955     0.814  86.90   0
       102    239.4141    659.1245 300.0470240 +22.6524388     2359.563     69.30184      1.079     1.77    -11.09674     19.54718     436.7595        18     0.919     0.818 -49.22   0
       103    321.3451    657.0068 300.0731848 +22.6764173     634.2316     69.28419      1.147     2.11    -10.93181     19.54718     100.5121         8     0.773     0.599  51.00   0
       104    529.5182    652.4119 300.1394409 +22.7375494     399.4832     69.26655      1.047     2.38    -10.68637     19.54718     66.37065         7     0.845     0.490 -82.00   0
       105    521.3287    644.6813 300.1394058 +22.7328743      1535.71     69.40762      1.080     2.00    -10.63271     19.54718     264.4369        15     0.834     0.801  62.19   0
       106    511.4898    638.3591 300.1383993 +22.7281087     644.0393      69.2842      0.981     1.81    -10.57144     19.54718     121.8241         8     0.742     0.563  71.56   0
       107    905.3120    635.8819 300.2618742 +22.8454696     195.6007        69.39      1.118     2.16    -10.99698     19.54718      52.2879         5     0.710     0.436 -73.76   0
       108    174.8673    634.8489 300.0348558 +22.6261043     423.8989     69.28419      1.154     2.00    -11.19476     19.54718     70.71032         5     0.701     0.483 -40.98   0
       109    189.1524    632.9756 300.0399041 +22.6298543     381.4902     69.30184      1.260     2.32    -11.17005     19.54718     62.22375         8     0.805     0.616  37.55   0
       110    535.2922    628.8750 300.1488910 +22.7325252     262.1494     69.44285      1.092     2.93    -10.50456     19.54718     50.43557         7     0.863     0.549  61.84   0
       111    436.3205    628.1083 300.1183422 +22.7026195     778.6241        69.39      1.122     2.06    -10.64683     19.54718     156.2851        11     0.794     0.743  59.28   0
       112     90.4116    623.2724 300.0123791 +22.5974348     9756.288     69.30184      1.135     1.94    -11.41645     19.54718     1547.609        38     1.046     0.970  84.33   0
       113   1012.1885    625.2654 300.2986531 +22.8744453     341.7682     69.24889      0.871     1.66    -11.27221     19.54718     101.0635         6     0.628     0.579 -12.04   0
       114     11.0656    624.9551 299.9871883 +22.5740980     502.8076     69.28419      1.249     2.68    -11.54871     19.54718     59.13192         7     0.824     0.549 -49.41   0
       115    521.2257    623.4818 300.1462665 +22.7267584     448.1277     69.26655      0.955     2.12    -10.44391     19.54718     88.25831         8     0.754     0.641 -51.49   0
       116     36.5441    607.8540 300.0006599 +22.5768434     944.2896     69.31949      1.821     5.92    -11.50186     19.54718     83.92597        16     1.546     0.790 -74.66   0
       117    939.2742    609.4532 300.2810560 +22.8480544     532.9186     69.30184      0.929     1.62    -10.93317     19.54718     109.2694         6     0.613     0.558  88.76   0
       118    806.3366    607.6993 300.2401883 +22.8077101     276.5424     69.37238      1.158     2.52    -10.52346     19.54718     47.24842         5     0.722     0.442 -72.93   0
       119    484.6741    604.2251 300.1411520 +22.7102685     270.0118     69.30184      1.285     3.42    -10.25574     19.54718     41.72457         6     0.891     0.572 -24.83   0
       120    589.1227    594.5977 300.1767917 +22.7388281      153.654     69.19591      1.116     3.27     -10.5539     19.54718     51.05769         6     1.058     0.340  50.47   0
       121    636.4973    593.7010 300.1918336 +22.7527756     253.3415     69.47805      1.096     2.92    -10.65339     19.54718     38.97902         5     0.715     0.466 -70.49   0
       122    607.0451    593.0693 300.1828685 +22.7437634      198.967     69.26655      0.945     1.57     -10.6241     19.54718     77.61559         5     0.569     0.527 -86.16   0
       123    485.6154    592.2993 300.1453218 +22.7071277     436.5064     69.19591      1.091     2.82    -10.25297     19.54718     89.89844         8     0.936     0.550  52.11   0
       124    919.3464    587.6180 300.2819417 +22.8358095     1598.879     69.26655      0.989     1.38    -10.83046     19.54718     337.2485        14     0.764     0.746  19.48   0
       125    451.1468    587.6599 300.1361048 +22.6954581     900.0962     69.33712      1.081     1.78    -10.39898     19.54718     186.9268        12     0.803     0.730 -74.69   0
       126   1017.3879    585.8003 300.3131060 +22.8646623     348.0478      69.1075      0.914     1.78    -11.07389     19.54718     81.52619         6     0.698     0.482  82.04   0
       127     13.1443    581.5314 300.0019492 +22.5622711     2568.667     69.31949      1.236     2.16    -11.50425     19.54718     355.3456        22     0.977     0.933 -42.17   0
       128    314.5518    574.4880 300.0978994 +22.6507032     4344.653      69.2842      1.042     1.90    -10.78583     19.54718     704.0341        23     0.943     0.834  75.23   0
       129    436.9969    571.4641 300.1369669 +22.6865655     4346.685      69.2842      1.038     1.73    -10.41192     19.54718     814.5208        19     0.875     0.806  54.55   0
       130    933.2134    562.7602 300.2943460 +22.8328223     6167.563     69.30184      1.017     1.62    -10.76833     19.54718     1419.438        28     0.962     0.819  64.76   0
       131    848.7480    565.3448 300.2671749 +22.8082546     793.0382     69.31949      1.018     2.01    -10.67024     19.54718     157.7655        10     0.733     0.687 -84.70   0
       132    497.5169    561.0541 300.1591820 +22.7017281     5532.833     69.31949      1.053     1.81    -10.24696     19.54718     1059.755        23     0.919     0.820  86.47   0
       133    225.1194    556.6112 300.0759062 +22.6187416      709.136     69.26655      1.179     1.96    -10.92896     19.54718     129.1646        10     0.762     0.735  89.33   0
       134    429.2372    549.3029 300.1417559 +22.6778773      2099.26      69.2842      1.084     1.86    -10.35394     19.54718     399.9884        17     0.859     0.822 -83.38   0
       135    772.2651    549.2075 300.2485861 +22.7806971     339.1867     69.26655      1.042     1.99     -10.3284     19.54718     87.00304         7     0.776     0.559  10.61   0
       136    407.5921    547.7365 300.1355314 +22.6709357     705.2075     69.26655      1.113     2.30    -10.41873     19.54718     107.3554        12     0.998     0.683  67.11   0
       137    161.8964    547.1384 300.0593360 +22.5970530     236.4022     69.37238      1.114     2.39    -10.76018     19.54718     76.62666         8     0.794     0.648  44.68   0
       138    849.1149    544.7323 300.2739893 +22.8024428     778.7599     69.37238      1.202     2.49    -10.61558     19.54718     142.0975        12     0.903     0.851   8.05   0
       139    545.8322    536.7982 300.1821032 +22.7092529     99189.83     69.24889      1.105     1.72    -10.19095     19.54718     21881.45       121     1.162     1.154 -75.27   0
       140    729.5107    541.3721 300.2378129 +22.7656318     371.4413     69.26655      0.979     2.23    -10.17344     19.54718     76.16113         5     0.664     0.460  65.83   0
       141    231.9735    536.8928 300.0844452 +22.6151409     1669.734     69.23124      1.141     1.85    -10.82172     19.54718     346.6504        15     0.915     0.781  75.21   0
       142    886.4856    517.1849 300.2945914 +22.8057260     146.1382     69.23124      1.023     4.43    -10.56493     19.54718     30.66044         6     0.943     0.592 -21.61   0
       143    436.4110    517.0141 300.1544815 +22.6707606     1278.295     69.19591      1.082     1.87    -10.32399     19.54718     225.8457        12     0.804     0.694  46.38   0
       144    833.2438    503.0671 300.2825842 +22.7857163     735.3699     69.26655      1.028     1.82    -10.30186     19.54718     172.1968         9     0.775     0.655 -87.97   0
       145    704.6539    500.8632 300.2432351 +22.7465461     1132.073     69.33712      1.084     1.79    -9.928838     19.54718      239.504        11     0.812     0.674  45.54   0
       146    948.7059    498.1597 300.3201732 +22.8189002     201.8326     69.30184      1.043     1.66    -10.50157     19.54718     60.40691         5     0.680     0.424 -71.64   0
       147    491.4990    496.5249 300.1782808 +22.6813983     427.7033     69.40762      1.067     2.25    -10.19435     19.54718     96.82594         5     0.739     0.431  24.88   0
       148    961.9168    494.6743 300.3254254 +22.8218561     607.4535     69.39001      1.058     1.69    -10.46894     19.54718     140.8111         9     0.728     0.640 -75.40   0
       149    833.7138    493.6239 300.2857995 +22.7831440      988.858     69.24889      0.982     1.92    -10.25577     19.54718     210.8508         9     0.763     0.642  74.73   0
       150    947.6909    493.7129 300.3213018 +22.8173181     334.4107     69.44285      1.045     3.05    -10.48497     19.54718     78.31705         7     1.009     0.442   6.18   0
       151    587.3310    491.2415 300.2098266 +22.7086139     246.6673     69.26655      1.163     2.01    -9.895039     19.54718     46.98088         5     0.681     0.453  75.70   0
       152    871.7335    488.2544 300.2993947 +22.7929930     2164.488     69.33712      1.012     1.60    -10.40857     19.54718     456.8405        14     0.830     0.718  76.98   0
       153    103.9525    479.1896 300.0634124 +22.5601731      615.374     69.30184      1.488     2.48    -10.62812     19.54718      80.5677         9     0.875     0.632  58.13   0
       154    963.5023    478.8755 300.3310538 +22.8177904     260.5561     69.42523      1.000     2.07    -10.39119     19.54718      69.5939         6     0.722     0.499  87.15   0
       155     96.7288    468.7327 300.0645656 +22.5550057     176.7622     69.31949      1.004     3.87     -10.6265     19.54718     35.83758         6     0.788     0.545  44.26   0
       156    960.1210    468.1248 300.3334927 +22.8136877     243.1583        69.39      1.155     2.99    -10.36446     19.54718     53.26933         5     0.880     0.420  45.14   0
       157    645.1140    458.7303 300.2383821 +22.7165983     364.5832     69.39001      1.109     2.59    -9.754561     19.54718     58.46443         7     0.718     0.648  -0.90   0
       158    959.6582    451.0544 300.3388950 +22.8086426     222.8183     69.33712      0.975     1.66    -10.31271     19.54718     71.24702         6     0.718     0.474  88.24   0
       159    705.9302    451.0116 300.2598311 +22.7326087     466.8105     69.30184      1.282     1.69    -9.773997     19.54718     92.21102         7     0.756     0.496  47.47   0
       160    863.1951    447.3177 300.3100348 +22.7786713     494.1935     69.21357      1.076     1.88      -10.106     19.54718     102.6706         7     0.739     0.555  82.10   0
       161    847.5373    443.4194 300.3064209 +22.7728600     286.0162     69.26655      0.899     2.56    -10.02954     19.54718     65.86761         5     0.683     0.469 -70.17   0
       162    591.8538    441.6617 300.2273439 +22.6957312     1517.114     69.33712      1.090     1.72    -9.710042     19.54718     318.4516        15     0.877     0.770  48.08   0
       163    952.2681    440.1839 300.3401224 +22.8033045     268.1269      69.2842      0.993     1.89    -10.26397     19.54718     67.74031         5     0.718     0.406  72.67   0
       164   1003.1086    420.6371 300.3623280 +22.8129133     627.0354     69.24889      0.965     1.83    -10.37872     19.54718     133.7567         9     0.791     0.605  67.43   0
       165    961.3825    419.4369 300.3497050 +22.8000711     405.6697      69.2842      0.988     2.31    -10.21914     19.54718     88.06982         7     0.840     0.497  59.36   0
       166    702.2980    415.6845 300.2701767 +22.7213716     485.4293     69.44285      1.012     1.99    -9.728331     19.54718     90.73328         8     0.739     0.616  42.50   0
       167    498.0402    416.1307 300.2064362 +22.6602758      249.508     69.26655      1.238     2.32    -9.687999     19.54718     43.34708         5     0.607     0.578 -80.97   0
       168    206.4149    414.0183 300.1164233 +22.5722150     225.2766     69.26655      1.014     2.90    -10.16995     19.54718     51.54076         7     0.828     0.565  58.88   0
       169    268.7974    409.7056 300.1372162 +22.5896890     1763.158     69.19591      1.091     2.03    -9.909129     19.54718     339.0641        13     0.852     0.731  60.37   0
       170   1001.7660    407.8610 300.3660598 +22.8088384     2108.117     69.30184      1.030     1.65    -10.34168     19.54718     493.0437        15     0.836     0.735  77.15   0
       171    216.0397    404.5077 300.1225041 +22.5723727     3577.765     69.28419      1.124     1.90    -10.06454     19.54718     613.3273        22     0.988     0.833  57.14   0
       172    356.8065    398.6092 300.1681877 +22.6128980     2493.102     69.14288      1.107     1.91    -9.706272     19.54718     468.9584        17     0.927     0.800  72.46   0
       173    981.8467    398.9564 300.3627400 +22.8003129     878.2289     69.31949      1.123     1.83    -10.22642     19.54718     199.8779        12     0.922     0.739 -25.81   0
       174    600.9695    395.2972 300.2452435 +22.6851468     9001.675     69.23124      1.122     1.85    -9.509742     19.54718     1676.609        30     0.998     0.881  81.21   0
       175    618.9124    395.3071 300.2508270 +22.6905275     506.2482     69.44285      2.205     6.12    -9.546475     19.54718     49.05888         9     1.622     0.649 -24.35   0
       176    934.5651    377.8726 300.3548444 +22.7800910     383.6812     69.28419      1.101     2.23    -9.963998     19.54718     66.05478         7     0.711     0.631  80.25   0
       177    155.6751    375.5173 300.1131593 +22.5459455      1053.45     69.39001      1.216     2.14    -10.17395     19.54718     166.9377        14     0.931     0.755  53.16   0
       178    954.9960    364.9358 300.3654171 +22.7824912     649.3193     69.26655      1.105     2.32    -9.990602     19.54718     132.9909        10     0.845     0.776  43.75   0
       179    541.5880    364.7162 300.2366899 +22.6585644     3229.357     69.24889      1.118     1.93    -9.223095     19.54718     562.6376        19     0.951     0.796  75.64   0
       180    256.3097    363.9489 300.1481950 +22.5728101     301.0053     69.30184      1.152     3.66    -9.661162     19.54718      47.4218         8     0.915     0.601  78.63   0
       181    745.8184    354.0221 300.3037627 +22.7166952     618.3071     69.28419      1.203     3.54    -9.806763     19.54718     118.0751         9     1.073     0.627 -76.00   0
       182    655.4089    354.9698 300.2752934 +22.6898773     295.9173      69.2842      1.209     1.87    -9.601705     19.54718     55.46469         6     0.722     0.492  89.52   0
       183    448.2697    351.0515 300.2120861 +22.6266664     2935.948     69.26655      1.175     2.03    -9.281948     19.54718      537.908        23     0.988     0.871  45.65   0
       184    840.1296    345.3351 300.3359727 +22.7424523      666.545     69.31949      1.091     1.95     -9.80833     19.54718      133.383        11     0.817     0.750  52.05   0
       185    812.9841    332.9121 300.3315469 +22.7307503     241.8369     69.23124      1.294     2.03    -9.808852     19.54718     57.64915         5     0.631     0.523 -89.36   0
       186    335.9383    330.3374 300.1838696 +22.5870398     1130.028     69.31949      1.104     1.96    -9.422822     19.54718     205.4191        13     0.853     0.742  79.75   0
       187     54.2261    327.5966 300.0972024 +22.5017606     539.1312     69.24889      1.094     2.08    -10.09675     19.54718     92.26437         9     0.771     0.689  37.21   0
       188    305.1487    319.8074 300.1777139 +22.5747843     14640.12     69.28419      1.193     2.05    -9.377478     19.54718     2537.164        44     1.089     0.976  75.83   0
       189    839.6539    317.0840 300.3449988 +22.7341896     632.2292     69.31949      1.104     2.00    -9.820518     19.54718     131.0969         9     0.794     0.648  25.55   0
       190      1.6793    307.7039 300.0873413 +22.4802880     1979.307     55.92543      1.074     2.21    -10.07465     19.54718     318.8142        15     1.014     0.676  87.41  24
       191    755.1893    305.9516 300.3222925 +22.7056884     307.9763     69.30184      1.097     2.24    -9.764112     19.54718     68.48431         6     0.838     0.448 -55.43   0
       192    715.5394    299.2099 300.3121291 +22.6918725     1002.553     69.24889      1.154     2.20    -9.601385     19.54718      135.423        11     0.856     0.752 -68.30   0
       193    930.5539    291.7988 300.3815463 +22.7541448     264.6909     69.28419      0.992     1.71    -9.864308     19.54718     56.40822         5     0.652     0.450  63.35   0
       194    377.4310    284.2224 300.2117476 +22.5862385     997.7201      69.2842      1.196     2.86    -9.324482     19.54718     154.9041        15     1.170     0.653  67.61   0
       195    816.4855    276.8489 300.3508421 +22.7156848     221.7581     69.26655      0.952     2.08    -9.727531     19.54718     60.50889         6     0.720     0.498 -85.84   0
       196    698.7703    274.5909 300.3148987 +22.6797737     217.5666      69.2842      1.313     2.53    -9.408392     19.54718      35.7232         5     0.692     0.475  14.81   0
       197    453.1842    263.5103 300.2420390 +22.6029977     551.1654     69.21357      1.082     2.20     -9.30834     19.54718     95.98088         9     0.802     0.657  30.37   0
       198    697.9675    255.1195 300.3209698 +22.6739374     1034.245     69.28419      1.142     2.05    -9.358856     19.54718     203.0144        12     0.847     0.747  79.29   0
       199    959.1332    249.4784 300.4041980 +22.7505339     1460.484        69.39      1.051     1.82    -9.807245     19.54718     276.8674        13     0.832     0.742 -88.43   0
       200    406.2787    239.2465 300.2353217 +22.5819693     241.5056      69.2842      1.103     2.23    -9.338227     19.54718     54.28754         6     0.689     0.600 -41.22   0
       201     81.3215    233.4769 300.1361733 +22.4828783     690.0406     69.39001      1.450     4.15    -9.955123     19.54718     82.43936        12     1.280     0.646 -35.35   0
       202    111.6861    233.1294 300.1457196 +22.4918856     458.8966        69.39      1.450     2.33    -9.942769     19.54718     57.16916         5     0.760     0.395 -67.96   0
       203    975.2872    229.8493 300.4156077 +22.7497258     195.8002      69.2842      0.933     1.56    -9.787575     19.54718     68.22556         5     0.669     0.419 -70.90   0
       204    165.2759    225.2003 300.1649452 +22.5056808     520.1613     69.16055      1.925     4.11    -9.793175     19.54718     46.71443         8     1.106     0.629 -59.52   0
       205     20.4338    223.1360 300.1206170 +22.4616475     192.0912     69.28419      1.426     4.37    -9.825199     19.54718     29.49888         5     0.971     0.560 -44.20   0
       206    769.3668    216.6202 300.3557107 +22.6842590     341.2516      69.2842      1.052     2.63    -9.274673     19.54718     56.45854         5     0.707     0.455 -18.15   0
       207   1004.7896    209.8447 300.4313026 +22.7528048     2059.731     69.30184      0.605     1.01    -9.715819     19.54718     1121.941         8     0.508     0.404 -23.22   0
       208    867.6953    205.4949 300.3899663 +22.7105076     1042.227     69.44285      1.077     2.01    -9.430998     19.54718     186.0364        15     0.923     0.784  68.25   0
       209    286.3410    203.0880 300.2097551 +22.5356315     983.7538     69.35475      1.147     2.22    -9.159235     19.54718     162.7569        14     0.939     0.763  38.26   0
       210    363.9875    198.2870 300.2354603 +22.5575285     444.5921     69.23124      1.247     2.17    -9.193977     19.54718     82.97752         9     0.829     0.657  65.85   0
       211    766.2256    197.4047 300.3609687 +22.6777944     419.5732     69.24889      1.086     2.65    -9.227968     19.54718     52.87473         6     0.698     0.619 -50.03   0
       212    180.9578    190.1711 300.1811871 +22.5003267     352.9151     69.30184      1.057     1.98    -9.410307     19.54718     71.88555         7     0.785     0.510 -49.35   0
       213    718.8906    187.1365 300.3495538 +22.6606654     811.5515     69.37238      1.189     2.02    -9.204617     19.54718     147.8404        12     0.911     0.712  86.15   0
       214    202.4715    183.6567 300.1899878 +22.5049070     346.9621     69.30184      1.298     3.73    -9.245416     19.54718     40.34348         8     0.893     0.702  45.79   0
       215    990.1603    179.3230 300.4366459 +22.7396469     391.5745     69.26655      1.040     2.02    -9.312423     19.54718     92.19707         6     0.708     0.511  39.55   0
       216    783.5159    186.4479 300.3699123 +22.6798229     168.4826     69.26655      0.983     3.07    -9.202282     19.54718     57.99883         7     0.924     0.490 -82.89   0
       217    643.1773    177.9881 300.3289403 +22.6353565     594.4891     69.28419      1.162     2.06    -9.221007     19.54718     109.4454         9     0.741     0.692  22.47   0
       218    569.6583    169.6475 300.3087553 +22.6109346     559.3918     69.33712      1.151     3.16    -9.287278     19.54718      66.4474        10     1.068     0.585  85.58   0
       219    838.8120    169.3486 300.3926945 +22.6914656     797.9527     69.30184      1.091     2.02    -9.250706     19.54718      131.938        10     0.820     0.672  82.87   0
       220    850.8298    168.1289 300.3968361 +22.6947134     385.5421      69.2842      1.124     2.32    -9.275435     19.54718     70.30775         8     0.861     0.588  30.35   0
       221   1011.7005    159.1253 300.4499191 +22.7402851     821.3965     69.40762      1.059     1.73    -9.043321     19.54718     174.7639        10     0.941     0.602  55.12   0
       222    967.5896    158.6185 300.4363258 +22.7269353     605.9243     69.24889      1.038     2.97    -9.168091     19.54718     104.8536         9     0.980     0.578 -64.90   0
       223    201.6815    151.9370 300.2000348 +22.4955623     233.6308     69.39001      1.162     2.54    -9.088608     19.54718     53.75306         7     0.716     0.649  57.98   0
       224     63.6272    146.7404 300.1588233 +22.4526751     886.0747      69.2842      1.146     2.27    -9.544375     19.54718     149.1679        14     0.884     0.827  65.47   0
       225    886.5304    143.3033 300.4160209 +22.6982637     280.7767     69.40762      0.894     2.08    -9.240289     19.54718     65.82645         5     0.670     0.441  62.43   0
       226     13.0966    143.5294 300.1441702 +22.4365993     201.3993     69.40762      1.002     2.08    -9.282072     19.54718     58.14195         5     0.724     0.453  21.78   0
       227    220.9683    140.1006 300.2098702 +22.4979456     2715.155     69.26655      1.218     2.01    -9.001972     19.54718     464.7276        19     0.968     0.855  83.21   0
       228    201.9371    141.2898 300.2035688 +22.4925817     70.17461     69.37238      1.213     5.13    -9.082824     19.54718     34.64791         6     1.081     0.688 -11.17   0
       229      5.1342    134.4984 300.1446274 +22.4316191     696.6722     68.94808      1.240     2.67    -9.171324     19.54718     105.4148        12     0.908     0.836  45.88  16
       230    204.0956    130.8856 300.2076153 +22.4902412     233.5132     69.46045      1.222     2.68    -9.069522     19.54718     47.96765         5     0.633     0.564   7.72   0
       231   1019.6714    127.2044 300.4627634 +22.7334885     8819.027     69.07211      1.098     1.93    -9.037811     19.54718      1474.04        30     1.000     0.862  87.34  16
       232    864.9496    121.3845 300.4164054 +22.6854992     1738.611     69.30184      1.153     1.87    -9.195778     19.54718     308.1649        19     0.954     0.891 -77.34   0
       233    414.5756    116.9177 300.2776000 +22.5493159     300.6826     69.24889      1.380     2.02    -9.183485     19.54718     50.10931         6     0.722     0.490 -83.39   0
       234    338.5192    108.2170 300.2567644 +22.5240237     124.7402     69.28419      1.045     2.80    -8.973349     19.54718     47.49416         6     0.679     0.662 -34.08   0
       235    968.6128    120.0906 300.4491466 +22.7161596     1278.695     69.23124      1.088     1.95     -9.11082     19.54718     244.2569        12     0.862     0.740  52.69   0
       236    104.0974    105.5071 300.1847730 +22.4529731     387.4727     69.46045      1.307     4.11    -9.323462     19.54718      49.5922         8     0.898     0.680  41.47   0
       237    465.6277    104.0769 300.2976506 +22.5609239     809.4089     69.28419      1.122     2.04    -9.033566     19.54718     134.1987        11     0.800     0.770 -37.12   0
       238    394.4055    103.9050 300.2755467 +22.5395332     279.1704     69.17823      1.378     4.61    -9.091881     19.54718     38.10383         7     0.902     0.691 -27.57   0
       239    754.6371     93.7378 300.3909962 +22.6445198     215.1618     69.30184      0.928     3.02    -9.004432     19.54718     33.81428         5     0.740     0.440  70.94   0
       240    239.8328     83.9032 300.2339656 +22.4874615     3044.221     69.26655      1.237     2.09    -8.932653     19.54718     511.4716        21     1.024     0.860  73.61   0
       241     90.8752     83.3159 300.1878634 +22.4426372     429.4391     69.37238      1.259     2.55    -9.084742     19.54718     63.70459         8     0.837     0.737 -19.14   0
       242    485.9292     69.2535 300.3152647 +22.5569995     3071.676     69.30184      1.216     2.08    -8.643163     19.54718     496.4512        21     1.011     0.854 -78.56   0
       243    371.5282     69.0213 300.2797459 +22.5226557     327.9722      69.2842      1.421     2.78    -9.127893     19.54718     44.36206         6     0.773     0.499  89.64   0
       244    738.3759     58.7555 300.3972777 +22.6295920     461.4422     69.31949      1.280     2.35    -8.666029     19.54718     60.42571         6     0.721     0.542 -44.08   0
       245    830.5181     57.2338 300.4264842 +22.6567419     219.4789     69.24889      1.143     2.69    -8.868335     19.54718     43.21555         5     0.724     0.449  67.22   0
       246    614.2637     49.2933 300.3616895 +22.5897043      3082.62     69.39001      1.169     2.19    -8.462261     19.54718     455.4704        23     1.054     0.862  74.51   0
       247    389.3521     48.2994 300.2920114 +22.5220428     746.8621     69.31949      1.232     2.94    -9.176974     19.54718     98.42761        11     0.935     0.736 -43.97   0
       248    655.3531     46.5127 300.3753872 +22.6012107      476.741     69.24889      1.116     2.53    -8.505926     19.54718     69.30904         6     0.806     0.477  87.76   0
       249    671.2386     42.6649 300.3815828 +22.6048616     361.5755     69.26655      1.118     2.81    -8.501987     19.54718     45.09421         5     0.712     0.461 -10.95   0
       250    138.0677     40.9454 300.2162689 +22.4446192      375.707     69.31948      1.260     2.58    -8.634048     19.54718     52.08717         7     0.837     0.531  41.76   0
       251    941.2067     40.0274 300.4665728 +22.6849254     357.3896      69.2842      1.054     2.26    -9.069811     19.54718     72.32829         8     0.872     0.591  28.15   0
       252    709.9229     38.1063 300.3951111 +22.6151348     225.2301     69.42523      1.119     2.11    -8.474944     19.54718      55.1217         6     0.745     0.606  -0.08   0
       253    658.5056     34.1583 300.3803760 +22.5986029     1367.224     69.30184      1.192     2.22    -8.409937     19.54718     193.6453        19     0.985     0.876  76.76   0
       254    673.5170     32.4940 300.3855911 +22.6026196     424.0024     69.46045      1.330     4.28    -8.427034     19.54718     55.80659         7     1.144     0.457  45.86   0
       255    744.8614     25.5856 300.4100566 +22.6219957     808.7833     69.24889      1.204     2.18    -8.370535     19.54718      133.041        10     0.843     0.653  82.23   0
       256    682.9538     18.7661 300.3929827 +22.6014983     358.5966     69.31949      1.080     2.66    -8.330481     19.54718     58.33666         6     0.839     0.514 -88.59   0
       257    488.5788     18.2159 300.3326425 +22.5431255     479.2027     69.24889      1.134     2.57    -8.073072     19.54718     72.80811         8     0.801     0.654  54.98   0
       258     61.0769     18.0497 300.1997734 +22.4149634     288.1075     69.28419      1.351     2.95    -8.395268     19.54718     36.15408         5     0.613     0.606 -55.06   0
       259    392.4286     16.3016 300.3033458 +22.5137704     441.2315     69.21357      1.171     2.64    -9.234726     19.54718     56.03439         7     0.789     0.604  14.97   0
       260    288.3244   1014.9515 299.9464435 +22.7691498     520.6398      69.2842      1.178     2.09    -11.21417     19.54718     88.57276         8     0.750     0.622 -59.69   0
