#   1 NUMBER                 Running object number                                     
#   2 X_IMAGE                Object position along x                                    [pixel]
#   3 Y_IMAGE                Object position along y                                    [pixel]
#   4 ALPHA_J2000            Right ascension of barycenter (J2000)                      [deg]
#   5 DELTA_J2000            Declination of barycenter (J2000)                          [deg]
#   6 FLUX_APER              Flux vector within fixed circular aperture(s)              [count]
#   7 FLUXERR_APER           RMS error vector for aperture flux(es)                     [count]
#   8 FLUX_RADIUS            Fraction-of-light radii                                    [pixel]
#   9 FWHM_IMAGE             FWHM assuming a gaussian core                              [pixel]
#  10 BACKGROUND             Background at centroid position                            [count]
#  11 THRESHOLD              Detection threshold above background                       [count]
#  12 FLUX_MAX               Peak flux above background                                 [count]
#  13 ISOAREA_IMAGE          Isophotal area above Analysis threshold                    [pixel**2]
#  14 A_IMAGE                Profile RMS along major axis                               [pixel]
#  15 B_IMAGE                Profile RMS along minor axis                               [pixel]
#  16 THETA_IMAGE            Position angle (CCW/x)                                     [deg]
#  17 FLAGS                  Extraction flags                                          
         1    497.3679     17.1118 300.3423580 +22.5347076     233.7969     69.40872      1.029     3.43    -8.024267     19.59229     39.22742         5     0.821     0.414  69.61   8
         2    966.3147     11.8671 300.4901605 +22.6736177    -230.7963     69.53249      1.044     2.69    -8.408575     19.59229     54.55896         7     0.719     0.655 -87.23   0
         3    739.7453     10.8993 300.4198490 +22.6055142     430.1296     69.53249      1.290     3.10    -7.812128     19.59229     55.71555         9     0.860     0.701 -26.59   0
         4    174.6179     13.8597 300.2430316 +22.4370547     406.1972     69.42642      1.184     2.38    -7.829766     19.59229     79.58214         8     0.829     0.625  39.50   0
         5    548.8189   1022.4171 300.0316575 +22.8387091     1216.706     60.37988      1.104     2.03    -13.18762     19.59229     207.1989        15     0.883     0.826  57.67  24
         6    201.6785   1017.2684 299.9253706 +22.7329943      2859.71     69.55016      9.239    24.50     7.035598     19.59229     95.40701       180     4.737     3.517 -32.91  19
         7    175.1686   1021.5671 299.9157328 +22.7262627     1451.294      64.0713      6.205    12.71     12.18227     19.59229     58.27115        39     3.258     1.381 -39.83  27
         8     79.1467   1019.0057 299.8867360 +22.6966814     2412.181     69.40872     19.367    32.22     7.982696     19.59229     60.74876       212     7.118     4.047 -27.48  27
         9     64.9097   1014.5225 299.8837740 +22.6911196     1517.596     69.58547     19.043    31.42     1.995192     19.59229     43.02869       103     7.826     3.501  17.39  19
        10     79.0947    947.7394 299.9099232 +22.6762505     1878.807     69.53249     25.691    48.65    -6.736932     19.59229      80.2753       419     8.591     7.643  80.98   3
        11     67.4610    994.1559 299.8911980 +22.6860523       2052.4      69.4618     26.771    42.81   -0.6065156     19.59229     53.57027       366     8.014     6.348 -32.06  19
        12    169.5973   1007.9207 299.9184454 +22.7206794     1423.895     69.35561      7.842    12.80     9.825997     19.59229     45.63715        33     2.952     1.544  75.12  19
        13    220.7375   1016.5588 299.9315249 +22.7385159      3382.73     69.42642     11.331    33.97     4.184429     19.59229      69.4095       406     6.910     5.174 -12.23  27
        14    191.0486   1010.5527 299.9242541 +22.7278772     961.3566     69.47948      7.668     8.91     7.458784     19.59229     39.40121        16     1.830     1.211 -75.73  17
        15    927.9487   1001.2327 300.1566584 +22.9463915     482.3729      69.4618      1.156     2.13    -13.62276     19.59229     78.03815         8     0.777     0.619  54.46   0
        16    183.6508   1017.6314 299.9196502 +22.7276831     686.5786     69.47948      3.548     4.10     9.947597     19.59229     36.11932         5     1.417     0.338 -25.78  19
        17    149.9581    987.9581 299.9188433 +22.7090605     552.7118     69.55016      3.987     5.31     6.429746     19.59229     35.43317         5     1.407     0.596  42.87   3
        18    147.3290    987.9872 299.9180169 +22.7082790     787.2365      69.4618      2.945     5.95     6.418447     19.59229     30.19292         8     1.931     0.516  33.05   2
        19    134.3133    988.8044 299.9137070 +22.7046033     528.4993     69.37332      4.110     5.70     6.621444     19.59229     26.88101         6     1.182     0.774  56.62   1
        20    653.3574    984.7236 300.0764774 +22.8592748     3423.567     69.42642      1.116     1.98    -12.97866     19.59229     523.8906        24     0.975     0.906  28.39   0
        21    735.5646   1018.2397 300.0911660 +22.8935568     386.1878     69.49715      1.314     1.88    -12.86865     19.59229     51.54232         5     0.645     0.480 -73.07   0
        22    805.2346    977.9685 300.1259864 +22.9029063     187.3905      69.4618      0.814     2.64    -12.94232     19.59229     49.21323         5     0.788     0.469 -38.02   0
        23    561.9452    975.4464 300.0510389 +22.8291800      719.306     69.47948      1.004     1.75     -13.0615     19.59229     146.9637         9     0.743     0.638  76.80   0
        24     56.8646    975.7844 299.8938885 +22.6776061     682.3625     69.42642      2.920     3.89    -5.581639     19.59229     33.44397         5     1.408     0.308  58.12   1
        25    104.9464    969.1188 299.9109932 +22.6901415     1225.926      69.4618      9.916    10.99     1.058076     19.59229     42.24156        20     2.071     1.624 -30.04   3
        26    386.4377    970.1223 299.9981636 +22.7749679     3142.237     69.42642      1.087     1.74    -12.81646     19.59229     596.2205        19     0.885     0.846  38.25   0
        27    455.6935    972.0054 300.0190943 +22.7962998     529.4044      69.3379      1.098     1.90    -12.99022     19.59229      94.0455         7     0.673     0.621 -38.95   0
        28     53.8540    969.8270 299.8948930 +22.6749951     625.4399     69.47948      4.456     4.30    -6.855369     19.59229     32.75446         5     1.492     0.352  -5.44   1
        29    640.7007   1015.4202 300.0625400 +22.8642806      4644.71     69.37332      1.096     1.90    -13.23937     19.59229      783.586        30     1.073     0.899 -60.40   2
        30    697.1448    959.8072 300.0982270 +22.8652669     141.3202     69.44411      1.208     2.79     -12.7383     19.59229     39.08445         5     0.720     0.667  48.11   0
        31    419.1153    956.8671 300.0126437 +22.7809786     221.8535     69.55016      0.966     3.59    -12.76941     19.59229     45.81484         5     0.928     0.399 -45.54   0
        32     75.2852    968.6293 299.9019392 +22.6810905     2251.307     69.44411     18.504    22.27    -3.115839     19.59229     65.20935       133     5.314     2.591 -29.60   3
        33    932.5562    948.5587 300.1752474 +22.9326557     1115.434     69.51483      1.122     2.19    -13.14142     19.59229     169.5788        15     0.934     0.808  28.42   0
        34    431.4170    944.9514 300.0203500 +22.7812554     82.00882     69.47948      1.073     3.89      -12.704     19.59229     32.05927         5     0.881     0.493 -88.84   0
        35    721.4221    937.8636 300.1129332 +22.8662556     300.3141     69.42642      1.384     3.98    -12.59019     19.59229     70.26118         8     1.305     0.599  65.07   0
        36     63.8894    962.9797 299.9002391 +22.6760485     1611.965     69.39103     16.484    19.32    -6.011864     19.59229     45.28853        75     4.579     2.264 -62.33   3
        37    756.2906    931.6583 300.1258155 +22.8749360     476.2488     69.51483      0.997     1.61    -12.67361     19.59229     111.3933         8     0.786     0.535  73.21   0
        38    778.5017    925.4206 300.1347662 +22.8798092     5605.605     69.37332      1.015     1.78    -12.78928     19.59229     911.2465        30     0.955     0.919  79.76   0
        39    824.1473    925.5500 300.1489471 +22.8935382     328.5635     69.47948      1.240     2.73    -12.90126     19.59229     54.32294         6     0.748     0.599  47.17   0
        40     89.9117    917.0208 299.9232826 +22.6706989     524.2886     69.37332      1.532     2.49    -10.67671     19.59229     64.34544         9     0.767     0.759  49.66   0
        41    484.0251    913.6226 300.0469167 +22.7880638     221.1117     69.40873      1.207     3.59    -12.78406     19.59229     45.05755         6     0.973     0.426  15.35   0
        42    787.0773    907.4662 300.1432831 +22.8772296     733.6086     69.53249      1.027     1.66      -12.743     19.59229     153.9981         9     0.744     0.668 -34.57   0
        43     80.1975    908.5219 299.9230316 +22.6653458     353.6497     69.35561      1.143     3.43     -10.9901     19.59229     38.54025         5     0.792     0.428 -22.69   0
        44    970.2023    906.5027 300.2006779 +22.9318726     240.9275     69.35561      0.834     1.68    -12.79264     19.59229     62.38886         5     0.637     0.479 -19.98   0
        45    825.2501    901.0439 300.1572687 +22.8868363     470.3416     69.47948      1.128     2.28    -12.73956     19.59229     89.76817         7     0.787     0.619  85.53   0
        46    724.8808    891.1391 300.1292213 +22.8538873      397.401     69.53249      1.073     2.12     -12.4842     19.59229     75.88522         6     0.686     0.559 -59.23   0
        47    437.5914    887.8074 300.0408725 +22.7667237     1956.757     69.30246      1.081     1.84    -12.33675     19.59229     353.0078        17     0.884     0.824   1.37   0
        48    736.0198    888.1754 300.1336558 +22.8563785     297.2307      69.4618      0.987     2.28    -12.47912     19.59229     79.78278         5     0.681     0.617  11.83   0
        49    215.4664    877.4321 299.9751792 +22.6970624     209.5649     69.44411      1.204     4.10    -11.60613     19.59229     42.72758         5     0.985     0.488  83.06   0
        50    163.0378    873.5276 299.9601570 +22.6801991     372.3839     69.40872      1.252     3.22    -11.12285     19.59229     60.09785         8     0.989     0.558 -24.70   0
        51    139.7607    870.4452 299.9539277 +22.6723252     868.9082     69.51483      1.228     2.13    -11.46239     19.59229     137.9436        11     0.821     0.755  25.34   0
        52   1011.5437    859.2444 300.2289538 +22.9306995     1032.072      69.4618      1.019     1.85    -12.31797     19.59229     182.8501        12     0.804     0.703 -85.24   0
        53     15.0336    860.2548 299.9185023 +22.6319423     222.9536      69.4618      1.328     3.88    -11.72813     19.59229     29.85648         5     0.850     0.507  51.85   0
        54    965.8022    857.8848 300.2151315 +22.9165957     880.0424     69.37332      1.067     1.67    -12.35447     19.59229     232.7732        10     0.735     0.672 -14.94   0
        55    171.8636    852.3838 299.9697803 +22.6767897       212.95     69.42642      1.104     2.03    -11.75553     19.59229     44.29446         5     0.694     0.444 -21.92   0
        56    617.4849    845.8184 300.1105262 +22.8086649      2428.03     69.39103      1.053     1.84    -12.15126     19.59229     419.8293        17     0.913     0.753 -54.47   0
        57    419.5601    842.7551 300.0499255 +22.7483923     327.6853     69.51483      1.148     4.11    -12.03543     19.59229     55.75117        11     1.192     0.724  87.29   0
        58    167.8538    839.8668 299.9726075 +22.6719980     639.0466     69.47948      1.161     2.26     -11.7694     19.59229     113.7466         9     0.827     0.671 -11.35   0
        59    637.9263    838.4020 300.1193046 +22.8126699     371.9032     69.35561      1.294     2.37    -12.11499     19.59229     62.23717         5     0.706     0.451 -20.78   0
        60    793.4067    825.4822 300.1719393 +22.8555995     2041.624     69.37332      0.984     1.87    -12.38668     19.59229     329.7702        14     0.780     0.750 -89.63   0
        61   1010.3706    825.5287 300.2395611 +22.9206667     549.3423     69.44411      1.039     2.16     -11.9332     19.59229     93.77803         7     0.807     0.491   8.06   0
        62    201.8481    819.5717 299.9897754 +22.6763883     268.4565      69.4618      1.250     3.45    -11.76205     19.59229     38.29827         5     0.777     0.443  20.16   0
        63    510.5419    817.8873 300.0863262 +22.7685643     239.3228     69.51483      0.937     1.85    -11.88798     19.59229     58.40007         6     0.703     0.498  89.72   0
        64    156.9148    816.0552 299.9769563 +22.6618883     442.9178     69.51483      1.138     2.37    -11.80035     19.59229     82.97781         9     0.760     0.709 -73.14   0
        65    306.5982    808.2650 300.0260166 +22.7045952     25943.66     69.44411      1.127     1.88    -11.74302     19.59229     4296.757        60     1.107     1.065  37.70   0
        66    564.6188    807.1360 300.1066558 +22.7817059     926.2823     69.40872      1.153     2.53    -11.81978     19.59229     143.4547        13     0.996     0.847  71.35   0
        67    234.7906    806.7955 300.0041712 +22.6826166     282.8505     69.30246      1.224     2.80    -11.74744     19.59229     37.83958         6     0.727     0.566  54.06   0
        68    977.1957    806.1810 300.2355110 +22.9051660     406.9976     69.39103      1.081     1.88    -11.93187     19.59229     89.94367         6     0.682     0.539  55.28   0
        69    593.2087    803.2601 300.1168171 +22.7891715     392.8504     69.40873      1.088     2.20    -11.78719     19.59229      73.1067         6     0.706     0.540  34.98   0
        70    604.1012    801.4932 300.1207831 +22.7919325     287.6478     69.62077      0.910     1.99    -11.77089     19.59229     61.69128         6     0.713     0.500   2.28   0
        71    747.2808    788.0740 300.1697406 +22.8310293     392.6914     69.55016      1.083     2.25    -12.17984     19.59229     67.50845         7     0.700     0.642 -71.98   0
        72    370.6985    786.0818 300.0531676 +22.7174745     900.4399     69.58547      1.129     2.13    -11.50795     19.59229     162.5252        11     0.797     0.722 -85.70   0
        73    356.3275    785.5168 300.0488819 +22.7129992     15332.85     69.56782      1.092     1.92    -11.49208     19.59229     2352.283        40     1.011     0.986 -72.73   0
        74    879.3856    781.1019 300.2131762 +22.8686417     1307.632     69.35561      1.060     1.69    -12.11285     19.59229     289.2361        15     0.854     0.789 -19.91   0
        75    367.1683    779.8564 300.0540950 +22.7146297     267.2217      69.4618      1.179     1.74    -11.45204     19.59229     62.78721         6     0.693     0.517 -43.49   0
        76    238.6900    777.1687 300.0150220 +22.6752935      437.889     69.39103      1.186     2.40    -11.56043     19.59229      73.4752         8     0.825     0.629  85.40   0
        77    637.1016    777.3219 300.1389226 +22.7948966     552.5727     69.55016      1.115     2.01    -11.72506     19.59229      97.9406         7     0.681     0.635 -14.20   0
        78    484.4088    772.1499 300.0930751 +22.7476027     378.4021     69.44411      1.177     1.60     -11.4701     19.59229     75.10512         5     0.623     0.470  69.42   0
        79    386.1571    768.3002 300.0637606 +22.7170144     47.98511     69.42642      1.072     4.29    -11.33678     19.59229      37.8309         5     1.015     0.517  36.81   0
        80    342.2297    767.7661 300.0502724 +22.7036774     29.09483      69.4618      1.197     3.75    -11.37517     19.59229     26.94966         5     0.953     0.424 -45.09   0
        81    863.3487    763.7447 300.2138246 +22.8588502     99.03657     69.47948      0.931     3.13    -11.97036     19.59229     42.90347         5     0.725     0.459 -76.80   0
        82    236.4107    762.0914 300.0192183 +22.6702865      299.739     69.39103      1.338     4.65    -11.44885     19.59229     48.62089         7     1.290     0.476 -63.84   0
        83    529.3109    750.3917 300.1141273 +22.7548330     412.0286     69.35561      1.733     3.27    -11.48568     19.59229     47.37963         5     0.900     0.457  12.85   0
        84    551.4291    747.5476 300.1219368 +22.7606527     635.4607      69.4618      1.030     2.07    -11.56688     19.59229     116.0224        10     0.838     0.660 -62.15   0
        85    945.6961    746.4266 300.2451306 +22.8785646      2190.92     69.39103      1.056     1.77    -11.76124     19.59229     395.4224        17     0.873     0.793  59.00   0
        86    934.1084    737.9335 300.2442805 +22.8726521     810.1344     69.58547      1.082     1.81    -11.70916     19.59229     179.3258        11     0.864     0.676 -53.86   0
        87    297.2339    731.8591 300.0479611 +22.6798751     306.8514     69.47948      1.070     2.00    -11.18268     19.59229     72.70125         6     0.694     0.544 -47.59   0
        88    760.4344    729.2104 300.1929886 +22.8180778      1197.23     69.42642      1.034     1.76    -11.68956     19.59229     211.8379        10     0.731     0.669   1.92   0
        89    965.1815    727.8641 300.2572452 +22.8790746     745.9966     69.40872      1.068     1.63    -11.62138     19.59229     179.0079        11     0.806     0.724  79.89   0
        90    843.0272    715.2455 300.2232680 +22.8388328     343.5944     69.47948      1.205     3.67    -11.53627     19.59229      53.3723         7     1.139     0.407  55.65   0
        91    145.8703    715.8723 300.0061140 +22.6298542     366.8093     69.51483      1.231     2.38    -11.57382     19.59229     56.84181         6     0.751     0.528  51.31   0
        92    878.9332    706.1601 300.2374149 +22.8469883      72316.3     69.40872      1.125     1.75    -11.44034     19.59229     15651.52       104     1.145     1.093  83.38   0
        93    641.1866    709.9808 300.1621009 +22.7767966     148.5863     69.40872      0.878     3.13    -11.49998     19.59229     35.86621         5     0.802     0.486 -34.84   0
        94    731.3958    706.3538 300.1913767 +22.8028089     397.8347     69.42642      1.296     2.82    -11.66694     19.59229     64.07731         8     0.930     0.621 -52.97   0
        95    565.2538    695.0583 300.1433132 +22.7497386     743.0687     69.49715      1.129     2.03    -11.06913     19.59229      137.557         9     0.803     0.624  36.00   0
        96    746.4214    692.3423 300.2006148 +22.8032922     4649.288      69.4618      1.077     1.89    -11.61498     19.59229     745.4948        24     0.946     0.856 -52.59   0
        97    248.0083    687.5941 300.0470537 +22.6524064     2387.378     69.30246      1.173     2.03    -11.17083     19.59229     381.5271        21     1.004     0.865 -66.17   0
        98    329.8325    685.6415 300.0731289 +22.6764037      608.826     69.49715      1.213     2.08    -11.07703     19.59229      110.045        11     1.017     0.720 -19.87   0
        99    538.1089    681.0712 300.1394127 +22.7375823     469.8201     69.60313      1.440     3.06    -10.81003     19.59229     54.75286         7     0.863     0.532  46.55   0
       100    529.8466    673.1077 300.1394308 +22.7328187     1503.441      69.4618      1.207     1.94    -10.74191     19.59229     286.7894        16     0.916     0.866 -76.97   0
       101    520.2123    666.8855 300.1384556 +22.7281433     655.9631     69.39103      1.245     2.36    -10.73005     19.59229     125.6019        12     0.901     0.795  -1.58   0
       102    183.5067    663.2692 300.0349157 +22.6260705      330.351     69.56782      1.336     3.17    -11.17291     19.59229     59.07757         6     0.878     0.546 -28.03   0
       103    966.7744    658.0172 300.2804597 +22.8594909     178.9793      69.4618      1.015     2.46    -11.13454     19.59229      61.5815         7     0.799     0.590  62.62   0
       104    444.8888    656.8458 300.1182812 +22.7026662     855.6668     69.42642      1.204     2.20    -10.80361     19.59229     140.3217        13     0.947     0.771 -85.69   0
       105    223.5501    658.1498 300.0490257 +22.6366217     251.9967     69.47948      1.221     2.70    -11.14617     19.59229     51.02662         5     0.721     0.470 -72.50   0
       106     98.9325    651.8677 300.0123445 +22.5974131     9479.091     69.49715      1.231     2.10     -11.2357     19.59229     1540.009        38     1.080     1.008  66.24   0
       107   1020.5210    653.7875 300.2985976 +22.8743824     347.5775     67.54314      0.973     2.16    -11.13454     19.59229     70.88079         5     0.696     0.428  61.90  16
       108     19.8138    653.1479 299.9873538 +22.5740258     372.2306     69.47948      1.418     4.01    -11.25743     19.59229     52.95031         8     1.138     0.510 -30.08   0
       109    529.9802    651.9854 300.1463410 +22.7267975     465.8222     69.42642      1.178     2.00    -10.59563     19.59229     90.40177         9     0.731     0.694  -8.67   0
       110    947.8804    638.0280 300.2810683 +22.8480869     477.0351      69.4618      1.131     1.83    -11.13454     19.59229      118.443         9     0.727     0.656  16.13   0
       111     45.1143    635.9101 300.0008158 +22.5766808     617.1237     69.60313      1.556     5.45     -11.2487     19.59229     84.95287        13     1.334     0.750 -77.62   0
       112    888.2026    630.6630 300.2648571 +22.8280856     368.1632     69.44411      1.036     1.82    -11.11649     19.59229     72.43549         5     0.660     0.459 -13.98   0
       113    632.8114    628.9870 300.1858322 +22.7510377      129.993     69.35561      1.243     3.88    -10.76861     19.59229     26.48042         5     0.834     0.518 -28.17   0
       114    450.0544    624.6210 300.1303663 +22.6949698     320.3688     69.44411      1.148     1.91    -10.61669     19.59229     60.37139         6     0.742     0.482   5.78   0
       115    645.6436    622.2090 300.1920318 +22.7529400      240.644      69.4618      1.267     4.57    -10.74556     19.59229     36.21401         6     1.039     0.652  45.45   0
       116    494.0891    620.8962 300.1452795 +22.7071101      474.305     69.62077      1.317     2.44      -10.402     19.59229     60.31693         9     0.762     0.737 -58.95   0
       117    927.8541    616.1611 300.2819343 +22.8358042     1604.122     69.44411      1.126     1.78    -11.13393     19.59229      339.623        13     0.799     0.763 -42.80   0
       118    459.6714    616.1920 300.1360990 +22.6954361     825.0227     69.42642      1.190     2.18    -10.50047     19.59229     140.0983        12     0.850     0.820 -79.92   0
       119     21.6888    610.0642 300.0019430 +22.5622383     2377.609     69.56782      1.217     2.08    -11.26279     19.59229     368.0922        19     0.986     0.847  63.88   0
       120    323.1215    603.0173 300.0979071 +22.6506894     4506.495     69.44411      1.256     2.08    -11.01278     19.59229     735.8741        26     0.998     0.986  10.03   0
       121    445.5911    600.0468 300.1369670 +22.6865795     4393.247      69.4618      1.238     2.16    -10.51077     19.59229     657.4791        27     1.010     0.977 -61.46   0
       122    857.0281    593.9073 300.2670902 +22.8081854     950.6511     69.39103      1.111     1.83    -10.91188     19.59229     189.8752        10     0.789     0.671   3.48   0
       123    941.7629    591.1921 300.2943892 +22.8327999     6121.396      69.4618      1.137     1.87    -11.01107     19.59229     1119.895        29     0.971     0.930 -35.25   0
       124    506.1463    589.6377 300.1591941 +22.7017561     5572.081     69.44411      1.195     2.05    -10.25608     19.59229     894.2327        30     1.032     0.964 -79.98   0
       125    675.6783    585.5045 300.2133186 +22.7514087     218.6177     69.56782      1.097     2.78    -10.56417     19.59229     47.97092         6     0.841     0.467 -88.70   0
       126    233.6436    585.0715 300.0759217 +22.6186921     747.3387     69.40873      1.222     2.52    -11.08758     19.59229     107.6564        10     0.905     0.664  34.77   0
       127    481.0800    582.5342 300.1537027 +22.6921991     181.0411     69.55016      1.305     4.54    -10.23801     19.59229     35.47221         5     1.185     0.495  -3.26   0
       128    437.8598    577.8094 300.1417904 +22.6778792     2295.306     69.42642      1.331     2.02    -10.43806     19.59229     351.0386        24     1.053     0.976 -65.83   0
       129    780.9175    577.4635 300.2487167 +22.7806496     296.1591     69.55016      1.054     2.21    -10.56192     19.59229     69.00948         7     0.710     0.623   6.85   0
       130    416.0053    576.2290 300.1355050 +22.6708700     529.3861     69.44411      1.240     2.73    -10.53231     19.59229     89.07127        10     0.958     0.657  82.83   0
       131    170.3702    575.5530 300.0593501 +22.5969734     422.1754      69.4618      1.423     2.82    -11.08826     19.59229     55.91716         6     0.830     0.480  85.57   0
       132    857.6893    572.9958 300.2740945 +22.8023773     837.5571     69.35561      1.325     2.48    -10.72716     19.59229     111.7616        15     1.074     0.817 -44.15   0
       133    378.5750    571.4338 300.1254203 +22.6582655     204.3501      69.4618      1.580     4.15    -10.73535     19.59229     25.47342         5     0.996     0.493 -88.00   0
       134    554.4080    565.3387 300.1821144 +22.7092559     99269.09     69.42642      1.216     2.14    -10.21927     19.59229     12921.81       126     1.278     1.222 -35.18   0
       135    738.1908    570.2126 300.2377618 +22.7657593     289.9725      69.3379      1.013     1.92    -10.50273     19.59229     81.42491         7     0.792     0.523 -64.91   0
       136    240.5154    565.4555 300.0844339 +22.6151276     1579.792     69.53249      1.143     2.11    -11.04908     19.59229     236.7357        17     0.941     0.873 -60.13   0
       137    444.9122    545.6904 300.1544247 +22.6707773     1360.601     69.60313      1.478     2.13    -10.23813     19.59229     185.0187        19     1.224     0.867 -56.44   0
       138    841.9302    531.6818 300.2826119 +22.7857876     797.3116     69.55016      1.115     2.09    -10.41429     19.59229     143.4655        10     0.802     0.706  22.05   0
       139    713.1141    529.4520 300.2431989 +22.7465372     1243.119      69.4618      1.142     2.05    -10.22163     19.59229     209.7376        12     0.849     0.721 -89.25   0
       140    970.4171    523.1601 300.3254393 +22.8218403     663.1144      69.4618      1.089     2.08    -10.74834     19.59229     107.7647         8     0.755     0.614  51.33   0
       141    956.0410    522.5448 300.3211562 +22.8173562     626.3163     69.40872      1.517     3.19    -10.69962     19.59229     56.74603         7     0.786     0.637  13.83   0
       142    842.3279    521.8433 300.2859335 +22.7830807     1052.119     69.42642      1.310     2.15    -10.38493     19.59229     168.6141        15     1.218     0.784 -88.62   0
       143    596.0483    520.0538 300.2097964 +22.7087423     360.9203     69.47948      1.654     4.31    -9.989202     19.59229     36.65321         6     1.181     0.448  29.54   0
       144    434.2391    519.0279 300.1597694 +22.6599242     231.3398     69.47948      1.171     3.77    -10.12163     19.59229     32.89491         5     0.828     0.493  38.54   0
       145    880.3169    516.8296 300.2994044 +22.7930246     2000.594      69.4618      1.146     2.00    -10.43735     19.59229     346.5732        16     0.889     0.813  73.72   0
       146    112.3004    507.5714 300.0634003 +22.5600487     518.5115     69.35561      1.460     3.70    -10.82323     19.59229     66.99718         9     1.162     0.645 -32.05   0
       147    972.0226    507.0717 300.3311688 +22.8176985      281.456     69.47948      1.112     2.43    -10.69882     19.59229     55.89088         5     0.609     0.589  -3.93   0
       148    653.9160    487.2997 300.2384597 +22.7166868     364.8294     69.60313      1.200     2.26     -9.81099     19.59229     53.46134         7     0.693     0.643   2.16   0
       149    968.4031    479.7725 300.3389118 +22.8087697     339.2225     69.40873      1.442     2.67    -10.59512     19.59229     43.16519         5     0.730     0.435 -67.18   0
       150    714.3785    479.4765 300.2598338 +22.7325642     454.5339     69.44411      1.330     2.84    -9.896714     19.59229     59.66903         9     0.959     0.612  84.25   0
       151    871.8495    475.8369 300.3100866 +22.7787107     557.2727     69.44411      1.219     2.13    -10.27206     19.59229     87.28289         9     0.738     0.702  66.95   0
       152    855.9427    471.9834 300.3063805 +22.7728372     304.9716     69.40872      1.080     2.67    -10.22211     19.59229     55.85809         5     0.610     0.601 -84.61   0
       153    600.3427    470.3606 300.2272818 +22.6957622      1582.59     69.42642      1.240     2.37    -9.667334     19.59229     199.3678        16     0.952     0.827  74.46   0
       154    960.9439    468.8366 300.3401393 +22.8033926     208.3425     69.44411      1.265     2.75     -10.5174     19.59229     44.16256         5     0.775     0.495 -51.83   0
       155   1011.8025    449.0342 300.3624353 +22.8129367     649.4113     69.40872      1.221     2.14    -10.41791     19.59229      118.947        11     0.919     0.682  -5.39   0
       156    883.4266    448.9613 300.3224283 +22.7744578     259.2107      69.4618      1.209     3.34    -10.19008     19.59229     45.46857         5     0.753     0.428 -66.50   0
       157    969.8979    447.7225 300.3497922 +22.8000074     403.8629     69.56782      1.007     2.21    -10.39117     19.59229     84.11756         7     0.691     0.636 -26.50   0
       158    710.9764    444.1278 300.2702596 +22.7213921     476.1379     69.47948      1.269     2.31    -9.791545     19.59229     95.60992         9     0.856     0.658  10.84   0
       159    214.9019    442.7862 300.1163337 +22.5722516     251.0567      69.3379      1.275     2.49    -10.14398     19.59229     48.71821         6     0.747     0.530  38.83   0
       160    277.3842    438.2319 300.1372372 +22.5896891     1820.574     69.42642      1.255     2.38    -9.922077     19.59229     223.7355        18     1.025     0.852  85.16   0
       161   1010.3441    436.4484 300.3660697 +22.8088826     2173.394     69.47948      1.110     1.92    -10.31844     19.59229     366.8261        21     0.953     0.917 -84.02   0
       162    224.5943    433.0535 300.1225082 +22.5723670     3550.349     69.40873      1.264     2.28     -10.0193     19.59229     513.8188        22     0.995     0.928  48.75   0
       163    990.2859    427.3090 300.3627830 +22.8002479     939.5816     69.60313      1.140     2.15     -10.2529     19.59229     154.6611        12     0.908     0.708  37.11   0
       164    365.2896    427.1759 300.1681652 +22.6128828     2395.355     69.39103      1.278     2.34    -9.528638     19.59229     294.0329        23     1.063     0.953  37.44   0
       165    609.4768    423.7786 300.2452601 +22.6851244     8942.451     69.44411      1.291     2.28    -9.567705     19.59229     1230.217        37     1.114     1.070  73.54   0
       166    626.8230    423.7367 300.2506750 +22.6903120     513.2667     69.42642      2.062     5.92    -9.609795     19.59229     36.71674        10     1.352     0.729 -36.30   0
       167    229.7634    411.2125 300.1312098 +22.5676509     239.2456     69.42642      1.414     4.38    -9.799455     19.59229     25.28326         5     0.773     0.707  33.14   0
       168    943.0897    406.3102 300.3548867 +22.7800757     485.6198     69.60313      1.267     2.84    -10.18089     19.59229      69.7524        10     0.879     0.780 -25.32   0
       169    480.8078    405.1761 300.2112510 +22.6412083     656.3929     69.44411      0.448   -10.48    -9.134588     19.59229     542.9256         5     0.690     0.249 -40.14   0
       170    164.3344    404.2695 300.1131292 +22.5460300      1007.06     69.49715      1.330     2.67    -9.922724     19.59229     108.0631        15     0.960     0.871 -59.57   0
       171    550.0555    393.1992 300.2366941 +22.6585303     3241.399     69.37332      1.339     2.39    -9.169477     19.59229     396.1325        27     1.102     1.016  69.71   0
       172    963.8719    393.5035 300.3655275 +22.7826201     679.3057     69.56782      1.220     2.09    -10.15219     19.59229     95.38089         8     0.732     0.656 -81.23   0
       173    264.9768    392.6686 300.1481801 +22.5728924     316.4936     69.44411      1.070     2.12    -9.590585     19.59229     55.67672         5     0.709     0.425  20.97   0
       174    754.3457    381.9868 300.3039576 +22.7165389     588.6667     69.44411      1.314     3.64    -9.553402     19.59229     62.47236        11     0.960     0.879 -44.14   0
       175    456.8033    379.6674 300.2120669 +22.6266875     3052.399     69.42642      1.330     2.39    -9.132594     19.59229     436.3161        24     1.061     0.985  63.85   0
       176    946.1456    373.8211 300.3663932 +22.7716536      227.527     69.44411      1.142     2.61    -10.11874     19.59229     61.54331         7     0.989     0.474  66.68   0
       177    848.7648    373.7931 300.3360428 +22.7424745     642.8715     69.44411      1.271     3.46    -9.811986     19.59229     90.82289        11     1.073     0.660 -11.87   0
       178    441.3805    368.1940 300.2109945 +22.6187693     196.2778     69.40872      1.066     3.45    -9.134142     19.59229      25.5291         5     0.758     0.454  73.58   0
       179    344.2888    358.8644 300.1838216 +22.5869774     1288.189     69.56782      1.410     2.58    -9.200031     19.59229     151.8773        17     0.985     0.946  10.44   0
       180     62.9751    356.0432 300.0973001 +22.5017836     478.5389     69.47948      1.224     2.82     -9.72559     19.59229     70.89709         9     0.877     0.681 -77.87   0
       181    313.7122    348.3863 300.1777153 +22.5748002     14391.59     69.39103      1.321     2.31    -9.252808     19.59229     1859.969        43     1.186     1.063  85.75   0
       182    848.3182    345.5734 300.3450691 +22.7342314     653.4645     69.42642      1.126     2.32    -9.700657     19.59229     100.1224        11     0.876     0.747  59.73   0
       183     10.0694    336.2566 300.0872932 +22.4802331     2281.656      69.4618      1.257     2.30    -9.720469     19.59229     334.3343        20     0.960     0.917 -78.16   0
       184    187.4282    333.8504 300.1431759 +22.5327525     284.3879      69.4618      2.035     5.99    -9.534341     19.59229       31.246         8     1.521     0.664  82.42   0
       185    763.6043    334.2993 300.3223304 +22.7056123     293.6792      69.3379      1.154     3.25    -9.359362     19.59229     38.82104         5     0.725     0.458 -72.22   0
       186    411.9142    333.8529 300.2129793 +22.6000751     266.2145     69.47948      1.442     4.67    -9.132779     19.59229     30.81237         7     0.960     0.645 -74.12   0
       187    723.8938    327.8441 300.3120547 +22.6918593     994.9385      69.4618      1.294     2.47    -9.335946     19.59229     128.3487        12     0.905     0.793  77.18   0
       188    939.2754    320.3596 300.3816139 +22.7542296     408.2234     69.40873      1.269     3.55    -10.07863     19.59229     62.45912         8     1.050     0.577 -80.28   0
       189    386.0506    312.5930 300.2118369 +22.5862167      1060.54     69.44411      1.456     2.64    -9.061225     19.59229     133.5309        18     1.135     0.880  72.24   0
       190    825.1796    305.2133 300.3509638 +22.7157015     254.5577     69.40872      1.243     2.37    -9.438674     19.59229     59.24163         7     0.828     0.542 -53.87   0
       191    447.9102    295.9980 300.2364704 +22.5999977     629.2985     69.35561      0.404     1.68     -9.13695     19.59229     596.0676         5     0.406     0.227  16.81   0
       192    461.6948    291.7518 300.2421383 +22.6029107     636.9642      69.4618      1.535     2.43    -9.137236     19.59229     85.69159        10     0.829     0.771  69.75   0
       193    706.4506    283.7332 300.3209440 +22.6739593     1053.447     69.42642      1.364     2.55    -9.286116     19.59229     134.0141        16     1.012     0.880  76.31   0
       194    967.6640    277.9492 300.4042377 +22.7505398     1576.146     69.49715      1.170     1.89    -9.919182     19.59229     287.0865        20     1.056     0.860  85.56   0
       195    415.0474    267.7853 300.2354053 +22.5820448     283.8398      69.4618      1.401     4.46    -9.074317     19.59229     39.32221         8     0.878     0.784  83.77   0
       196     89.5712    262.0346 300.1360846 +22.4827910     619.9095      69.4618      1.476     3.86    -9.460654     19.59229     66.26601        13     1.121     0.864 -88.68   0
       197    120.0574    262.0304 300.1455577 +22.4919345     176.5551      69.4618      1.110     3.12    -9.440782     19.59229     45.67658         7     0.876     0.522  42.49   0
       198    983.4344    258.3044 300.4155341 +22.7496142     219.0285     69.44411      0.976     3.03    -9.609614     19.59229     47.16832         5     0.751     0.430 -66.45   0
       199    173.8249    254.0632 300.1648521 +22.5057748     237.9736     69.42642      1.399     4.05    -9.382845     19.59229     38.25179         6     0.909     0.647 -16.31   0
       200    777.8022    244.9975 300.3557497 +22.6842042     286.0736     69.23153      1.171     3.41    -9.309821     19.59229     52.59649         7     0.931     0.647  60.11   0
       201     53.0752    237.3134 300.1327716 +22.4647496     215.0765     69.56782      1.197     3.49    -9.471265     19.59229     32.39315         5     1.024     0.343 -42.83   0
       202    876.0840    234.1164 300.3899136 +22.7105137     982.2067     69.56782      1.248     2.28    -9.380573     19.59229     170.3107        13     0.925     0.767  82.51   0
       203    294.8943    231.8272 300.2097064 +22.5356976     1050.728     69.37332      1.371     2.61    -9.177052     19.59229      120.755        14     0.940     0.875  21.59   0
       204    372.8208    226.9774 300.2355160 +22.5576681     507.0933     69.44411      1.419     3.18    -8.927238     19.59229     55.88051        10     0.860     0.795  -7.35   0
       205    774.8254    225.6104 300.3611155 +22.6777407     260.5913     69.44411      0.970     2.23    -9.290746     19.59229     54.12362         5     0.711     0.437  22.60   0
       206    189.6936    219.0405 300.1811519 +22.5004816     425.1246      69.4618      1.415     2.67    -9.298078     19.59229     51.66956         7     0.719     0.658 -72.29   0
       207    727.3406    215.5079 300.3495999 +22.6606133     840.0174     69.51483      1.346     2.99    -9.174523     19.59229     103.9426        12     1.017     0.743  73.95   0
       208    792.6856    214.9318 300.3701472 +22.6800213      376.006     69.53249      1.538     3.97    -9.265302     19.59229     46.90909         7     1.115     0.524  10.06   0
       209    210.9600    212.3717 300.1899264 +22.5049447     221.2829     69.47948      1.183     2.81    -9.228637     19.59229     44.40299         5     0.754     0.583 -83.63   0
       210    998.7584    207.8079 300.4367059 +22.7396831     378.2386      69.4618      1.165     1.85    -9.058864     19.59229     75.40235         6     0.683     0.534  40.53   0
       211    731.3571    207.1072 300.3535779 +22.6594022     277.7574      69.4618      1.177     3.31    -9.102732     19.59229     44.78559         7     0.755     0.643  78.25   0
       212    651.8148    206.2866 300.3290676 +22.6353373     741.5248     69.39103      1.413     2.96    -9.094755     19.59229     75.43958        11     0.890     0.797  82.60   0
       213    847.1175    197.8922 300.3926423 +22.6914258     667.0077     69.58547      1.267     2.68    -9.179023     19.59229     103.9269        11     0.962     0.698  27.88   0
       214    578.1590    198.0769 300.3087968 +22.6109096     553.8439     69.40872      1.379     3.06    -9.080304     19.59229     68.13496        10     0.944     0.692  29.46   0
       215    859.1196    196.7924 300.3967404 +22.6947039      312.936     69.37332      1.197     3.04    -9.163546     19.59229     53.90007         6     0.763     0.544 -45.28   0
       216   1020.0922    187.5708 300.4499287 +22.7402504     821.6626     68.57191      1.136     1.88    -9.025272     19.59229     142.6598        12     1.148     0.640 -75.66  16
       217    976.2309    187.0699 300.4364108 +22.7269753     544.5109     69.44411      1.075     2.01    -9.074069     19.59229     101.2879         8     0.758     0.618 -56.46   0
       218    210.1637    180.2572 300.2001011 +22.4954870     233.6456     69.44411      1.097     2.85    -9.129829     19.59229     55.92838         6     0.761     0.528  61.39   0
       219     72.1226    175.3460 300.1587992 +22.4526805      1066.38     69.47948      1.331     2.62    -9.304994     19.59229      131.737        17     1.063     0.920  57.62   0
       220    895.1588    171.8366 300.4160747 +22.6983213     194.2092     69.53249      1.086     1.94    -9.019787     19.59229     59.45464         6     0.695     0.540 -53.61   0
       221    229.4584    168.6242 300.2098738 +22.4979327     2688.203     69.44411      1.296     2.36    -9.051409     19.59229     353.3992        23     1.078     0.947  82.60   0
       222     13.7308    162.7974 300.1447338 +22.4315653     668.5427     69.40873      1.385     3.27    -9.313495     19.59229      78.9307        12     1.009     0.804  76.03   0
       223    213.0508    159.4981 300.2077348 +22.4903931     227.9776     69.51483      1.017     2.09    -9.045278     19.59229     51.79624         6     0.725     0.495  -8.00   0
       224    873.4033    149.8615 300.4164237 +22.6854889     1779.834     69.42642      1.226     2.23    -8.850513     19.59229     258.0495        16     0.927     0.855  66.59   0
       225    977.0467    148.5892 300.4491534 +22.7161538     1427.262      69.4618      1.185     1.94    -8.925157     19.59229     244.5002        14     0.936     0.743  88.32   0
       226    422.8080    145.1417 300.2776247 +22.5491490     349.9861     69.42642      1.395     3.29    -8.958506     19.59229     46.66657         5     0.948     0.331  47.47   0
       227    113.0320    134.2330 300.1848488 +22.4531492     262.3576     69.47948      1.293     4.62    -9.020846     19.59229      32.0505         8     0.997     0.607 -64.96   0
       228    474.3464    132.5448 300.2977489 +22.5609757     901.3915     69.47948      1.337     2.96     -8.89922     19.59229       109.19        12     0.976     0.745  72.09   0
       229    248.4406    112.5433 300.2339709 +22.4875218     2899.214     69.42642      1.317     2.48    -8.701734     19.59229     345.7947        26     1.154     0.963  74.40   0
       230     99.6983    111.9093 300.1879484 +22.4427428     431.2596     69.62077      1.337     3.65    -8.871705     19.59229     51.69817         8     1.023     0.528  37.05   0
       231    494.4894     97.6930 300.3153249 +22.5569989     3099.478     69.60313      1.363     2.36    -8.714199     19.59229     400.4609        25     1.067     1.021 -71.62   0
       232    379.9848     97.4564 300.2797734 +22.5226182     353.6351     69.42642      1.179     2.73     -8.93185     19.59229     53.42739         8     0.847     0.631  50.31   0
       233    746.8662     87.2102 300.3973156 +22.6295855     317.8006     69.42642      1.310     2.29    -8.314939     19.59229     60.58606         6     0.744     0.521 -42.09   0
       234    622.7996     77.8408 300.3617100 +22.5897340     2915.559      69.4618      1.326     2.45    -8.207589     19.59229     408.6368        23     1.029     0.999 -83.28   0
       235    397.9359     76.8851 300.2920310 +22.5220888     631.1461     69.55016      1.319     2.49    -8.771799     19.59229      105.488        14     0.967     0.863 -65.20   0
       236    664.5244     74.9912 300.3756287 +22.6014126     336.5938     69.42642      1.371     4.51     -8.18804     19.59229     37.35802         8     1.060     0.700  37.68   0
       237    949.5258     68.7591 300.4664716 +22.6849567     344.6313     69.42642      1.508     3.19    -8.526477     19.59229      41.2732         5     0.814     0.575  39.77   0
       238    146.9846     69.1181 300.2165223 +22.4446370     297.0703     69.42642      1.284     3.21    -8.403241     19.59229      44.1422         9     0.803     0.753 -11.60   0
       239    718.9119     66.6370 300.3952802 +22.6152998     154.4343     69.42642      1.188     2.79    -8.135907     19.59229     36.15255         5     0.852     0.481   0.22   0
       240    666.8771     62.5291 300.3804040 +22.5985352     1248.225     69.55016      1.287     2.52    -8.109841     19.59229      182.214        16     0.987     0.886  83.20   0
       241    307.5042     62.9917 300.2684099 +22.4909962     202.9958      69.3379      1.217     4.20    -8.699347     19.59229     29.26519         5     1.129     0.446  29.02   0
       242    681.7907     60.8728 300.3855865 +22.6025257     465.8071     69.44411      1.715     4.45    -8.096808     19.59229     40.50967         9     0.960     0.817  36.78   0
       243    753.3742     54.2323 300.4100410 +22.6220537     753.0854     69.44411      1.206     2.43    -8.190566     19.59229     112.2712        11     0.886     0.737  78.70   0
       244    691.2157     47.5055 300.3928581 +22.6015058     338.8005     69.37332      1.143     2.97    -8.012094     19.59229     53.17559         8     0.851     0.651 -57.60   0
       245    497.0632     46.9303 300.3325923 +22.5431847     457.5854     69.47948      1.332     2.68    -8.273714     19.59229     58.70288         9     0.785     0.734  37.65   0
       246     69.8802     46.2471 300.1999833 +22.4149527     422.0635      69.4618      1.731     4.27    -8.730729     19.59229     50.17806         7     1.230     0.547  89.67   0
       247    400.8458     44.7373 300.3033637 +22.5137257     429.6223     69.47948      1.319     3.05    -8.477406     19.59229     68.51862         6     0.892     0.528 -74.52   0
       248    782.8510     43.7168 300.4226367 +22.6278567     317.3776      69.4618      1.589     3.99    -8.440265     19.59229     33.74436         5     0.757     0.695 -55.67   0
       249    172.3654     35.0818 300.2354492 +22.4424735     1956.478     69.40872      1.375     2.53    -8.013779     19.59229     244.4158        21     1.104     0.964  58.37   0
       250    739.9025     35.4176 300.4119462 +22.6126105     375.0945     69.37332      1.543     4.43    -7.960145     19.59229     37.27683         7     0.924     0.604 -81.02   0
       251    733.7492     27.1188 300.4127206 +22.6083821     366.0547      69.4618      1.214     2.98    -7.875246     19.59229     65.70923        10     0.983     0.677  82.86   0
       252    288.1791     27.1770 300.2740163 +22.4749176     559.4089     69.44411      1.239     2.17    -8.654077     19.59229     81.64459         8     0.769     0.624 -55.79   0
       253    771.4027     22.1485 300.4260647 +22.6182275     313.7943     69.44411      1.626     4.30    -8.265461     19.59229     36.10575         7     1.194     0.703  38.85   0
       254    791.3527     18.4171 300.4334917 +22.6231277     1083.973     69.47948      1.215     2.19    -8.513239     19.59229     146.4283        15     0.961     0.826  13.96   0
       255     83.2612    984.3801 299.8992885 +22.6879989     2630.598     69.39103     24.707    54.55      1.70083     19.59229     59.65301       634    11.638     7.096  48.68  27
       256    240.1757   1005.4080 299.9411976 +22.7411592      4600.44     69.44411     10.077    35.22    -1.676784     19.59229     112.7759       554    10.341     4.426  63.14  18
       257    635.1732   1017.6676 300.0600870 +22.8632662     4107.513     69.42642      1.107     1.82    -13.27206     19.59229     719.1903        25     1.059     0.880  38.74  19
