#   1 NUMBER                 Running object number                                     
#   2 X_IMAGE                Object position along x                                    [pixel]
#   3 Y_IMAGE                Object position along y                                    [pixel]
#   4 ALPHA_J2000            Right ascension of barycenter (J2000)                      [deg]
#   5 DELTA_J2000            Declination of barycenter (J2000)                          [deg]
#   6 FLUX_APER              Flux vector within fixed circular aperture(s)              [count]
#   7 FLUXERR_APER           RMS error vector for aperture flux(es)                     [count]
#   8 FLUX_RADIUS            Fraction-of-light radii                                    [pixel]
#   9 FWHM_IMAGE             FWHM assuming a gaussian core                              [pixel]
#  10 BACKGROUND             Background at centroid position                            [count]
#  11 THRESHOLD              Detection threshold above background                       [count]
#  12 FLUX_MAX               Peak flux above background                                 [count]
#  13 ISOAREA_IMAGE          Isophotal area above Analysis threshold                    [pixel**2]
#  14 A_IMAGE                Profile RMS along major axis                               [pixel]
#  15 B_IMAGE                Profile RMS along minor axis                               [pixel]
#  16 THETA_IMAGE            Position angle (CCW/x)                                     [deg]
#  17 FLAGS                  Extraction flags                                          
         1    163.8146      7.2889 300.2354152 +22.4423917     1846.809     69.25577      1.331     2.56    -8.784255      19.5541     228.1693        20     1.069     0.917  51.62  16
         2    288.6630   1015.6865 299.9465335 +22.7691867      622.311      69.4146      1.262     2.12    -12.67431      19.5541      83.6749         9     0.784     0.677 -22.38   2
         3     68.8849    958.8159 299.8967564 +22.6868680     2405.247     69.27344     30.172   104.95    0.0654012      19.5541     67.88565      2095    24.706    12.370  86.43  18
         4    211.9530    992.0000 299.9304021 +22.7393568     1460.158      69.2911      6.312     7.26     18.49602      19.5541     49.10616        12     1.792     0.824 -29.69   3
         5    209.4026    990.3749 299.9301386 +22.7381250     1171.654     69.25577      9.977     9.69     17.64796      19.5541     51.80273        15     2.267     1.200 -37.94   3
         6    211.8310    987.8141 299.9317271 +22.7381205     1530.276     69.30875      7.719    13.44     16.75171      19.5541     55.17203        35     3.991     1.260  39.99   3
         7    210.5225    983.4754 299.9327331 +22.7364840     1069.348      69.4146     10.205     9.79     14.58825      19.5541     49.78347        17     2.607     1.025 -25.79   3
         8    626.6110    989.9639 300.0600535 +22.8632769     4075.656     69.30875      1.181     1.90     -12.7924      19.5541     699.9295        29     1.023     0.998  88.36   3
         9    632.1657    987.6616 300.0625327 +22.8642836     4472.953      69.3264      1.140     1.89     -12.7924      19.5541     729.1874        28     0.996     0.951   1.77   3
        10    234.5719    979.2646 299.9415787 +22.7425008     4019.226     69.30875      6.991    28.97     8.623101      19.5541      99.4491       295     8.849     3.644  57.02  18
        11    227.5702    977.6754 299.9399200 +22.7399423     1996.904     69.30875      7.747    16.17     10.93433      19.5541     59.62665        61     3.613     2.012 -46.37   3
        12    726.8544    990.6204 300.0910581 +22.8935484     324.3574      69.2911      1.218     2.37    -13.22237      19.5541     65.14326         5     0.712     0.447  19.99   0
        13    158.9471    977.0000 299.9188144 +22.7191355     870.4776     69.25577      2.303     3.97     13.19888      19.5541     29.66831         5     1.378     0.327 -10.83   2
        14    159.7740    984.3631 299.9166740 +22.7214940     845.9529      69.3264      5.023     6.41     15.80179      19.5541     46.36732        10     1.468     0.787 -86.73   3
        15     68.2323    921.8799 299.9085775 +22.6760882     1995.389     69.30875     21.873    42.81    -7.865924      19.5541     54.20766       369     9.051     5.619 -46.66   3
        16    222.2251   1003.8072 299.9297499 +22.7458262     265.2082     69.30875      1.272     4.52     23.82653      19.5541     43.14709         7     0.816     0.785  59.76   0
        17    212.3441    979.2952 299.9346603 +22.7358331     935.3583     69.36169     10.985    10.31     12.82701      19.5541     37.52449        14     2.820     1.051  -7.86   1
        18    919.3868    973.5480 300.1566157 +22.9464097     280.4792     69.34405      1.064     3.12     -13.3615      19.5541     55.35581         7     0.907     0.526 -58.12   0
        19     99.3242   1020.2562 299.8862064 +22.7136173     3465.157     68.09772      6.126    25.58     28.89696      19.5541     75.62453       199     5.069     3.584  12.36  27
        20    124.2260    961.1152 299.9131985 +22.7041529     799.3068      69.2911      7.044     9.38      7.11978      19.5541     32.65695        12     1.803     1.363  51.08   2
        21    203.5031    997.4201 299.9260111 +22.7383720     1040.111     69.22043      6.713     8.42      20.6695      19.5541     45.31772        18     1.686     1.174   2.64   1
        22    193.0788    988.8419 299.9255647 +22.7327822     1923.871      69.2911      7.630    15.01     17.36455      19.5541     50.31702        54     2.919     2.147 -71.97   2
        23    644.9057    957.0389 300.0764708 +22.8593222      3341.45     69.30875      1.218     2.01     -12.7924      19.5541     616.1434        21     0.946     0.880  65.95   0
        24    225.6339    953.9843 299.9470314 +22.7325703     448.8157      69.2911      4.224     4.45     1.012428      19.5541     26.99579         5     1.673     0.337  62.33   1
        25    796.9898    950.6103 300.1259363 +22.9031105     223.6481     69.20275      1.187     2.33    -13.15275      19.5541     51.51382         5     0.715     0.593  87.76   0
        26    524.8067    951.2347 300.0409735 +22.8216114     257.5067     69.30875      1.439     3.40    -13.01466      19.5541     38.26772         5     0.746     0.681  28.05   0
        27     30.1003    991.1686 299.8741781 +22.6844837      452.814      69.2911      4.052     4.89    -6.118298      19.5541     28.68236         5     1.250     0.543  29.95   0
        28    553.3490    947.8936 300.0509448 +22.8292203     661.1407     69.37933      1.089     2.47    -12.93691      19.5541     134.4938        11     0.910     0.712 -85.16   0
        29    105.8192    941.6810 299.9138071 +22.6930541     1380.621      69.2911      8.347     8.62  0.002247741      19.5541      45.5142        24     1.901     1.276 -18.01   3
        30    447.2371    944.2479 300.0191112 +22.7963219     565.1635     69.34405      1.283     2.03    -13.13078      19.5541     101.6997         9     0.775     0.686  85.61   0
        31    377.9253    942.3815 299.9981582 +22.7749772     3232.233     69.30875      1.184     1.97    -12.78382      19.5541     547.9367        21     0.990     0.874 -83.88   0
        32     76.9524   1021.2219 299.8789430 +22.7071719     3579.385      65.2158     10.604    37.26     19.38688      19.5541     77.78065       388     8.275     5.035  -4.82  27
        33    540.1663    994.7524 300.0315842 +22.8387033     1231.061     69.34405      1.229     1.88    -13.00945      19.5541     213.6625        14     0.926     0.756 -33.97   0
        34    725.6199   1016.9279 300.0821061 +22.9007258     294.6401     69.34405      1.241     3.03    -13.33522      19.5541     40.16949         6     0.743     0.610 -35.06   0
        35    124.5528   1009.4039 299.8975775 +22.7180880     773.2032      69.2911      2.600     8.23     24.93122      19.5541     40.29247        16     1.825     1.037 -51.43   0
        36    170.3785   1007.0078 299.9125957 +22.7311688     981.9935      69.2911      5.210     8.36     24.46721      19.5541     36.66745        15     1.697     1.150  36.11   3
        37    924.0323    920.8878 300.1752100 +22.9326859     1066.962     69.27344      1.143     1.89    -12.90325      19.5541     214.9699        14     0.865     0.819 -74.45   0
        38    166.8406   1003.4860 299.9126431 +22.7290968     1427.217      69.2911      5.125    10.23     22.91093      19.5541     39.27689        19     3.253     0.897 -45.13  19
        39    712.5748    909.1919 300.1131223 +22.8658986     352.6312     69.30875      1.120     2.36    -12.74685      19.5541     47.27647         5     0.698     0.461 -70.08   0
        40    161.0042   1001.6272 299.9114349 +22.7268108     1286.364     69.27344      7.252    11.92     22.48874      19.5541     42.30014        24     2.577     1.535 -56.80   2
        41    747.8246    904.0542 300.1257752 +22.8749997     526.8507      69.3264      1.088     1.96    -12.75968      19.5541     108.0877         8     0.718     0.646  44.05   0
        42    769.9662    897.6975 300.1347426 +22.8798177      5554.03      69.2911      1.095     1.71    -12.71469      19.5541     1137.116        24     0.921     0.852 -82.14   0
        43     81.6202    889.4291 299.9232980 +22.6708107     321.1588     69.30875      1.267     3.76    -9.131938      19.5541      42.1134         6     0.875     0.485 -89.46   0
        44    474.8315    885.9582 300.0466714 +22.7878876     257.3964     69.34405      1.241     2.41    -12.46517      19.5541      51.1261         5     0.764     0.481 -38.96   0
        45    778.5825    879.8414 300.1432394 +22.8772773      589.533      69.3264      1.004     1.96     -12.5724      19.5541     123.3582         7     0.665     0.621  80.84   0
        46    865.1051    864.7816 300.1751044 +22.8989057     190.8189      69.2381      1.018     2.43    -12.53731      19.5541     45.49786         6     0.719     0.558 -42.07   0
        47    716.3972    863.4795 300.1291924 +22.8539267     285.7946     69.22043      0.954     2.18    -12.41667      19.5541     59.99156         5     0.653     0.487 -14.91   0
        48    429.0591    860.0622 300.0408588 +22.7667208     2034.303     69.34405      1.151     1.90    -12.18744      19.5541     411.4854        17     0.872     0.836  75.06   0
        49    472.3466    848.3086 300.0581517 +22.7763423     150.7779     69.36169      1.326     3.76    -12.05712      19.5541     32.46698         5     1.031     0.394  73.72   0
        50    154.1480    845.8141 299.9600238 +22.6800941     309.8675     69.34405      1.100     2.61    -10.82907      19.5541     52.34576         8     0.809     0.633  34.82   0
        51    131.4554    842.8488 299.9539381 +22.6724288     822.5508     69.34405      1.190     2.25     -10.9555      19.5541     131.0628        14     0.964     0.802   3.12   0
        52   1002.9597    831.6324 300.2288744 +22.9307233     1087.737     69.36169      1.060     1.69    -12.30274      19.5541     210.6106        11     0.800     0.673  75.22   0
        53    957.5554    829.9568 300.2152604 +22.9166292     1120.199     69.36169      1.205     2.12    -12.33357      19.5541     195.7858        16     1.231     0.760 -44.10   0
        54    741.1600    824.1299 300.1497123 +22.8500609     321.6449      69.2911      0.987     2.22      -12.332      19.5541     84.27837         5     0.841     0.366 -87.92   0
        55    608.9712    818.0790 300.1105132 +22.8086682      2306.75     69.30875      1.108     1.71    -11.70212      19.5541     522.3381        16     0.883     0.751  68.89   0
        56     98.9773    819.0550 299.9515904 +22.6558541     223.3008      69.3264      1.054     3.06    -11.51762      19.5541     38.20284         5     0.789     0.490  65.87   0
        57    411.1009    815.0885 300.0499074 +22.7484306     265.3118     69.46745      1.011     2.35    -11.80074      19.5541     50.85219         5     0.614     0.570 -10.12   0
        58    159.3082    812.2449 299.9725501 +22.6720205      651.296      69.2911      1.189     2.40     -11.5423      19.5541     110.7368        10     0.818     0.766  76.69   0
        59   1001.8131    797.7863 300.2395311 +22.9206586      568.106      69.2381      1.104     1.91    -12.16089      19.5541     120.3045         8     0.780     0.619   5.42   0
        60    784.9512    797.6706 300.1719656 +22.8556000     2119.457      69.2911      1.092     1.63    -12.26341      19.5541     495.2264        18     0.900     0.849  -1.01   0
        61    501.8069    790.5089 300.0861268 +22.7686018     293.2749     69.22043      1.050     2.30    -11.59822      19.5541     66.67184         6     0.819     0.586  72.23   0
        62    148.2248    788.4700 299.9768414 +22.6618762      632.857     69.30875      1.272     2.58    -11.81264      19.5541     81.03274        10     0.960     0.630  25.24   0
        63    298.1384    780.4996 300.0260302 +22.7046015     26315.48     69.37933      1.143     1.93    -11.73861      19.5541     4244.589        59     1.121     1.015  76.26   0
        64    555.9702    779.5312 300.1065560 +22.7817042     761.1083      69.2911      0.961     1.54    -11.58222      19.5541     185.9252         9     0.744     0.597  55.58   0
        65    969.1452    778.5947 300.2355879 +22.9053532     319.9779     69.30875      1.051     2.18     -12.1564      19.5541     78.02657         8     0.806     0.612   6.96   0
        66    584.7607    775.5630 300.1168093 +22.7892036     409.0657     69.37933      1.085     2.42     -11.5232      19.5541     81.29613         7     0.870     0.606 -23.26   0
        67    595.6667    773.5891 300.1208468 +22.7919091     335.6745     69.30875      1.082     2.52    -11.50126      19.5541     68.67695         6     0.875     0.417  19.87   0
        68    347.8510    757.7837 300.0488784 +22.7130088     15166.59     69.30875      1.163     1.85     -11.6165      19.5541     2834.393        46     1.067     0.979  75.17   0
        69    362.1532    758.1268 300.0532148 +22.7174000     1153.385     69.30875      1.175     2.02    -11.60481      19.5541        193.6        13     0.839     0.821  22.23   0
        70    870.8246    753.3995 300.2131315 +22.8686397     1353.989     69.25577      1.009     1.57    -11.96584      19.5541     279.3048        14     0.851     0.754  85.51   0
        71    358.9203    752.1592 300.0541506 +22.7147179     509.0404      69.2911      1.518     2.77    -11.58113      19.5541      74.4922         8     0.851     0.710  79.28   0
        72    628.8950    749.7264 300.1389557 +22.7950289     373.5554     69.44984      1.020     1.93    -11.46903      19.5541     81.55794         8     0.741     0.627 -60.92   0
        73    230.3704    749.3932 300.0150819 +22.6753363     442.5905     69.30875      1.157     2.45    -11.72339      19.5541     74.48453         6     0.825     0.440  73.39   0
        74    475.8636    744.5028 300.0930206 +22.7476167     468.1532     69.39697      1.042     1.83     -11.4368      19.5541     96.12314         8     0.743     0.610  55.22   0
        75     34.6704    745.1353 299.9556637 +22.6153518     216.3534     69.34405      1.125     2.16    -11.80297      19.5541     55.69633         5     0.742     0.403 -67.14   0
        76    217.6968    984.8475 299.9345160 +22.7390322     1180.099     69.34405      9.953    15.19     15.35715      19.5541     39.55255        27     2.799     2.292  45.26   3
        77    854.2462    736.4803 300.2134682 +22.8588103     211.9926      69.2911      1.184     3.98    -11.84533      19.5541     38.07899         6     1.092     0.536 -45.01   0
        78    227.5738    733.4324 300.0194043 +22.6699195     284.7633     69.30875      1.067     2.69    -11.70786      19.5541     54.48572         5     0.713     0.479 -76.53   0
        79    520.8197    722.6205 300.1141288 +22.7548266     265.3493     69.30875      1.178     2.11    -11.41522      19.5541     53.56389         6     0.679     0.596 -78.07   0
        80    937.2196    718.7523 300.2451013 +22.8785944     2204.827     69.34405      1.043     1.69    -11.86727      19.5541      478.979        15     0.849     0.723  60.59   0
        81    542.7653    719.7773 300.1218840 +22.7605949     655.3611      69.3264      1.057     2.14    -11.42348      19.5541      121.877         9     0.826     0.602  81.52   0
        82    925.7805    710.1134 300.2443447 +22.8726839     701.6732      69.2381      1.036     1.89    -11.79672      19.5541     156.9508        10     0.762     0.695  68.06   0
        83    288.6771    704.3458 300.0478597 +22.6799194     431.9486     69.34405      1.020     2.33    -11.56495      19.5541     90.97102         6     0.802     0.467 -87.89   0
        84    751.8483    701.4902 300.1929411 +22.8180586     1175.484     69.30875      0.982     1.62    -11.49301      19.5541     247.4832        11     0.791     0.660  85.98   0
        85    956.7885    700.3163 300.2571998 +22.8791647     852.1517     69.27344      1.178     1.78      -11.863      19.5541     152.9401        12     0.842     0.730 -60.00   0
        86    137.6960    688.1398 300.0062035 +22.6299479     344.2541     69.37933      1.131     2.20    -11.59228      19.5541     63.66587         6     0.721     0.551 -29.54   0
        87    833.9329    686.7818 300.2233027 +22.8384475     290.8318      69.2911      1.194     2.77    -11.60221      19.5541     45.76126         5     0.703     0.667 -10.03   0
        88    870.4328    678.3517 300.2374209 +22.8469691     72579.14     69.34405      1.040     1.77    -11.64866      19.5541     12889.78        99     1.150     1.061  69.47   0
        89   1017.4536    680.0696 300.2827046 +22.8915308     502.2743      69.3264      1.045     2.04    -12.04723      19.5541     107.5253         8     0.827     0.549  47.84   0
        90    722.7379    678.5624 300.1913293 +22.8027458     360.6697      69.3264      1.219     2.82    -11.41873      19.5541     67.89596         8     1.014     0.516  39.41   0
        91    556.6099    667.2893 300.1432640 +22.7496837     732.9891     69.25577      0.998     1.89    -11.25986      19.5541      161.169         9     0.758     0.660 -54.15   0
        92    737.9701    664.5365 300.2006358 +22.8032862     4651.279      69.3264      1.054     1.75    -11.42705      19.5541     889.8347        26     0.985     0.824  80.93   0
        93    239.5102    659.8181 300.0470548 +22.6523895     2515.125      69.2381      1.152     1.96    -11.48056      19.5541     401.9202        20     0.944     0.904  76.03   0
        94    321.4777    657.8747 300.0731708 +22.6764331     527.8112      69.4146      1.022     2.38    -11.36877      19.5541     108.9151         8     0.918     0.499 -89.65   0
        95    529.5624    653.3417 300.1393807 +22.7375667     432.0249     69.30875      1.084     2.42    -11.14034      19.5541      62.0324         6     0.802     0.473   2.59   0
        96    521.4034    645.4767 300.1393987 +22.7328618     1666.032     69.22043      1.085     2.04    -11.07283      19.5541      262.069        16     0.939     0.764  73.90   0
        97    511.6419    639.3618 300.1383490 +22.7281784     668.0294     69.39697      1.048     2.18     -11.0196      19.5541     123.3991        11     0.868     0.796  17.40   0
        98    905.3732    637.3671 300.2616411 +22.8456704     209.3122     69.30875      1.216     3.55    -11.36588      19.5541     42.59026         5     1.076     0.337 -70.15   0
        99    174.9234    635.5691 300.0348653 +22.6260475     160.7871      69.2911      1.057     2.54    -11.30552      19.5541     50.62424         5     0.716     0.460  19.61   0
       100    189.0486    634.0358 300.0397535 +22.6298477     284.2405     69.34405      1.038     2.52    -11.28747      19.5541     55.56565         6     0.714     0.572  49.53   0
       101    214.8855    630.7065 300.0488660 +22.6366481     235.9179     69.48507      1.107     2.38    -11.25153      19.5541     51.26104         6     0.735     0.535  47.28   0
       102    436.4710    629.0041 300.1183257 +22.7026545     679.1847     69.25577      1.022     2.05    -11.01474      19.5541     139.7689         8     0.712     0.662  39.41   0
       103   1012.2856    626.2824 300.2985842 +22.8745277     468.3171     69.43222      1.093     2.20      -11.328      19.5541     103.6536         5     0.805     0.426  77.38   0
       104     90.5024    624.0547 300.0123788 +22.5974021     9709.318     69.39697      1.210     2.07     -11.2745      19.5541     1407.538        38     1.078     0.998  80.32   0
       105    521.3600    624.2591 300.1462840 +22.7267587     586.1882     69.30875      1.167     2.18    -10.89493      19.5541     94.72038         9     0.803     0.668 -64.26   0
       106     11.2180    625.3112 299.9873451 +22.5739576     265.5853      69.2381      1.109     2.95    -10.93409      19.5541     61.37167         6     0.756     0.580  50.43   0
       107     36.3552    608.4213 300.0006424 +22.5766624     794.5203     69.36169      1.803     4.92    -11.04253      19.5541      79.0785        17     1.564     0.839 -84.46   0
       108    939.2361    610.2173 300.2810269 +22.8480200     462.7739     69.30875      1.050     1.84    -11.15214      19.5541     102.4514         6     0.672     0.541  47.52   0
       109    102.3214    608.4598 300.0211202 +22.5964781     181.1419     69.34405      1.178     4.31    -11.23072      19.5541     28.14689         6     1.175     0.451  54.53   0
       110    879.6046    602.9455 300.2648001 +22.8280582      413.909     69.30875      1.258     2.33    -11.13828      19.5541     68.35909         7     0.814     0.560  15.42   0
       111    589.4020    595.4296 300.1768373 +22.7388910     325.7428     69.27344      1.197     2.86    -10.65826      19.5541     55.98625         7     0.843     0.656 -73.72   0
       112    606.9892    593.7848 300.1828477 +22.7436932     270.0111      69.2381      1.053     2.87    -10.66854      19.5541     45.34573         5     0.783     0.483 -63.59   0
       113    485.7859    592.9433 300.1453940 +22.7070989     558.8806      69.2911      1.353     1.94    -10.55029      19.5541     77.20074         7     0.700     0.584 -89.92   0
       114    919.4296    588.2942 300.2819791 +22.8357853     1484.107     69.22043      1.053     1.80    -10.99671      19.5541      280.155        15     0.847     0.761  85.08   0
       115    451.3174    588.5368 300.1361011 +22.6954944     842.4212     69.39697      1.243     2.31    -10.63972      19.5541     136.4875        13     0.884     0.797 -82.30   0
       116   1017.2735    586.3286 300.3131304 +22.8645413      301.166     69.36169      1.029     3.34    -11.09796      19.5541     57.85679         5     0.816     0.471  46.41   0
       117     13.2787    582.2606 300.0019795 +22.5622325     2482.136     69.37933      1.277     2.25    -11.12362      19.5541     344.5396        22     1.027     0.907  48.32   0
       118    314.7026    575.3339 300.0978989 +22.6507180     4354.261     69.39697      1.152     2.06    -10.95018      19.5541     709.1324        27     1.001     0.921  69.31   0
       119    437.1107    572.2767 300.1369665 +22.6865657     4264.657     69.44984      1.123     1.85    -10.55687      19.5541     820.4087        23     0.944     0.849  60.60   0
       120    848.7190    566.0765 300.2671590 +22.8082092     917.3563      69.4146      1.134     1.81    -11.00851      19.5541      193.249        13     0.853     0.774  -9.95   0
       121    933.3461    563.4335 300.2944000 +22.8328129     6030.192      69.3264      1.030     1.73    -10.78828      19.5541      1118.07        28     0.941     0.867  81.77   0
       122    497.6797    561.8488 300.1592032 +22.7017409     5607.349      69.3264      1.151     1.96     -10.1916      19.5541     994.7595        29     1.021     0.897  68.86   0
       123    667.1649    557.3457 300.2134316 +22.7512747     216.1397      69.3264      1.065     3.99    -10.55979      19.5541     61.01389         8     1.167     0.507  62.16   0
       124    225.0991    557.4237 300.0758629 +22.6186911      636.588     69.25577      1.283     2.51    -11.00981      19.5541     109.1964        12     0.906     0.817 -18.34   0
       125    429.3391    550.1005 300.1417568 +22.6778694     2208.759     69.39697      1.161     2.06    -10.42311      19.5541     346.7786        22     0.990     0.881  50.85   0
       126    772.2877    549.8474 300.2486158 +22.7806371     434.6934      69.2911      1.147     2.20    -10.95796      19.5541     77.50979         7     0.781     0.585  68.65   0
       127    407.7173    548.6578 300.1354992 +22.6709691     666.7611     69.37933      1.216     2.51    -10.53779      19.5541     91.99651        10     0.899     0.665  67.98   0
       128    161.7617    547.8388 300.0592933 +22.5969328     237.5204     69.37933      1.288     3.75    -10.94308      19.5541     49.35016         7     0.856     0.603  16.06   0
       129    849.0889    545.2817 300.2740338 +22.8023461     836.4725      69.4146      1.236     2.56    -10.93118      19.5541     125.4827        13     0.986     0.824 -38.07   0
       130    729.6514    542.3300 300.2377757 +22.7656965     436.1794     69.30875      1.280     2.34    -10.86182      19.5541     69.23293         6     0.672     0.616  63.01   0
       131    545.9543    537.5582 300.1821234 +22.7092459     99411.96     69.36169      1.170     1.90    -9.945078      19.5541     17369.96       123     1.223     1.180  71.85   0
       132    232.0284    537.6125 300.0844557 +22.6150867     1629.444     69.30875      1.154     2.05    -10.93481      19.5541     284.3992        12     0.864     0.708  88.17   0
       133    797.6389    533.3929 300.2618635 +22.7835096     273.1231     69.34405      1.157     3.62    -10.87231      19.5541       39.035         6     0.877     0.480 -88.34   0
       134    281.1410    520.5864 300.1052571 +22.6249383     201.6181      69.2911      1.041     2.94     -10.7205      19.5541     37.84171         5     0.723     0.462 -17.76   0
       135    436.5658    517.8148 300.1544982 +22.6707698     1377.141      69.2911      1.124     1.99    -10.07338      19.5541     248.4123        13     0.842     0.719  49.09   0
       136    847.9136    513.8815 300.2838732 +22.7929724     198.9068     69.43222      0.955     3.12    -10.73075      19.5541      40.9755         6     0.760     0.557  44.60   0
       137    833.6077    503.5924 300.2827583 +22.7857288     975.4152     69.16738      1.286     2.23    -10.68645      19.5541     135.2536        12     0.958     0.767 -81.23   0
       138    704.6161    501.5546 300.2432292 +22.7464796     1258.773      69.3264      1.090     2.09     -10.4895      19.5541       205.31        12     0.818     0.747  82.13   0
       139    491.9356    497.3616 300.1783741 +22.6815051     308.5588      69.2911      1.029     1.81    -9.713832      19.5541     74.13595         7     0.654     0.628 -39.32   0
       140    962.0319    495.4381 300.3254452 +22.8218690     487.9041      69.3264      0.974     1.81    -10.48176      19.5541     111.7197         8     0.715     0.634  83.37   0
       141    947.6167    494.5231 300.3212475 +22.8172869     409.0807     69.30875      1.160     2.36    -10.48132      19.5541     59.31709         7     0.762     0.631  15.39   0
       142    833.7626    494.1213 300.2858844 +22.7830540     1085.634      69.2911      1.273     2.04    -10.62676      19.5541     183.2399        14     1.092     0.709  79.98   0
       143    587.3427    492.2767 300.2097237 +22.7086551     266.4491     69.34405      1.077     2.92    -9.697395      19.5541     53.01802         7     0.899     0.529  28.20   0
       144    426.1390    491.1414 300.1599221 +22.6599855     210.9919     69.36169      1.166     3.46    -9.859047      19.5541     47.38877         6     0.940     0.655  87.44   0
       145    871.8720    489.1005 300.2993946 +22.7930321     2163.566     69.46745      1.106     1.80    -10.52751      19.5541     449.5817        15     0.869     0.788  84.10   0
       146    104.0471    479.7479 300.0634874 +22.5600783     520.5871     69.34405      1.119     2.28     -10.6958      19.5541     74.46753         8     0.769     0.637  33.97   0
       147    704.3041    463.6430 300.2554514 +22.7354962     203.7824      69.3264      1.052     2.70    -10.28228      19.5541     40.95728         6     0.823     0.481  44.77   0
       148    645.6173    459.4805 300.2385256 +22.7167079     389.5092     69.30875      1.299     3.56    -9.889242      19.5541     51.39933         7     0.869     0.613  72.97   0
       149    959.9978    451.6396 300.3390433 +22.8086714     205.2553      69.3264      0.979     2.49    -10.39791      19.5541     54.84138         6     0.807     0.545 -89.87   0
       150    706.1580    451.8842 300.2598495 +22.7326740      316.835     69.27344      1.038     2.11     -10.2233      19.5541     66.62941         6     0.736     0.520 -41.74   0
       151    863.3317    447.9919 300.3100902 +22.7786601     511.4824      69.2911      1.195     2.05    -10.53617      19.5541     95.33284         9     0.799     0.663  25.17   0
       152    847.4846    444.0955 300.3064166 +22.7727918     263.1696     69.48507      0.945     2.28    -10.55789      19.5541     58.50445         6     0.738     0.498 -85.37   0
       153    591.9464    442.6222 300.2272909 +22.6957756       1630.9      69.3264      1.133     1.88    -9.576825      19.5541     275.3114        15     0.867     0.799 -61.31   0
       154    952.5995    441.0004 300.3401931 +22.8033970      386.746     69.09658      1.251     2.12    -10.41319      19.5541     55.81753         7     0.688     0.650 -62.95   0
       155    432.0767    429.8341 300.1816885 +22.6441659     131.7641     69.30875      1.146     3.82    -9.735678      19.5541     30.86169         5     0.806     0.520  52.54   0
       156   1003.1101    421.3423 300.3623325 +22.8128775     609.9094     69.37933      1.032     1.82    -10.31979      19.5541     125.7063         9     0.759     0.637 -70.53   0
       157    875.1620    421.1137 300.3225105 +22.7744807     269.7306      69.2911      1.331     3.53    -10.56139      19.5541     51.85493         5     1.304     0.276  78.94   0
       158    961.5474    419.9903 300.3498094 +22.8000385     468.0513     69.30875      1.063     2.42    -10.40088      19.5541      83.3138         9     0.842     0.669 -12.71   0
       159    702.5497    416.3056 300.2702845 +22.7213716     546.7126     69.37933      1.087     1.99    -9.995834      19.5541     91.70013         9     0.818     0.615  54.30   0
       160    497.9554    417.0140 300.2063527 +22.6602402     208.4218      69.3264      1.463     3.54    -9.561466      19.5541     38.04104         5     1.008     0.359 -55.60   0
       161    206.7367    414.6494 300.1165464 +22.5722144     346.4953     69.36169      1.101     2.92    -10.21455      19.5541     56.26605         7     0.863     0.567  56.19   0
       162    268.9059    410.5475 300.1372049 +22.5896881     1771.012     69.37933      1.237     2.25    -9.933692      19.5541     267.8352        19     1.038     0.857  64.05   0
       163   1001.8500    408.6400 300.3660661 +22.8088485     2255.499      69.3264      1.136     1.78    -10.37672      19.5541     421.7179        19     1.024     0.798  68.26   0
       164    216.1958    405.3273 300.1225146 +22.5723770     3693.983     69.25577      1.229     2.31    -10.13854      19.5541     521.3785        24     1.044     0.901  88.19   0
       165    356.9031    399.4523 300.1681730 +22.6128982     2443.231     69.37933      1.261     2.30    -9.811047      19.5541     332.1241        19     1.024     0.833  83.94   0
       166    981.8738    399.6914 300.3627428 +22.8002923     731.4921     69.46745      1.003     1.72    -10.44471      19.5541      179.744        11     0.834     0.627  64.47   0
       167    601.0724    396.0816 300.2452514 +22.6851442     9000.836     69.43222      1.199     1.98    -9.576843      19.5541     1608.483        34     1.069     0.927  78.96   0
       168    934.8040    378.1938 300.3550475 +22.7800127     438.3027     69.14969      1.198     2.95    -10.46255      19.5541     65.86668         7     0.849     0.552 -52.17   0
       169    155.8031    376.3609 300.1131531 +22.5459454     979.5244     69.34405      1.214     2.33    -10.16768      19.5541      129.352        12     0.873     0.782 -73.47   0
       170    541.6365    365.5015 300.2366804 +22.6585430     3281.049     69.30875      1.174     2.12    -9.546305      19.5541     467.8496        24     1.001     0.930  75.67   0
       171    955.2324    365.6708 300.3654852 +22.7825321     544.1959     69.30875      1.109     1.99    -10.52701      19.5541     108.7393         9     0.770     0.678  80.04   0
       172    256.6190    364.8821 300.1482169 +22.5728951     264.2169      69.2911      1.166     3.39    -9.790699      19.5541      42.9637         5     0.758     0.438  70.18   0
       173    745.8524    354.5025 300.3038491 +22.7165919     554.8008     69.37933      1.193     2.20    -9.836615      19.5541     92.61767        10     0.912     0.615 -84.75   0
       174    448.3687    351.8625 300.2120835 +22.6266628     2892.336      69.3264      1.176     2.17    -9.553407      19.5541     441.2245        21     1.007     0.863  83.17   0
       175    937.5159    346.0621 300.3663294 +22.7715882     202.3803     69.39697      0.973     1.96    -10.43472      19.5541     56.36439         6     0.720     0.499 -86.33   0
       176    840.2453    345.9449 300.3360433 +22.7424154      617.557     69.34405      1.111     2.03    -10.31896      19.5541     117.3992         9     0.805     0.651 -82.38   0
       177    813.1193    333.4396 300.3316502 +22.7306943     400.0559     69.27344      1.164     1.76    -10.14215      19.5541     61.96264         5     0.658     0.450  25.82   0
       178    335.9561    331.1558 300.1838389 +22.5870085     1230.851     69.34405      1.272     2.25    -9.548277      19.5541     197.2613        16     0.981     0.853 -88.83   0
       179     54.3421    328.3873 300.0972094 +22.5017368     552.5329     69.27344      1.272     3.20    -10.20664      19.5541     66.00035        12     0.976     0.866  18.60   0
       180    305.3311    320.6203 300.1777361 +22.5747993     14337.08      69.2911      1.215     2.23    -9.513997      19.5541     1977.731        45     1.132     1.020  75.40   0
       181    839.7837    317.7842 300.3450446 +22.7341830     711.2584     69.27344      1.132     1.78    -10.06784      19.5541      149.767         9     0.736     0.670  21.90   0
       182      1.8649    308.5308 300.0873581 +22.4802929     2191.988      56.8564      1.205     2.50    -10.25322      19.5541     290.4768        18     1.070     0.823  88.93  24
       183    715.5642    300.1622 300.3120597 +22.6919007     809.5853     69.37933      1.175     2.26    -9.543074      19.5541     153.7337        14     0.940     0.796  61.90   0
       184    930.7453    292.7423 300.3815332 +22.7542311     266.9517     69.36169      1.190     3.39    -10.00855      19.5541     49.75402         6     0.743     0.619  76.69   0
       185    377.4543    284.9070 300.2117627 +22.5861725     1019.108     69.36169      1.384     2.54       -9.341      19.5541     145.1416        17     1.289     0.748  55.42   0
       186    816.4980    277.0925 300.3509998 +22.7155107     252.4869     69.48507      0.931     2.24    -9.701964      19.5541      56.5181         6     0.734     0.485  77.45   0
       187    453.2969    264.1306 300.2421033 +22.6029439     630.9095     69.43222      1.292     2.32    -9.263573      19.5541     78.35487         7     0.727     0.600  71.60   0
       188    964.6395    259.8235 300.4027906 +22.7549168     106.8494     69.34405      0.971     2.71     -9.92493      19.5541     46.50855         5     0.833     0.536 -37.93   0
       189    698.1093    255.9784 300.3209675 +22.6739731     1065.939      69.2381      1.226     2.25    -9.500984      19.5541     182.5422        12     0.938     0.708  67.06   0
       190    959.2983    250.1762 300.4042570 +22.7505432     1509.178      69.2381      1.109     2.08    -9.761986      19.5541     266.8398        15     0.925     0.729  76.21   0
       191   1020.6627    244.6721 300.4251829 +22.7673355     257.2842     67.02924      1.262     3.81    -9.636763      19.5541     31.31839         5     1.025     0.407  14.42  16
       192    704.1470    241.7527 300.3274664 +22.6716937     2155.798     69.34405      0.915     3.48    -9.434458      19.5541     614.9667         9     0.892     0.393 -82.06   0
       193    406.0951    239.8663 300.2352940 +22.5818242     284.5586     69.43222      1.090     2.15    -9.244617      19.5541     62.91601         6     0.831     0.443  35.47   0
       194     81.1848    234.2752 300.1361003 +22.4827824     809.5871     69.30875      1.590     3.84    -9.796354      19.5541      79.3998        15     1.290     0.787 -39.12   0
       195    111.8297    234.0444 300.1456960 +22.4919088     365.7579     69.34405      1.604     3.01    -9.764394      19.5541     51.18973         5     0.948     0.536  14.63   0
       196    975.2853    230.7864 300.4155373 +22.7497547     189.2574     69.25577      1.166     2.00    -9.412886      19.5541     56.49562         5     0.687     0.440 -79.08   0
       197    165.4250    226.1506 300.1649123 +22.5057185     222.3262      69.3264      1.080     2.52    -9.717287      19.5541     45.66718         5     0.707     0.464  71.34   0
       198    769.7133    217.0844 300.3559011 +22.6842462     416.4782     69.43222      1.296     2.19    -9.342818      19.5541     53.61287         7     0.695     0.626  72.53   0
       199    867.7274    206.3651 300.3899277 +22.7105222     1047.746     69.30875      1.196     2.09    -9.435041      19.5541     172.1637        15     1.028     0.764 -54.32   0
       200    286.5956    203.8057 300.2098314 +22.5356400     1024.205     69.16738      1.195     2.19    -9.223549      19.5541     153.1934        13     0.982     0.767 -71.40   0
       201    364.3707    198.9453 300.2355965 +22.5575625     628.8807     69.30875      1.672     2.75    -9.242294      19.5541     60.76014        11     0.952     0.719 -18.04   0
       202    766.1808    198.0751 300.3609703 +22.6777235     312.8361     69.30875      1.112     1.94      -9.2803      19.5541     59.86962         6     0.698     0.537  47.90   0
       203    181.3341    191.2038 300.1811985 +22.5004570     320.1068      69.3264      1.129     2.50    -9.588839      19.5541     67.11375         7     0.805     0.573 -70.35   0
       204    718.8506    187.7744 300.3495673 +22.6605842     822.0277      69.3264      1.304     2.59      -9.2156      19.5541     124.2759        12     0.967     0.725  54.81   0
       205    783.7189    187.3340 300.3699214 +22.6798891     265.9727      69.4146      1.018     2.78    -9.299653      19.5541     54.33223         7     0.854     0.587  57.60   0
       206    202.6191    184.5450 300.1899751 +22.5049283     350.7856      69.2911      1.290     4.48    -9.557985      19.5541     43.04853         8     1.244     0.458  82.00   0
       207    990.4679    180.0990 300.4367247 +22.7397230      386.709     69.39697      1.124     2.28    -9.026654      19.5541     69.09581         8     0.713     0.694  31.65   0
       208    723.1526    179.4117 300.3536215 +22.6594691     312.5383      69.3264      1.008     2.14     -9.17755      19.5541     61.50594         7     0.789     0.553  83.84   0
       209    643.4193    178.5296 300.3290724 +22.6353284     688.3938      69.3264      1.234     2.70    -9.321165      19.5541     94.67062        12     1.035     0.699  81.96   0
       210    569.8439    170.4570 300.3087825 +22.6109630     420.9513     69.30875      1.280     3.22    -9.312252      19.5541     65.30276         8     0.825     0.670  80.93   0
       211    838.9446    169.9161 300.3927855 +22.6914219     596.4147     69.39697      1.133     1.97     -9.35603      19.5541     134.5282        11     0.894     0.674  76.04   0
       212    850.8372    169.0597 300.3967703 +22.6947373     407.6323      69.3264      1.300     2.41    -9.371634      19.5541     64.06285         8     0.795     0.633  60.57   0
       213   1011.6912    159.9365 300.4498880 +22.7402776     674.2048      69.4146      1.135     2.09    -8.865287      19.5541     146.6745        12     0.953     0.716  73.62   0
       214    967.7148    159.3054 300.4363767 +22.7269301     565.0132     69.48507      1.180     2.17     -9.01758      19.5541     98.53972        10     0.849     0.690  51.79   0
       215    201.5916    152.4238 300.2000789 +22.4953972     589.2055     69.30875      1.934     3.51    -9.434214      19.5541       50.776        11     1.020     0.804  85.11   0
       216     63.7018    147.6813 300.1587704 +22.4526828     1173.714     69.43222      1.317     2.43    -9.229197      19.5541     143.6313        16     1.031     0.858  54.50   0
       217    886.9011    144.5264 300.4159740 +22.6984823     344.7548     69.44984      1.064     2.24    -9.168018      19.5541     69.76843         7     0.758     0.581 -26.40   0
       218    221.1240    140.8683 300.2098997 +22.4979358     2659.185     69.39697      1.264     2.28    -9.319929      19.5541      432.103        21     1.030     0.863  80.99   0
       219      5.1058    135.3090 300.1445844 +22.4315556     583.8623     69.00799      1.301     2.54    -8.909597      19.5541     78.80937         9     0.829     0.682 -64.79  16
       220   1019.8690    128.0316 300.4627920 +22.7335480     9026.101     68.86599      1.200     1.96    -8.594403      19.5541     1674.642        38     1.054     0.961  73.87  16
       221    865.0763    122.1706 300.4164242 +22.6855180     1836.453      69.2911      1.216     1.97     -9.04093      19.5541     328.8357        20     1.074     0.821  46.31   0
       222    968.8727    120.7593 300.4492458 +22.7161897     1344.909      69.2911      1.199     2.09    -8.684145      19.5541     223.5148        16     1.004     0.895 -51.80   0
       223    104.5212    106.3476 300.1848617 +22.4530588     397.8728      69.3264      1.694     3.52    -9.140894      19.5541     47.23487         7     0.976     0.657   4.24   0
       224    465.9841    104.6426 300.2978099 +22.5609284     880.5579      69.3264      1.259     2.24    -9.054433      19.5541     128.2978        14     1.009     0.755  53.24   0
       225    528.0365    103.5414 300.3174799 +22.5792062     311.0644      69.3264      1.287     4.09    -9.105302      19.5541     35.23771         6     0.989     0.484  -7.81   0
       226    209.1222    100.0452 300.2194132 +22.4826142     216.1794      69.2911      1.084     3.76    -8.948788      19.5541     36.29539         5     0.647     0.626 -77.36   0
       227    240.0102     84.6916 300.2339957 +22.4874652     2920.372     69.25577      1.318     2.38    -8.818467      19.5541     413.5634        23     1.086     0.934  67.06   0
       228     91.3089     83.9499 300.1880223 +22.4426660     304.4085      69.3264      1.162     2.40    -9.058035      19.5541     58.13314         9     0.848     0.662  26.60   0
       229      1.6566     74.8237 300.1631344 +22.4131590     209.0939     55.70415      1.238     3.68    -8.969761      19.5541     32.97551         6     0.742     0.629 -39.21  24
       230    486.1022     69.9875 300.3153128 +22.5569985     3202.702     69.20275      1.319     2.23    -8.858427      19.5541      484.273        24     1.070     0.943  87.74   0
       231    371.4336     69.6590 300.2797412 +22.5225411     358.6826      69.3264      1.207     2.76    -8.668762      19.5541     50.96536         8     0.870     0.612 -73.64   0
       232    738.6244     59.1351 300.3974660 +22.6295242      454.962      69.2911      1.438     2.73    -8.301638      19.5541      51.2121         9     0.856     0.676  16.83   0
       233    830.6606     57.7910 300.4265826 +22.6566980     333.4574     69.25577      1.930     3.31     -8.68263      19.5541     44.01643         6     0.894     0.671 -70.30   0
       234    537.3685     52.4496 300.3369584 +22.5673185     376.8071     69.34405      2.116     3.12    -8.710762      19.5541     40.74288         5     0.914     0.516  43.26   0
       235    614.4415     49.9930 300.3617512 +22.5897014     3077.905      69.3264      1.251     2.24    -8.613731      19.5541     418.1797        27     1.125     0.967  84.62   0
       236    389.2348     49.0003 300.2919795 +22.5219406     798.5095     69.27344      1.252     2.37    -8.631068      19.5541     120.8796        11     0.922     0.663 -87.06   0
       237    655.6916     47.2302 300.3754935 +22.6012630     403.9355     69.27344      1.349     3.16    -8.252235      19.5541     51.19009         8     0.892     0.618  79.49   0
       238    671.4296     43.7095 300.3815372 +22.6049645     253.5781     69.27344      1.110     3.31    -8.092733      19.5541     48.21055         5     0.723     0.486 -80.08   0
       239    138.2256     41.4015 300.2164004 +22.4445167     334.5678     69.25577      1.392     3.05    -8.934792      19.5541     45.20176         7     0.847     0.641 -74.43   0
       240    941.4506     40.9098 300.4665982 +22.6850110     316.5884     69.30875      1.081     2.48    -8.539268      19.5541     43.64568         6     0.750     0.498  89.64   0
       241    710.1495     38.8818 300.3951642 +22.6151729     181.9053      69.3264      1.006     2.55    -8.008546      19.5541      44.6048         6     0.721     0.559 -58.60   0
       242    658.6186     34.8782 300.3804114 +22.5985885      1353.42     69.30875      1.224     2.37    -8.074663      19.5541     213.2367        15     0.990     0.755  81.17   0
       243    673.0627     33.0330 300.3855087 +22.6023841     324.7139     69.30875      1.486     4.11    -7.925115      19.5541     35.45592         7     0.906     0.532  43.04   0
       244    744.9033     26.2772 300.4100797 +22.6219562      816.302     69.43222      1.299     2.68    -7.920698      19.5541     119.5981        11     0.860     0.817 -38.55   0
       245    682.7943     19.3375 300.3929817 +22.6013608     369.0375     69.27344      1.242     3.40     -7.73189      19.5541     65.54494         9     1.176     0.559  74.74   0
       246    488.8121     18.9480 300.3327104 +22.5431422     548.3464     69.30875      1.207     2.65    -8.436931      19.5541     70.95168         8     0.781     0.638 -60.17   0
       247    392.5628     16.5627 300.3035350 +22.5136174     493.4516     69.37933      1.529     3.61    -8.527986      19.5541     53.23913         8     1.011     0.496 -89.70   0
