#   1 NUMBER                 Running object number                                     
#   2 X_IMAGE                Object position along x                                    [pixel]
#   3 Y_IMAGE                Object position along y                                    [pixel]
#   4 ALPHA_J2000            Right ascension of barycenter (J2000)                      [deg]
#   5 DELTA_J2000            Declination of barycenter (J2000)                          [deg]
#   6 FLUX_APER              Flux vector within fixed circular aperture(s)              [count]
#   7 FLUXERR_APER           RMS error vector for aperture flux(es)                     [count]
#   8 FLUX_RADIUS            Fraction-of-light radii                                    [pixel]
#   9 FWHM_IMAGE             FWHM assuming a gaussian core                              [pixel]
#  10 BACKGROUND             Background at centroid position                            [count]
#  11 THRESHOLD              Detection threshold above background                       [count]
#  12 FLUX_MAX               Peak flux above background                                 [count]
#  13 ISOAREA_IMAGE          Isophotal area above Analysis threshold                    [pixel**2]
#  14 A_IMAGE                Profile RMS along major axis                               [pixel]
#  15 B_IMAGE                Profile RMS along minor axis                               [pixel]
#  16 THETA_IMAGE            Position angle (CCW/x)                                     [deg]
#  17 FLAGS                  Extraction flags                                          
         1    768.5712     13.5307 300.4261210 +22.6182423     370.4511     69.58389      1.701     4.91    -7.915985     19.63173     43.48936         8     1.080     0.632 -83.05   0
         2    788.3240     10.0424 300.4334059 +22.6231534     1065.545     69.56615      1.267     2.40    -8.053823     19.63173     136.7269        13     0.856     0.847 -10.08   0
         3    494.2699      7.8684 300.3425583 +22.5344623        385.5     69.63703      1.605     4.30    -8.439089     19.63173     32.68326         7     0.866     0.608  67.45   0
         4    171.7735      5.5427 300.2430388 +22.4371508      489.573     69.58389      1.261     2.44     -8.61013     19.63173     67.63097         9     0.835     0.681 -20.03  16
         5    963.3453      3.0982 300.4902054 +22.6735483     384.6595      62.8804      1.169     2.49    -8.843305     19.63173     63.61585         7     0.733     0.623  81.93  16
         6    736.6758      2.5823 300.4197363 +22.6055443     507.7671     60.56253      1.384     2.57    -7.475012     19.63173     60.18756         8     0.763     0.741  60.88  24
         7    732.4448   1009.9541 300.0910428 +22.8935683     377.2593     69.61932      1.059     2.86     -13.7048     19.63173     63.95489         6     0.870     0.494  85.50   0
         8    228.1098   1022.8978 299.9299452 +22.7458678     559.8799     58.36404      1.416     5.16     16.74228     19.63173     60.32827        12     1.390     0.826  14.68  24
         9    172.2382   1012.9020 299.9158418 +22.7262209     1341.221     69.58389     10.378    14.87      14.8434     19.63173     48.06444        34     3.343     1.840 -16.13  19
        10    175.1861   1022.9689 299.9134794 +22.7299905     727.5402     57.89729      2.031     4.40     17.63269     19.63173     49.24654         8     1.076     0.653  47.49  27
        11    169.1821   1021.1069 299.9122206 +22.7276534     1602.748     65.81286      5.985    11.64     17.01911     19.63173     51.30473        40     2.223     1.697  23.19  19
        12    173.0358   1018.4159 299.9142941 +22.7280401     1043.779     69.58389      5.651     7.71     16.22844     19.63173     40.40496        18     1.454     1.144  72.90  19
        13    160.4660   1022.6063 299.9090249 +22.7254645     694.7838     59.68045      4.277     7.72     17.48031     19.63173     31.39627        12     1.760     0.948  17.40  25
        14    106.4809   1019.8413 299.8931580 +22.7084537     626.0467      69.1572      3.536     4.19     16.89943     19.63173     31.04449         5     1.164     0.430 -76.69  19
        15     58.5078    986.0166 299.8892749 +22.6843517     1985.908     69.51295     23.358    35.14    -2.065006     19.63173     54.67213       249     8.879     3.860 -72.11  19
        16     79.2801    972.3846 299.9001631 +22.6866877     2669.913     69.60161     25.192    54.26  -0.02709679     19.63173     64.05078       721    13.667     5.977  60.15  19
        17    925.0273    992.7318 300.1566500 +22.9464014     321.5998     69.56615      1.030     1.82    -13.71095     19.63173     82.07512         7     0.684     0.593  17.00   0
        18    228.7373    990.8657 299.9405706 +22.7368783     1818.925     69.61932      5.099    10.43      6.72884     19.63173      59.1433        36     2.013     1.505  16.53   3
        19    142.9403    979.8778 299.9174940 +22.7079587     747.8185     69.63703      4.555     8.51     5.969506     19.63173     36.87922        14     1.585     1.276 -57.34   0
        20    130.1600    979.7472 299.9135670 +22.7040821     769.2303     69.56615      5.863     6.55      5.94402     19.63173     27.93535         7     1.294     0.931 -27.65   1
        21     76.9622   1014.5192 299.8857245 +22.6980604      2517.22     69.54842     20.324    51.25     8.535119     19.63173     57.81808       553    10.024     7.272  41.12  27
        22    101.8339    979.1271 299.9049717 +22.6953949     1126.295     69.58389     12.470    12.55     5.613463     19.63173     40.06832        18     2.489     1.761  27.53   3
        23    545.5699   1014.0025 300.0315528 +22.8386442     1233.325     69.54842      1.051     1.80    -13.91236     19.63173      237.667        14     0.839     0.780 -72.94   0
        24    650.5097    976.3414 300.0764773 +22.8593405     3407.399     69.65475      1.086     1.89    -13.50683     19.63173     540.5035        19     0.900     0.836  32.70   0
        25    122.4190    974.0946 299.9130032 +22.7001373      842.125     69.51295      4.743     5.51     4.292445     19.63173     42.20668         5     1.183     0.822 -19.86   3
        26    632.1133   1009.2107 300.0600472 +22.8632463     4378.995     69.53069      1.138     1.72    -13.80328     19.63173     913.3993        27     0.981     0.945  64.62   2
        27    164.9123   1002.1105 299.9170801 +22.7209285     1106.784     69.74322      4.903     7.34      11.8513     19.63173     40.86106        14     1.478     1.022  41.16   3
        28    162.1801    968.7866 299.9270814 +22.7105605     378.6227     69.54842      3.806     5.43      3.03836     19.63173     26.04602         5     1.167     0.713  -8.48   0
        29    558.8812    967.0579 300.0509814 +22.8291789     802.4055     69.63703      1.075     1.81    -13.34569     19.63173     176.7499        12     0.876     0.722  89.84   0
        30    107.6721    962.5818 299.9121714 +22.6924090     1348.834     69.58389     11.811    12.80     1.229973     19.63173     42.65561        23     2.828     1.614  68.53   2
        31     93.5058    964.3082 299.9072100 +22.6886478     1142.497     69.74322      3.953     3.52    0.9220803     19.63173     35.98095         5     1.210     0.295 -20.27   3
        32    452.8867    963.5626 300.0191439 +22.7963600     640.2516     69.56615      1.083     1.90     -13.3537     19.63173     100.3221         8     0.716     0.632 -78.30   0
        33    383.3809    961.6841 299.9981401 +22.7749542     3279.736     69.51295      1.074     1.84    -12.99284     19.63173     567.1741        21     0.938     0.800 -47.62   0
        34     58.3991    959.7097 299.8978058 +22.6767836     1236.912     69.49521      9.291    10.34    -6.069704     19.63173     35.09008        20     2.577     1.156  65.03   3
        35    165.8171    997.6019 299.9188292 +22.7199086     988.7925     69.49521      6.252     8.16     10.76264     19.63173     41.33868        13     1.803     1.032  51.60   3
        36     70.9661    984.9263 299.8934982 +22.6877824     2158.421     69.56615     22.881    23.89    0.7791268     19.63173      58.1376       130     4.749     3.336 -71.50  11
        37    239.2737    998.8517 299.9412443 +22.7423312     4194.458     69.60161      7.690    27.33     5.485015     19.63173     108.4609       330     7.923     3.885  60.15  26
        38     86.4421    930.4831 299.9160277 +22.6768356     971.6117     69.54843     17.478    22.49    -8.634698     19.63173     41.66047        40     6.775     2.073 -80.02   3
        39     90.0276    949.4896 299.9109540 +22.6833578      1017.54     69.56615     19.440    19.06    -3.581244     19.63173     43.77116        35     5.110     1.976  63.11   3
        40     77.3348    931.5433 299.9128546 +22.6744035     1869.025     69.63704     13.245    20.01    -8.784432     19.63173     45.13103        83     3.971     2.800 -11.44   3
        41     71.7501    945.3170 299.9066368 +22.6766716     1861.871     69.58389     12.252    19.01    -6.640832     19.63173     53.07317        73     4.966     2.023  84.59   3
        42     78.1550    943.7141 299.9091474 +22.6781366      1766.81     69.56615     13.895    14.60    -6.169968     19.63173     51.00409        49     2.836     2.091  33.09   3
        43    106.2133    956.5175 299.9136926 +22.6902335     808.3478     69.56615      6.639     6.40   -0.4294442     19.63173     35.76842         9     1.813     0.635  20.00   1
        44    929.5615    940.1226 300.1751938 +22.9326630     1068.161     69.56615      1.072     2.00    -13.33955     19.63173     192.9184        11     0.820     0.708  85.40   0
        45    718.4481    928.6414 300.1131605 +22.8660431     471.3427     69.61932      1.476     4.60    -13.14985     19.63173     72.36557        10     1.344     0.621  65.04   0
        46     94.6627    928.5297 299.9192164 +22.6787454     828.6293     69.61932      4.639     6.18    -8.337269     19.63173     34.25961         8     1.156     0.928 -56.45   1
        47    530.6799    924.2282 300.0561502 +22.8084325     181.5383     69.60161      0.934     2.43    -12.84472     19.63173     46.85463         5     0.735     0.428 -71.92   0
        48    753.2663    923.2887 300.1257463 +22.8749532     507.9958     69.69015      1.028     1.94     -13.1326     19.63173     103.9649         8     0.787     0.562   0.18   0
        49    775.5067    916.9587 300.1347341 +22.8798088     5634.874     69.60161      1.004     1.63    -13.10312     19.63173     1105.889        23     0.875     0.842 -72.57   0
        50    784.0961    899.0977 300.1432239 +22.8772604     630.6581     69.76089      0.993     1.54     -13.0224     19.63173     186.1621        10     0.896     0.599 -44.09   0
        51     76.9761    900.3875 299.9228842 +22.6653698     348.9076     69.58389      1.664     3.87    -10.58122     19.63173     24.81072         5     0.883     0.487   0.46   0
        52    161.9503    892.7254 299.9517693 +22.6886972     324.9611     69.58389      1.558     3.75    -9.933095     19.63173     28.43996         5     0.823     0.491  55.21   0
        53    822.2956    892.3386 300.1573240 +22.8867786     462.6519     69.67245      1.069     1.78    -12.88598     19.63173     77.67706         5     0.651     0.452  82.47   0
        54    870.3389    883.6243 300.1751298 +22.8986866     268.9975     69.58389      0.931     3.04    -12.64671     19.63173      58.0209         5     0.727     0.453 -17.67   0
        55    721.7615    882.6575 300.1291612 +22.8538443     423.5763     69.58389      1.149     2.10    -12.91843     19.63173     75.64655         6     0.652     0.636  84.36   0
        56    733.2941    879.8016 300.1336822 +22.8564845     327.4341     69.49521      0.847     1.55    -13.00631     19.63173     85.33859         5     0.655     0.433 -73.28   0
        57    434.5071    879.2690 300.0408672 +22.7666742       2006.3     69.70784      1.012     1.68    -12.40335     19.63173      390.782        15     0.845     0.769  70.90   0
        58     96.4516    867.8835 299.9395104 +22.6619067     167.8679     69.61932      1.345     4.51    -11.72824     19.63173     31.14389         6     1.011     0.573 -25.58   0
        59    159.8803    865.2048 299.9600829 +22.6801889     468.8988     69.51295      1.199     2.02    -11.69911     19.63173     91.03822         9     0.841     0.608  77.08   0
        60    136.8982    862.2363 299.9539101 +22.6724362     767.5454     69.58389      1.168     1.89    -11.77261     19.63173     156.9865        11     0.852     0.699 -74.32   0
        61   1008.5170    850.8674 300.2288627 +22.9307154     1098.161     69.69015      1.037     1.84    -12.34541     19.63173     197.9661         8     0.663     0.650 -72.81   0
        62    962.8939    849.3022 300.2151481 +22.9165879     979.5333     69.76089      0.999     1.79    -12.34911     19.63173     223.6707        10     0.738     0.678  51.28   0
        63    168.7230    843.8871 299.9697670 +22.6767350     195.3805     69.70784      0.950     2.29    -11.73582     19.63173     55.05445         6     0.721     0.598 -35.17   0
        64    614.4661    837.3268 300.1105095 +22.8086494     2346.553     69.61932      0.987     1.81    -12.17672     19.63173     415.8306        14     0.790     0.740  59.77   0
        65    416.4045    834.3581 300.0498529 +22.7483625     259.5935     69.60161      1.007     2.15    -12.21814     19.63173     59.08043         5     0.682     0.453  18.02   0
        66    164.7695    831.3740 299.9726105 +22.6719615     627.9923     69.58389      1.080     2.04     -11.7492     19.63173     126.5109        10     0.890     0.616 -78.23   0
        67    635.2356    829.8213 300.1194171 +22.8127274     261.7122     69.60161      0.946     1.91    -12.13984     19.63173     79.42346         6     0.683     0.558  29.15   0
        68    790.5386    817.0466 300.1719354 +22.8556460     2137.627     69.60161      0.999     1.64    -12.35236     19.63173     423.2486        19     0.868     0.856  35.06   0
        69   1007.3970    817.0858 300.2395075 +22.9206799     466.3805     69.51295      0.930     1.61    -12.34126     19.63173     107.2253         7     0.639     0.597  85.29   0
        70    153.9782    807.7252 299.9769528 +22.6619431     506.9848     69.58389      1.056     2.42    -11.79232     19.63173     103.7755        10     0.838     0.763  60.68   0
        71    568.9926    802.6201 300.1076502 +22.7850493     258.6601     69.54842      0.993     2.03    -12.16992     19.63173     53.79226         5     0.706     0.550  88.65   0
        72    303.5935    799.8163 300.0260172 +22.7045959     26330.78     69.51295      1.107     1.89    -11.79892     19.63173     4617.066        61     1.083     1.029  85.47   0
        73    561.3815    798.7684 300.1065348 +22.7816608     916.5374     69.56615      1.103     2.22    -12.15537     19.63173     145.0409        11     0.861     0.703  77.70   0
        74    974.2004    797.7440 300.2354514 +22.9051747     367.7365     69.51295      1.007     2.15    -12.25591     19.63173     88.35561         8     0.806     0.596   3.35   0
        75    231.8249    797.5169 300.0044602 +22.6823910     211.3222     69.54842      1.081     2.23    -11.78468     19.63173     55.25764         5     0.715     0.467 -19.05   0
        76    590.4044    794.7992 300.1168586 +22.7892297     425.0161     69.40642      1.031     2.08    -12.07896     19.63173     77.33715         7     0.736     0.588  58.40   0
        77    601.2628    793.1104 300.1207877 +22.7920028     303.1116     69.67245      0.862     1.69    -12.04606     19.63173     85.84271         5     0.674     0.421  76.00   0
        78    744.2264    779.4814 300.1697333 +22.8309752     325.0225     69.56615      0.934     1.61    -11.94537     19.63173     89.11203         5     0.625     0.474  22.87   0
        79    353.2860    777.0128 300.0488843 +22.7129734     15038.49     69.53069      1.131     1.87    -11.71964     19.63173     2880.616        40     1.002     0.939  87.83   0
        80    367.5776    777.5803 300.0531433 +22.7174257     925.0661     69.58389      0.995     1.92    -11.78314     19.63173     154.6419        11     0.766     0.682 -44.42   0
        81    876.3689    772.6267 300.2131306 +22.8686330     1376.919     69.58389      0.970     1.66     -11.9819     19.63173     295.2689        12     0.748     0.705 -82.19   0
        82    634.4651    768.8362 300.1390202 +22.7949984     532.9979     69.58389      1.080     2.41    -11.77197     19.63173     99.57735         8     0.785     0.705 -17.17   0
        83    235.8266    768.6130 300.0151069 +22.6753062     324.5101     69.58389      1.153     2.28      -11.719     19.63173     66.46641         7     0.797     0.574  82.18   0
        84     40.2037    764.7585 299.9555970 +22.6154624     173.9822     69.60161      1.168     3.00    -12.08826     19.63173     39.83202         6     0.759     0.539 -45.92   0
        85    481.3690    763.7522 300.0930320 +22.7476084     359.9912     69.61932      1.009     2.11    -11.82778     19.63173     67.98716         5     0.669     0.471 -77.03   0
        86    427.4273    759.1020 300.0777661 +22.7300880     239.6605     69.53069      0.990     3.47     -11.7927     19.63173     37.31253         5     0.799     0.436  69.50   0
        87     69.0340    758.4451 299.9666025 +22.6223112     253.8009     69.61932      1.288     2.44    -11.95816     19.63173     38.12726         6     0.763     0.496  -2.60   0
        88    233.2914    753.3949 300.0192695 +22.6701822     249.5778     69.49521      1.138     3.41    -11.68226     19.63173     45.88792         7     0.961     0.455 -12.12   0
        89    556.7800    743.4633 300.1230953 +22.7644137     253.6786     69.56615      0.955     2.49     -11.5276     19.63173     50.06248         5     0.702     0.466 -19.68   0
        90    526.3170    742.1559 300.1140414 +22.7548993     257.4278     69.54842      1.064     3.69    -11.54227     19.63173     44.02082         6     0.972     0.432 -78.49   0
        91    548.3700    739.1459 300.1218826 +22.7606520       574.59     69.60161      1.027     1.81    -11.48277     19.63173     127.5991         9     0.811     0.620 -62.44   0
        92    942.7161    738.0239 300.2450665 +22.8785883     2235.948     69.54842      1.063     1.65    -11.79125     19.63173     506.4526        18     0.866     0.789  37.62   0
        93    931.0585    729.4705 300.2442151 +22.8726376     807.1115     69.60161      0.974     1.69    -11.73453     19.63173     174.4425         8     0.660     0.642 -47.57   0
        94    294.1932    723.4626 300.0479332 +22.6798810     408.1154     69.54842      1.105     1.59    -11.53452     19.63173     80.44207         5     0.630     0.461  26.38   0
        95    757.2953    720.6486 300.1929428 +22.8180079     1305.357     69.63704      1.104     1.84    -11.59574     19.63173     241.4513        13     0.926     0.678 -80.91   0
        96    962.2091    719.4654 300.2571801 +22.8791020     761.0106     69.54842      0.937     1.68    -11.68929     19.63173     163.3546         9     0.735     0.627 -17.43   0
        97    839.9033    706.6626 300.2232263 +22.8387617     321.2669     69.67245      1.178     2.85     -11.6259     19.63173     57.95657         6     0.814     0.577  39.99   0
        98    875.9393    697.6506 300.2373865 +22.8469775     72037.62     69.63703      1.067     1.60    -11.59282     19.63173     16189.97        95     1.108     1.038 -87.08   0
        99   1022.8237    699.2505 300.2826543 +22.8914632     641.7302     58.57497      1.005     1.72    -11.58527     19.63173     157.4935         8     0.754     0.613 -63.59  24
       100    727.9981    697.9111 300.1912138 +22.8026958     412.6669     69.51295      1.284     2.92     -11.4885     19.63173     77.59402         7     0.965     0.505 -35.91   0
       101    908.8197    690.2955 300.2500259 +22.8547219     159.4461     69.49521      0.928     2.65    -11.53734     19.63173     49.42274         5     0.795     0.455 -49.08   0
       102    562.2526    686.5505 300.1433096 +22.7497254     790.1961     69.61932      1.010     2.00    -11.29704     19.63173     152.4179        10     0.832     0.623 -89.58   0
       103    743.4291    683.8235 300.2006014 +22.8032791     4592.615     69.58389      1.043     1.78    -11.49173     19.63173     862.7349        25     0.939     0.847  67.84   0
       104    244.9556    679.3549 300.0469746 +22.6524542     2299.168     69.61932      1.148     2.08    -11.20321     19.63173     422.5271        21     1.045     0.867  79.33   0
       105    327.0240    677.1575 300.0731982 +22.6764548     501.4927     69.63703      1.078     2.09    -11.16569     19.63173     95.42946         9     0.760     0.690 -68.98   0
       106    535.2281    672.5468 300.1394540 +22.7376006     395.8463     69.60161      1.103     2.21    -11.20371     19.63173     77.40166         5     0.674     0.492  -9.47   0
       107    526.9935    664.8425 300.1393971 +22.7329198     1504.667     69.60161      1.123     1.77    -11.03653     19.63173     323.5864        16     0.858     0.818 -37.69   0
       108    517.2320    658.4819 300.1384282 +22.7281665     724.4041     69.58389      1.052     2.13    -10.88855     19.63173     122.8688         9     0.740     0.722 -44.21   0
       109    180.2523    654.6042 300.0349177 +22.6259357     416.6534     69.58389      1.115     3.28    -11.38662     19.63173     72.47942         8     0.868     0.765 -34.90   0
       110    194.5571    653.1308 300.0398412 +22.6298071     139.5772     69.54842      0.915     1.82    -11.29445     19.63173     63.23119         6     0.699     0.495  85.36   0
       111    251.5785    649.8182 300.0586372 +22.6459718     141.7511     69.58389      0.985     3.39    -11.13384     19.63173     31.65121         5     0.747     0.446  69.19   0
       112    963.8700    649.4564 300.2804673 +22.8594931      293.712     69.60161      0.940     1.56    -11.34511     19.63173     61.55299         5     0.617     0.473 -23.19   0
       113    540.7912    648.7984 300.1489076 +22.7324547     313.0246     69.40642      1.475     2.37    -10.82829     19.63173     47.12087         5     0.686     0.672  -0.15   0
       114    441.9754    648.1944 300.1183616 +22.7026384     871.5251     69.56615      1.189     1.95    -10.93663     19.63173     164.9224        11     0.816     0.743  75.16   0
       115     95.9748    643.3657 300.0123931 +22.5974141      9738.11     69.60161      1.203     2.03     -11.5628     19.63173     1637.622        35     1.068     0.967  80.47   0
       116   1017.5215    645.3237 300.2985391 +22.8743841     453.8152     69.69015      1.122     2.15    -11.50309     19.63173     72.79773         7     0.808     0.522  34.07   0
       117     16.8247    644.9551 299.9872991 +22.5741058     272.6118     69.60161      1.073     3.02    -11.60504     19.63173     48.51326         6     0.856     0.491  53.52   0
       118    526.9488    643.5671 300.1463013 +22.7268014     500.9423     69.60161      1.157     2.02    -10.70802     19.63173     89.89204         8     0.758     0.625  82.93   0
       119    944.9417    629.5128 300.2810518 +22.8480920     509.2618     69.65475      0.992     2.79     -11.1903     19.63173     96.24132         8     0.871     0.604 -34.54   0
       120     41.9301    627.4504 300.0007847 +22.5766260     554.5488     69.58389      1.482     5.01     -11.4504     19.63173     75.70095        15     1.453     0.704 -85.44   0
       121    811.6180    627.8106 300.2400568 +22.8076415     347.7238     69.54842      1.072     1.75    -10.97771     19.63173     50.98808         5     0.658     0.457  69.66   0
       122    885.0393    622.1155 300.2647863 +22.8280141     417.7744     69.56615      1.296     1.85    -10.92564     19.63173      69.1091         5     0.605     0.531 -86.90   0
       123    447.0280    616.5302 300.1302283 +22.6950693     269.5733     69.56615      0.982     2.15    -10.56212     19.63173     61.09298         6     0.727     0.493   8.24   0
       124    491.0419    612.1195 300.1453541 +22.7070068     481.8694     69.56615      1.197     2.04    -10.22419     19.63173     78.53913         7     0.803     0.510  49.31   0
       125    456.7212    607.7632 300.1360937 +22.6954616     753.6605     69.53069      1.156     1.90     -10.3897     19.63173     156.2787        12     0.862     0.758 -86.06   0
       126    924.9324    607.6212 300.2819326 +22.8358075     1610.579     69.56615      1.034     1.63    -10.93851     19.63173     360.7277        14     0.840     0.750 -75.71   0
       127   1023.0201    605.5652 300.3131816 +22.8646100    -420.4857     57.61971      0.957     1.79    -11.61705     19.63173     73.84171         6     0.697     0.495  -2.95  24
       128     18.7605    601.5801 300.0020010 +22.5622536     2504.308     69.61932      1.142     2.05     -11.3004     19.63173     378.1707        19     0.938     0.849  51.13   0
       129    320.1324    594.5875 300.0979019 +22.6507029     4437.104     69.58389      1.167     2.01    -10.90048     19.63173     717.0095        25     1.019     0.898  82.91   0
       130    442.5425    591.6108 300.1369344 +22.6865736     4483.979     69.54842      1.105     2.01    -10.42416     19.63173     730.6747        27     1.000     0.912  77.99   0
       131    854.2124    585.3411 300.2671360 +22.8082130     911.9501     69.56615      1.105     1.98     -10.6672     19.63173     153.2504        11     0.768     0.747 -30.41   0
       132    938.8054    582.7552 300.2943412 +22.8328224     6269.434     69.58389      1.057     1.70    -10.88147     19.63173      1314.07        29     0.942     0.884 -78.92   0
       133    503.1599    581.1493 300.1591924 +22.7017540     5515.712     69.60161      1.189     1.97    -10.16148     19.63173     978.9026        29     1.014     0.903  85.95   0
       134    230.6245    576.7003 300.0758957 +22.6187133     582.1353     69.53069      1.138     2.25    -10.83904     19.63173     110.7661        10     0.808     0.722  70.69   0
       135    434.7869    569.3490 300.1417585 +22.6778593     2155.668     69.61932      1.162     2.11    -10.33563     19.63173     342.0022        16     0.908     0.800 -72.58   0
       136    777.7050    569.1809 300.2485531 +22.7806397     451.8174     69.49521      1.092     1.71    -10.61431     19.63173     90.90594         6     0.655     0.533 -46.51   0
       137    413.2440    567.7844 300.1355668 +22.6709480     540.5062     69.60161      1.122     2.27    -10.39348     19.63173     107.5984         9     0.802     0.697 -85.79   0
       138    167.2457    566.9833 300.0593614 +22.5969060     450.4007     69.60161      1.386     2.91    -10.81283     19.63173     55.74876         7     0.717     0.677 -74.62   0
       139    854.6433    564.6923 300.2739828 +22.8024117     712.5175     69.58389      1.140     2.29    -10.63166     19.63173     112.2316        10     0.858     0.673 -42.41   0
       140    551.4130    556.8308 300.1821117 +22.7092462      99490.6     69.58389      1.186     2.01    -10.06922     19.63173     15482.93       134     1.271     1.217 -65.89   0
       141    734.9742    561.6571 300.2376893 +22.7656698     322.6574     69.58389      1.021     2.61    -10.52615     19.63173     70.66838         6     0.865     0.469 -89.04   0
       142    237.5469    556.8795 300.0844893 +22.6151056     1672.182     69.61932      1.130     2.11    -10.65726     19.63173     268.7193        15     0.905     0.804  67.94   0
       143    803.4691    553.1050 300.2618048 +22.7837458     238.6243     69.70784      1.096     3.27    -10.58437     19.63173     44.90097         5     0.874     0.521  42.06   0
       144    821.8011    550.9918 300.2682030 +22.7886335     137.8277     69.40642      1.194     3.81    -10.58834     19.63173     24.95354         5     0.819     0.509 -31.62   0
       145    442.0421    537.1495 300.1544809 +22.6707956     1241.856     69.60161      1.199     1.89    -10.17941     19.63173     231.5268        15     0.863     0.859 -12.32   0
       146    838.8320    523.2590 300.2825234 +22.7857724     851.4672     69.60161      1.136     1.89     -10.5677     19.63173     162.4843        12     0.842     0.717 -61.50   0
       147    710.2208    520.8799 300.2432341 +22.7465403     1209.039     69.56615      1.127     1.83    -10.25534     19.63173     244.3376        14     0.905     0.739 -57.58   0
       148    919.3178    517.9458 300.3093331 +22.8083651     231.6881     69.63703      1.281     4.47    -10.59461     19.63173      30.4701         6     0.859     0.662  54.53   0
       149    954.5174    517.8704 300.3203301 +22.8188903     298.8457     69.69015      1.083     2.65    -10.68513     19.63173     50.71724         5     0.914     0.328  -4.94   0
       150    497.5919    516.7692 300.1783852 +22.6816069     345.4516     69.58389      1.210     2.06     -10.0803     19.63173     50.25564         5     0.675     0.464  70.67   0
       151    967.4845    514.9764 300.3253132 +22.8219439     621.4899     69.56615      1.025     1.77    -10.71598     19.63173     126.1351         9     0.763     0.634  73.10   0
       152    953.2138    514.0969 300.3211501 +22.8174155     343.6441     69.47746      1.264     3.21    -10.66946     19.63173     53.17478         6     0.771     0.536  50.32   0
       153    839.2446    513.5521 300.2858067 +22.7831079     927.8737     69.60161      1.023     1.96    -10.56085     19.63173     173.7391        11     0.775     0.721 -88.99   2
       154    838.2712    509.7379 300.2867430 +22.7817206     230.6673     69.61932      1.223     2.51    -10.55705     19.63173     47.11356         5     0.721     0.503  64.08   3
       155    592.4439    511.7557 300.2095314 +22.7086107     313.1866     69.61932      1.058     2.80    -9.973966     19.63173     44.28813         6     0.689     0.643  15.81   0
       156    877.3519    508.2877 300.2993924 +22.7930154     2005.385     69.58389      1.072     1.84    -10.57933     19.63173     357.4693        15     0.858     0.785 -81.77   0
       157    969.1495    498.7789 300.3310964 +22.8177888     389.7577     69.58389      1.078     1.91    -10.66646     19.63173     76.11004         8     0.736     0.622  38.95   0
       158    109.6154    498.9827 300.0635583 +22.5601085     465.4971     69.56615      1.207     2.77    -10.62748     19.63173     76.58308         9     0.887     0.738 -85.24   0
       159    651.0911    478.8598 300.2384778 +22.7167487      387.154     69.65474      1.252     2.79    -9.928787     19.63173     56.54464         6     0.727     0.560 -28.56   0
       160    711.3696    471.1901 300.2597393 +22.7326153      446.554     69.58389      1.202     3.29    -10.14341     19.63173     69.70113        10     0.972     0.767  11.51   0
       161    868.8770    467.0563 300.3101500 +22.7786312     530.1952     69.61932      1.116     2.37    -10.53458     19.63173     76.83605         9     0.760     0.727 -37.81   0
       162    597.3368    461.6807 300.2273260 +22.6957010     1700.506     69.69015      1.252     2.28     -9.89564     19.63173     237.7558        16     0.988     0.832 -82.26   0
       163    957.4558    460.1294 300.3400101 +22.8031800     261.3567     69.60161      0.965     2.31    -10.59819     19.63173     50.53516         6     0.749     0.498 -89.45   0
       164   1008.7102    440.6605 300.3623164 +22.8129389     701.7958     69.67245      1.132     2.08    -10.62182     19.63173     124.4463        10     0.820     0.676 -65.73   0
       165    966.9664    439.3529 300.3497257 +22.8000588     546.1068     69.61932      1.158     1.99    -10.60273     19.63173     92.47031         9     0.820     0.608  73.07   0
       166    880.6524    440.2244 300.3225378 +22.7744506     363.0031     69.60161      1.091     2.44    -10.50968     19.63173     48.27019         5     0.703     0.458 -75.72   0
       167    708.2146    435.6537 300.2703028 +22.7214638     508.8488     69.60161      1.210     2.44    -10.08688     19.63173     90.83708        10     0.861     0.722  55.47   0
       168    503.6333    436.1787 300.2064508 +22.6602851     256.1093     69.58389      1.425     3.39    -9.746582     19.63173     36.64704         5     0.793     0.419 -69.32   0
       169    211.7947    434.1601 300.1163626 +22.5721750     320.9942     69.60161      1.217     3.42    -10.18713     19.63173     44.80465         8     0.888     0.644  85.85   0
       170    274.3311    429.7301 300.1372369 +22.5896646     1785.845     69.63704      1.207     2.31    -9.924569     19.63173     226.5529        17     0.981     0.814  84.09   0
       171   1007.3557    427.8076 300.3660699 +22.8088393     2158.301     69.60161      1.074     1.80    -10.62091     19.63173     424.9341        15     0.866     0.787 -59.02   0
       172    221.5613    424.5671 300.1225138 +22.5723528     3602.959     69.61932      1.180     2.15    -10.14865     19.63173     559.5643        22     1.034     0.887 -72.65   0
       173    362.2328    418.6773 300.1681548 +22.6128584     2143.655     69.56615      1.223     2.33    -9.610733     19.63173     315.6598        22     1.124     0.878  59.46   0
       174    987.2700    418.8379 300.3627211 +22.8002452     730.7698     69.54842      1.005     1.89    -10.61182     19.63173      172.313         9     0.779     0.626  75.00   0
       175    606.5339    415.2820 300.2452629 +22.6851353     9067.961     69.69015      1.223     2.23    -9.885868     19.63173     1154.638        39     1.109     1.041 -68.48   0
       176    623.6784    415.4400 300.2505484 +22.6903200     378.5615     69.56615      1.881     5.94    -9.890503     19.63173     33.52836        10     1.383     0.718 -36.81   0
       177    939.8625    397.6861 300.3548125 +22.7799659     369.3913     69.69015      1.206     2.78    -10.47919     19.63173     53.25796         9     0.863     0.678 -68.55   0
       178    161.2913    395.6314 300.1131858 +22.5459695     896.8287     69.53069      1.225     2.34    -10.15104     19.63173     137.2513        15     1.090     0.795  88.15   0
       179    547.1298    384.8139 300.2366708 +22.6585786      3219.54     69.58389      1.275     2.23    -9.791557     19.63173     473.8448        25     1.052     0.930  60.07   0
       180    960.7037    384.8980 300.3654636 +22.7825335     454.6477     69.76089      0.990     2.12    -10.37627     19.63173     96.20855         8     0.736     0.641 -67.62   0
       181    261.7371    383.9517 300.1481921 +22.5727507     306.1161     69.61932      1.291     2.92    -9.761928     19.63173     50.60096         5     0.765     0.407  74.88   0
       182    119.4300    377.5166 300.1060651 +22.5282133     200.7188     69.60161      0.877     4.16    -10.24364     19.63173     38.77953         6     1.013     0.488 -54.19   0
       183    751.3858    373.8228 300.3038335 +22.7166412     737.1475     69.56615      1.361     3.44    -10.06455     19.63173     82.09068         9     1.012     0.642  20.54   0
       184    453.8235    371.0966 300.2120951 +22.6266663     2958.246     69.51295      1.260     2.08    -9.584074     19.63173      476.615        21     0.996     0.924  74.87   0
       185    845.7543    365.3104 300.3359981 +22.7424703     704.4038     69.56615      1.123     2.37    -10.25453     19.63173     110.5391        10     0.934     0.610  37.22   0
       186    943.1517    365.4153 300.3663200 +22.7716768     445.3044     69.61932      1.414     2.38    -10.27884     19.63173     49.36173         5     0.700     0.461  19.23   0
       187    818.3886    352.7847 300.3315394 +22.7306727     331.1397     69.53069      1.469     4.32    -10.21067     19.63173     40.87418         7     0.943     0.564 -33.62   0
       188    341.3636    350.4127 300.1838377 +22.5870067      1180.79     69.56615      1.249     2.38    -9.470927     19.63173     162.0844        16     0.975     0.856  60.94   0
       189     59.8984    347.8155 300.0972212 +22.5018312      488.197     69.49521      1.194     2.46    -10.18152     19.63173     75.18822         8     0.813     0.620 -59.36   0
       190    310.7107    339.8371 300.1777420 +22.5747787     14492.82     69.56615      1.241     2.11    -9.428041     19.63173     2396.578        48     1.140     1.060  69.02   0
       191    845.1858    337.3364 300.3449061 +22.7342618     660.9454     69.54842      1.158     2.03    -10.11967     19.63173     132.8842         9     0.987     0.618 -69.64   0
       192    800.6221    334.7570 300.3318588 +22.7201700     205.5302     69.63704      1.540     4.85    -10.11115     19.63173     29.34882         5     1.046     0.651 -27.08   0
       193      7.0930    327.6828 300.0873622 +22.4802116     2360.899     69.74322      1.215     2.25    -10.16311     19.63173     349.8952        20     1.001     0.872  84.49   0
       194    760.4872    326.1539 300.3221498 +22.7056734      275.662     69.56615      1.127     3.25     -9.92885     19.63173     48.62702         5     0.758     0.457  70.50   0
       195    721.1075    319.4409 300.3120643 +22.6919455     866.8828     69.58389      1.201     2.30    -9.804971     19.63173     133.9578        14     0.881     0.845  67.53   0
       196    936.1592    311.4620 300.3816622 +22.7540755     289.3004     69.56615      1.271     3.94    -10.07007     19.63173     46.85681         6     1.240     0.359  86.50   0
       197    382.9699    304.1902 300.2117844 +22.5862141     1053.691     69.58389      1.422     2.61    -9.263484     19.63173     131.2066        16     1.166     0.819  65.56   0
       198    821.8984    296.8535 300.3507959 +22.7156524     222.5032     69.67245      1.193     1.67    -9.896828     19.63173      65.7109         6     0.676     0.521  45.34   0
       199    458.6595    283.3858 300.2420810 +22.6029327     587.6659     69.54842      1.209     2.27    -9.420428     19.63173     83.38466        11     0.856     0.753  23.16   0
       200    703.5304    275.3058 300.3209207 +22.6739989     1065.451     69.70784      1.157     2.20    -9.592834     19.63173     158.8411        14     0.849     0.835 -81.63   0
       201    964.7545    269.4591 300.4042149 +22.7505653     1497.311     69.61932      1.056     1.97    -9.874422     19.63173     243.4617        14     0.887     0.742 -89.98   0
       202    411.8600    259.1021 300.2354074 +22.5819303     245.3669     69.65475      1.175     2.82    -9.121979     19.63173     42.87921         7     0.817     0.647 -35.94   0
       203     86.6112    253.6736 300.1360815 +22.4828365     723.5097     69.60161      1.699     3.79    -9.773641     19.63173     64.27955        13     1.090     0.872 -78.10   0
       204    117.3848    253.7208 300.1456245 +22.4920810      250.998     69.60161      1.164     2.80    -9.721819     19.63173     50.54253         5     0.693     0.484 -84.18   0
       205    980.6783    249.9120 300.4155257 +22.7497141     323.3784     69.72553      1.211     3.67    -9.741238     19.63173       37.584         7     0.739     0.675 -74.28   0
       206     26.4459    242.1473 300.1211390 +22.4614806     234.2348     69.61932      1.340     4.14    -9.723182     19.63173     42.72709         6     0.935     0.553 -21.48   0
       207    847.1380    238.7592 300.3775212 +22.7065165     300.5856     69.56615      1.303     3.45    -9.472451     19.63173     28.66717         5     1.002     0.343  44.36   0
       208    775.0003    236.4488 300.3557957 +22.6842450     321.6111     69.58389      1.119     2.59    -9.408552     19.63173     58.54083         8     0.805     0.640  75.74   0
       209    873.4100    225.6051 300.3899784 +22.7106039     789.5426     69.44195      1.135     2.13    -9.397708     19.63173     137.0714        12     0.820     0.770  31.39   0
       210    291.9855    223.2317 300.2097768 +22.5356920     1020.121     69.58389      1.227     2.16    -9.064237     19.63173     162.1979        14     0.956     0.784 -85.21   0
       211    370.0837    218.1728 300.2357007 +22.5576541     443.9409     69.58389      1.374     2.37    -9.041475     19.63173     66.19296         8     0.803     0.621 -47.39   0
       212    186.5856    210.1800 300.1812554 +22.5003402     340.7964     69.54842      1.251     2.97     -9.29336     19.63173     59.00996         8     0.806     0.696  16.24   0
       213    724.2826    207.2538 300.3494745 +22.6606623      810.221     69.61932      1.295     2.68    -9.275367     19.63173     115.7706        13     0.944     0.775  78.94   0
       214    789.8545    206.7460 300.3700645 +22.6801581     344.6707     69.61932      1.267     3.80    -9.304181     19.63173     49.30905         7     0.908     0.648  -3.29   0
       215    995.7126    199.1661 300.4366859 +22.7396251     371.5746     69.54842      1.081     1.94    -9.359981     19.63173     82.45444         7     0.649     0.642  56.71   0
       216    728.5952    198.2892 300.3537272 +22.6593780     384.7431     69.49521      1.243     2.72    -9.247332     19.63173     55.64996         7     0.871     0.528 -30.46   0
       217    649.0387    197.7436 300.3291303 +22.6353876      593.592     69.58389      1.312     2.54    -9.434248     19.63173     98.66117        10     0.961     0.650  32.78   0
       218    575.2030    189.5854 300.3087931 +22.6109208     562.1208     69.42419      1.418     3.25    -9.358767     19.63173     71.48112        10     0.979     0.727  88.17   0
       219    844.2733    189.2097 300.3927116 +22.6914162     523.4655     69.58389      1.157     2.49    -9.250409     19.63173     89.99236        11     0.839     0.796 -70.68   0
       220    856.3386    188.1867 300.3968034 +22.6947354     406.9563     69.54842      1.353     2.86    -9.241809     19.63173     67.19026         6     0.722     0.620 -44.59   0
       221   1017.1517    179.0963 300.4498852 +22.7402724     931.0717     69.61932      1.192     2.10     -9.20178     19.63173     150.0982        11     0.817     0.742 -70.10   0
       222    973.1102    178.4370 300.4363663 +22.7268976     438.8675     69.56615      1.051     2.12    -9.222458     19.63173     100.1743         8     0.812     0.575  16.93   0
       223    207.3059    171.8188 300.2001429 +22.4955423     328.1019     69.51295      1.325     3.09    -9.238805     19.63173     53.88093        10     0.915     0.748  51.66   0
       224     69.2074    166.7836 300.1588756 +22.4526827     1166.745     69.51295      1.282     2.42    -9.399399     19.63173      167.152        15     0.993     0.826 -88.20   0
       225    892.0442    163.6093 300.4159074 +22.6983620     432.1779     69.60161      1.302     3.06     -9.15706     19.63173     69.32037        10     1.045     0.625 -79.35   0
       226    226.6068    160.1601 300.2099241 +22.4979826     2862.476     69.61932      1.297     2.36     -9.21017     19.63173     366.5227        23     1.060     0.976  33.70   0
       227     10.7916    154.7266 300.1446482 +22.4317014     664.9827     69.56615      1.295     2.34    -9.452158     19.63173     95.38593         8     0.736     0.669 -25.79   0
       228    209.9996    150.9085 300.2077650 +22.4903472      377.595     69.45971      1.437     3.40    -9.200416     19.63173     33.42191         5     0.624     0.606  -0.10   0
       229   1023.8840    147.2337 300.4623248 +22.7331247     1769.776     52.91106      0.832     2.13    -9.078362     19.63173     567.7219        11     1.103     0.319 -88.53  24
       230    870.4537    141.4281 300.4163763 +22.6855200      1646.27     69.60161      1.151     2.20    -9.033977     19.63173     224.3684        18     1.023     0.802 -79.96   0
       231    974.1677    140.0835 300.4491423 +22.7161855     1311.222     69.56615      1.157     2.04    -9.086764     19.63173     245.7885        13     0.894     0.749  56.45   0
       232    420.1375    137.0876 300.2775809 +22.5493717     311.3314     69.67245      1.275     3.05    -8.868063     19.63173     58.35688         6     0.957     0.520  56.70   0
       233    471.4398    123.8098 300.2978478 +22.5609323     814.3541     69.58389      1.269     3.03     -8.87536     19.63173     126.0391        15     1.070     0.817  81.87   0
       234    399.5908    124.3699 300.2753166 +22.5395610     296.7679     69.58389      1.576     3.61    -8.914777     19.63173     37.81392         5     0.939     0.481 -82.84   0
       235    245.4224    103.9985 300.2339930 +22.4874994      3009.47     69.53069      1.300     2.43    -9.037655     19.63173      374.016        22     1.040     0.935  83.50   0
       236     96.6156    103.7796 300.1878290 +22.4428198     415.6558     69.56615      1.322     3.40    -9.222234     19.63173     45.13043         5     0.772     0.434  69.86   0
       237    491.4315     89.2039 300.3152946 +22.5569813     3024.678     69.56615      1.294     2.43    -8.784378     19.63173     340.6187        22     1.078     0.917 -86.74   0
       238    376.7113     89.1986 300.2796112 +22.5226021     367.9244     69.51295      1.465     3.88    -9.007632     19.63173     40.44754         7     0.951     0.678 -32.28   0
       239    619.7526     69.2972 300.3616891 +22.5897045     2996.214     69.61932      1.241     2.19    -8.661062     19.63173     440.0929        24     1.037     0.948  72.36   0
       240    394.6512     68.1118 300.2920305 +22.5219216     830.1365     69.61932      1.436     3.63    -9.065329     19.63173     109.8326        14     1.158     0.883  78.68   0
       241    660.9586     66.5203 300.3754190 +22.6012487     440.9189     69.56615      1.202     2.36    -8.471474     19.63173     68.84633         8     0.796     0.642  86.54   0
       242    676.8516     62.4628 300.3816839 +22.6048426     309.2303     69.63703      1.286     4.02    -8.341351     19.63173     48.31686         7     0.925     0.572 -85.51   0
       243    143.4451     60.6835 300.2163550 +22.4444901     295.9513     69.54842      1.220     3.41    -8.985708     19.63173     51.39754         5     0.754     0.447 -68.96   0
       244    946.5149     59.8603 300.4665481 +22.6848368     266.2433     69.69015      1.199     4.05    -8.819651     19.63173     46.42216         7     1.020     0.460  77.53   0
       245    715.4480     58.2649 300.3950652 +22.6151952     320.2378     69.60161      1.666     3.70    -8.253266     19.63173     36.93436         5     1.087     0.497  89.48   0
       246    305.0058     55.4219 300.2682714 +22.4914103     251.8606     69.56615      1.350     3.59     -8.84671     19.63173     40.98434         7     1.077     0.525  61.81   0
       247    679.4745     53.2017 300.3855046 +22.6029663     489.2727     69.49521      1.819     4.52    -8.200584     19.63173     64.63416        10     1.386     0.795  50.52   0
       248    663.9078     54.0917 300.3803687 +22.5985598     1294.823     69.74322      1.271     2.38    -8.265396     19.63173     193.6547        17     0.998     0.860  55.17   0
       249    750.1961     45.7432 300.4099496 +22.6220013     741.5576     69.54842      1.193     2.34    -8.143667     19.63173       111.49        12     0.990     0.705 -75.76   0
       250    688.1732     38.8222 300.3928774 +22.6014381     251.0026     69.56615      1.157     2.77    -7.982608     19.63173     54.25014         7     0.710     0.673 -24.98   0
       251    494.2443     38.0988 300.3327464 +22.5431409     472.8834     69.58389      1.139     2.43    -8.566761     19.63173     86.84064         9     0.877     0.632 -41.50   0
       252     66.9255     37.9207 300.1999690 +22.4150124     386.9786     69.69015      1.566     3.64    -8.843157     19.63173     44.23557         5     0.682     0.560 -87.78   0
       253    398.0186     36.4418 300.3033498 +22.5138332     472.8799     69.60161      1.267     3.79    -9.176402     19.63173      59.3246        10     1.063     0.665  52.55   0
       254    169.2977     26.5690 300.2354511 +22.4424461      1873.76     69.54842      1.405     2.77    -8.749966     19.63173     207.1093        22     1.191     0.907  76.14   0
       255    730.4771     18.4706 300.4126529 +22.6082560     304.1451     69.69015      1.142     2.75    -7.680282     19.63173     64.84625         8     0.807     0.720  -6.97   0
       256    285.2082     18.6182 300.2740528 +22.4749065     639.3035     69.54842      1.221     2.57    -8.494736     19.63173     82.20541         9     0.870     0.637  72.18   0
       257    226.5528   1010.7450 299.9334188 +22.7419181     1112.523     69.61932      5.997    10.31     13.53122     19.63173     42.56113        19     3.056     0.970 -80.46  19
       258    209.3396   1016.3069 299.9262594 +22.7383413     1315.821     69.67245      7.908     7.31     15.87757     19.63173     51.94677        24     1.686     1.494  -6.76  19
       259    217.6710   1007.4271 299.9317395 +22.7382997     2405.715     69.56615     12.113    24.28     13.11672     19.63173      57.3506       161     4.879     3.523 -70.46  19
       260    196.7101   1009.3889 299.9245883 +22.7325655     2219.827     69.53069      9.512    20.47     13.74131     19.63173     125.6209        76     4.198     2.772 -55.04  19
       261    637.6885   1006.9147 300.0625303 +22.8642611     4556.567     69.70784      1.090     1.68    -13.78164     19.63173      963.541        26     0.951     0.906 -73.07   3
