#   1 NUMBER                 Running object number                                     
#   2 X_IMAGE                Object position along x                                    [pixel]
#   3 Y_IMAGE                Object position along y                                    [pixel]
#   4 ALPHA_J2000            Right ascension of barycenter (J2000)                      [deg]
#   5 DELTA_J2000            Declination of barycenter (J2000)                          [deg]
#   6 FLUX_APER              Flux vector within fixed circular aperture(s)              [count]
#   7 FLUXERR_APER           RMS error vector for aperture flux(es)                     [count]
#   8 FLUX_RADIUS            Fraction-of-light radii                                    [pixel]
#   9 FWHM_IMAGE             FWHM assuming a gaussian core                              [pixel]
#  10 BACKGROUND             Background at centroid position                            [count]
#  11 THRESHOLD              Detection threshold above background                       [count]
#  12 FLUX_MAX               Peak flux above background                                 [count]
#  13 ISOAREA_IMAGE          Isophotal area above Analysis threshold                    [pixel**2]
#  14 A_IMAGE                Profile RMS along major axis                               [pixel]
#  15 B_IMAGE                Profile RMS along minor axis                               [pixel]
#  16 THETA_IMAGE            Position angle (CCW/x)                                     [deg]
#  17 FLAGS                  Extraction flags                                          
         1    767.4716     11.2412 300.4260011 +22.6181215     351.8511     69.29813      1.327     3.43    -8.489639     19.55609     42.85643         5     0.763     0.446  68.81   0
         2    691.3124     11.1498 300.4023032 +22.5952878     311.8909     69.31579      1.526     3.68    -8.533208     19.55609     44.18914         6     0.935     0.545  26.32   0
         3    787.7982      7.6581 300.4334971 +22.6231779     1044.847      69.2628      1.189     2.32    -8.443878     19.55609     167.0528        12     0.863     0.762 -56.11   0
         4    493.4495      6.0094 300.3423619 +22.5345399     253.7996     69.33344      1.333     3.41    -9.014383     19.55609     43.66169         5     0.782     0.584   1.09   0
         5    171.0607      2.8769 300.2431094 +22.4370185     425.0432      61.6535      1.235     3.15    -8.779836     19.55609     59.28716        10     0.912     0.728 -88.56  24
         6    962.5371      1.4588 300.4899822 +22.6737080     302.0325     54.71234      0.966     2.99    -8.878396     19.55609     65.58651         6     0.882     0.492 -34.78  24
         7    636.9324   1004.5662 300.0625540 +22.8642322     4628.588     69.31579      1.044     1.71    -13.61314     19.55609     879.5805        25     0.964     0.884 -87.19   2
         8    159.6848   1019.3697 299.9092888 +22.7251584      833.397      69.3158      7.827    13.29     19.03592     19.55609      46.8488        24     2.745     1.791   3.10  19
         9    175.8418   1021.2047 299.9137117 +22.7305383     1116.403     65.29743      8.634    11.31      19.8963     19.55609      38.6377        22     2.451     1.455  71.45  19
        10    169.5289   1019.8062 299.9122055 +22.7282410     1768.449     68.99726      6.675    15.26     19.48563     19.55609     45.16496        28     3.790     1.709 -72.94  27
        11     76.7156   1013.3282 299.8854809 +22.6984981      2575.09     69.42165     21.436    66.23     10.05229     19.55609     61.74403       722    15.418     7.895  49.54  27
        12    163.6004    993.5587 299.9189094 +22.7189401     1012.202     69.33344      5.219     7.73     11.73546     19.55609     38.61575        14     2.123     0.788  45.09   2
        13    105.0912    991.1425 299.9015183 +22.7006691     982.3022     69.36874      9.007     9.43     10.86226     19.55609     35.18545        14     1.711     1.450  -7.70   3
        14     74.6762    959.1042 299.9025007 +22.6823526     2536.684     69.43927     22.101    29.73    -2.539955     19.55609     65.80449       223     6.285     3.904  20.74   3
        15    924.5955    990.5486 300.1567455 +22.9465264     314.9386      69.3158      1.020     2.70    -13.45708     19.55609     51.69883         6     0.801     0.490  87.62   0
        16    545.0392   1011.7504 300.0316075 +22.8387078     1224.999     69.31579      1.077     1.90    -13.82841     19.55609     246.1058        11     0.768     0.738 -62.72   0
        17    143.4882    976.8815 299.9180899 +22.7081197     845.7884     69.42165      3.213     6.60     6.766731     19.55609     34.84403        14     1.333     0.916 -63.85   0
        18    228.8919    988.7766 299.9407569 +22.7371839     1621.265     69.24513      5.889    12.77     8.409566     19.55609     43.81766        41     3.006     1.509  32.26   3
        19    649.7340    973.9703 300.0765024 +22.8592993     3314.544     69.33344      1.123     1.90    -13.33016     19.55609     654.6896        19     0.892     0.830  46.47   0
        20    238.2116    995.9533 299.9413170 +22.7420399      4062.98     69.31579      7.676    27.23     7.186995     19.55609     98.49808       296     7.470     3.782  66.82  18
        21    116.8983    970.3097 299.9119685 +22.6982484     571.2153     69.49213      5.518     5.76      4.66725     19.55609     33.77533         6     1.784     0.524  45.41   1
        22    209.2092   1013.3876 299.9266263 +22.7383231     1229.606     69.20978      9.423     9.93     17.86444     19.55609     55.32255        28     2.403     1.203 -17.96  19
        23    196.6495   1007.3154 299.9247003 +22.7328102     1988.524     69.29813      8.293    17.99     15.79348     19.55609     80.83315        76     3.182     2.826 -71.37  26
        24    558.1046    964.7131 300.0509894 +22.8291420     662.1379     69.49213      1.102     1.98    -13.26932     19.55609     139.8537         9     0.768     0.642 -56.82   0
        25    452.0625    961.0927 300.0191685 +22.7962695     521.8905     69.42165      1.140     1.89    -13.25989     19.55609     126.7974         9     0.815     0.648 -71.66   0
        26    382.6741    959.3572 299.9981486 +22.7749377     3243.058     69.29813      1.057     1.69    -13.08738     19.55609     660.8286        22     0.929     0.858  67.80   0
        27     96.3449    960.1855 299.9088794 +22.6891728     1126.152     69.29813      9.273     9.14     1.481601     19.55609      37.2942        14     1.658     1.406  58.22   3
        28    107.8129    958.0037 299.9131521 +22.6919932     1032.942      69.1744      8.295     9.05     1.100514     19.55609     41.33971        16     2.112     1.084  78.09   2
        29    414.9071    946.4724 300.0123691 +22.7809222     289.3452     69.43927      1.128     3.02     -13.0902     19.55609     51.94213         5     0.856     0.511 -48.66   0
        30    216.8567   1004.7990 299.9317996 +22.7381596      2287.97     69.24513     12.478    26.21     15.26195     19.55609     55.30711       150     4.697     4.060  31.40  19
        31    928.8959    937.8256 300.1752524 +22.9326848     1014.337     69.28047      1.111     1.66    -13.31173     19.55609     241.1443        12     0.873     0.752  41.77   0
        32     59.0459    977.4506 299.8916737 +22.6829117     2060.773     69.33344     23.331    32.94    -2.437256     19.55609     55.04074       196     6.924     4.351 -87.09  19
        33    731.7491   1007.3239 300.0911854 +22.8934798     385.1543      69.3158      1.135     2.67    -13.65621     19.55609     59.85427         5     0.754     0.488 -47.70   0
        34    579.0363    935.0217 300.0671711 +22.8269096      182.429     69.33344      0.960     1.68    -12.97504     19.55609     51.32498         5     0.575     0.549  -1.59   0
        35    718.0309    926.7853 300.1131342 +22.8662590     330.5894     69.31579      1.485     4.41    -12.96169     19.55609     60.89393        10     1.282     0.758  60.92   0
        36     78.5908    976.2724 299.8981277 +22.6884469       2746.1     69.29813     23.252    47.61     2.141824     19.55609     61.76729       515    10.917     5.761  42.46  19
        37     75.9986    929.0990 299.9126783 +22.6741540     1857.333     69.20978     13.836    22.84    -9.055679     19.55609     49.01162       116     6.595     2.197 -13.98   3
        38    752.5479    920.9242 300.1257946 +22.8749339     539.2813     69.31579      0.891     1.57     -12.9685     19.55609     116.8934         6     0.662     0.498 -88.94   0
        39    774.7544    914.6440 300.1347573 +22.8797943     5545.131      69.3511      0.993     1.56    -12.95347     19.55609     1192.511        24     0.877     0.795 -89.10   0
        40    826.4675    902.2572 300.1549032 +22.8917532     272.3424      69.3511      0.996     2.18    -12.93686     19.55609     46.08646         5     0.675     0.471  69.98   0
        41    783.4176    896.7867 300.1432691 +22.8772692     835.1122      69.2628      1.041     1.45    -12.90836     19.55609     168.2685        13     0.962     0.727  47.78   0
        42    966.4751    895.5868 300.2007196 +22.9318305     313.0606     69.33344      1.018     3.03    -13.12529     19.55609     60.05907         6     0.891     0.430  71.01   0
        43    821.3025    890.1956 300.1572196 +22.8867424     444.7405     69.22746      0.961     2.27    -12.90928     19.55609     86.89936         6     0.737     0.510  43.77   0
        44    869.8499    881.4313 300.1752027 +22.8987887     272.1445      69.3511      0.881     2.21    -12.94747     19.55609     61.89318         5     0.707     0.432 -25.54   0
        45    721.2252    880.3888 300.1292310 +22.8539057     357.9659     69.31579      0.987     2.02    -12.86115     19.55609     75.83911         6     0.650     0.611 -77.60   0
        46    433.7697    876.9875 300.0408534 +22.7666623     2116.597      69.3158      1.089     1.64    -12.54742     19.55609     496.8199        18     0.991     0.793  70.61   0
        47    732.4277    877.5424 300.1336470 +22.8564499     277.0241      69.3158      1.016     3.16    -12.85949     19.55609      53.6207         8     0.874     0.694  43.18   0
        48    159.0712    862.7023 299.9600945 +22.6800831     506.0282     69.43927      1.307     2.35    -11.87279     19.55609     84.67892         7     0.795     0.665  -7.03   0
        49    136.2763    859.9244 299.9539158 +22.6724404     737.8165     69.40401      1.107     1.95    -11.94744     19.55609     149.0757        12     0.857     0.765  74.16   0
        50   1007.8617    848.4802 300.2289581 +22.9307160     1166.356     69.40401      1.092     1.77    -12.82946     19.55609     203.7716        13     0.863     0.813  13.27   0
        51    962.0901    846.9700 300.2151753 +22.9165583     1120.088     69.28047      1.105     1.76    -12.86523     19.55609      255.946        11     0.849     0.699 -35.76   0
        52    745.6609    840.7661 300.1497378 +22.8498667     284.1171     69.33344      0.946     1.96    -12.53885     19.55609     91.06446         6     0.759     0.496 -40.44   0
        53    613.7655    835.0585 300.1105174 +22.8086577     2332.015     69.33344      1.035     1.62    -12.46797     19.55609     552.2058        17     0.819     0.778 -78.75   0
        54    416.0404    832.2234 300.0499047 +22.7485037     289.8673      69.3511      1.215     1.78    -12.36138     19.55609     68.06146         7     0.695     0.590  -6.71   0
        55    163.9980    829.0586 299.9725724 +22.6719204     627.6047      69.2628      1.168     1.83    -11.88652     19.55609     134.5166         9     0.733     0.680  51.14   0
        56    634.2385    827.2589 300.1194299 +22.8125629      370.628     69.33344      0.957     2.22    -12.38414     19.55609     70.11684         8     0.727     0.664 -75.85   0
        57   1006.6937    814.6704 300.2395960 +22.9206576      627.149     69.43927      1.087     1.94    -12.47376     19.55609     128.8164        10     0.941     0.709  63.76   0
        58    789.7873    814.7194 300.1719614 +22.8556276     2075.844     69.29813      0.974     1.60    -12.28462     19.55609     458.3158        14     0.792     0.744  37.46   0
        59    198.0244    808.9635 299.9896843 +22.6763789     139.4214     69.33344      1.141     2.45    -11.86223     19.55609     35.71209         5     0.624     0.574  89.15   0
        60    506.6510    807.5320 300.0861313 +22.7686180     326.8621     69.29813      1.000     2.08    -12.15129     19.55609     67.45871         5     0.684     0.445  70.70   0
        61    153.1966    805.2703 299.9769553 +22.6618584     433.2302      69.2628      1.171     1.89    -11.90708     19.55609      80.4241         8     0.730     0.611 -41.75   0
        62    568.4691    800.6630 300.1076070 +22.7851982     181.5245      69.3511      1.165     3.45    -12.09706     19.55609     37.78156         5     0.756     0.456 -70.40   0
        63    302.9419    797.5159 300.0260227 +22.7045993     26309.82     69.42165      1.070     1.74    -11.91446     19.55609      4829.96        53     1.038     0.965 -84.53   0
        64    560.7787    796.4813 300.1065735 +22.7816909     808.8705     69.28047      0.993     1.66     -12.0551     19.55609     176.2799        11     0.796     0.678  47.14   0
        65    973.8054    795.2184 300.2356684 +22.9052119     607.1341      69.2628      1.130     2.15    -12.50268     19.55609     95.47832         9     0.735     0.705 -26.96   0
        66    231.2340    795.3469 300.0044358 +22.6824476     79.69566     69.33344      0.920     3.11    -11.82863     19.55609     50.28033         5     0.908     0.427  15.23   0
        67    600.5924    790.8621 300.1207960 +22.7920250     250.2037      69.2628      1.032     3.77    -11.98523     19.55609     49.66149         6     0.940     0.449  76.06   0
        68    589.7263    792.5386 300.1168677 +22.7892457     398.6205      69.3511      0.947     1.75    -12.00773     19.55609     79.08998         5     0.640     0.464  24.36   0
        69    352.6156    774.7873 300.0488632 +22.7129940     15372.66      69.2628      1.057     1.76    -11.87289     19.55609     3020.303        40     0.995     0.917  89.73   0
        70    743.7880    777.1317 300.1698590 +22.8310424     476.7316     69.31579      1.019     2.27    -11.99293     19.55609     85.91425         7     0.808     0.516 -45.24   0
        71    366.7860    775.2995 300.0531037 +22.7173945     984.2366     69.22746      1.143     1.86    -11.92002     19.55609      178.636        13     0.849     0.760 -58.31   0
        72    875.6791    770.3738 300.2131578 +22.8686567     1363.264      69.3158      0.969     1.78    -12.40673     19.55609     262.6003        12     0.748     0.665 -57.47   0
        73    363.5699    769.1653 300.0540989 +22.7146699     373.4104     69.33344      1.162     1.84    -11.87862     19.55609      54.0062         5     0.660     0.462 -67.78   0
        74    633.2895    766.4130 300.1389303 +22.7948197     413.4295      69.2628      1.102     2.51    -11.80567     19.55609     69.07446         9     0.845     0.698  49.64   0
        75    235.0675    766.7324 300.0149356 +22.6753952     461.1781     69.36874      1.166     2.11    -11.81528     19.55609     74.50441         8     0.756     0.641  39.19   0
        76    469.4923    766.4791 300.0879236 +22.7456906     277.1376     69.43927      1.347     4.14     -11.7986     19.55609     49.28768         6     1.108     0.594  21.18   0
        77    480.8369    761.3770 300.0931133 +22.7476316     393.3826     69.33344      1.067     2.34      -11.709     19.55609     71.57494         7     0.796     0.575 -80.44   0
        78     39.5671    761.7912 299.9558001 +22.6152702     292.1277     69.31579      1.257     2.64    -12.03051     19.55609     41.26802         5     0.727     0.432  65.42   0
        79    881.8631    757.9679 300.2191212 +22.8669492     259.4496     69.31579      0.990     2.00    -12.27662     19.55609     71.39205         8     0.769     0.628 -47.13   0
        80    382.4995    758.0893 300.0635893 +22.7171753      218.233     69.47451      1.118     4.02    -11.85473     19.55609     37.34613         5     0.874     0.538 -44.36   0
        81    338.6762    757.1732 300.0502578 +22.7037585     233.3553     69.33344      0.904     1.72    -11.79821     19.55609     51.20602         5     0.696     0.413 -66.90   0
        82    859.6691    752.7445 300.2139024 +22.8587946     277.5133     69.33344      1.409     5.17    -12.11389     19.55609     38.96034         7     1.130     0.805 -44.08   0
        83    232.8443    750.7964 300.0194280 +22.6701587     271.9754     69.33344      1.014     2.17    -11.80572     19.55609     57.50701         6     0.721     0.538  44.72   0
        84    525.7338    739.6004 300.1141688 +22.7548566     134.4524     69.28047      0.979     2.47    -11.48994     19.55609     65.15037         6     0.948     0.437 -85.38   0
        85    941.9914    735.6467 300.2451280 +22.8785676     2293.244     69.33344      1.007     1.59    -12.27686     19.55609     523.9381        14     0.815     0.706 -85.43   0
        86    547.3683    736.8018 300.1218129 +22.7605450     603.6772     69.28047      1.068     1.96    -11.44676     19.55609     131.6646         8     0.715     0.652  31.73   0
        87    930.4274    727.0135 300.2443305 +22.8726217     968.7544      69.3158      1.072     1.56    -12.18467     19.55609     192.1502        13     0.987     0.713  85.22   0
        88    293.6457    721.3267 300.0479145 +22.6799617     342.8766      69.3158      1.007     2.37    -11.71802     19.55609     68.93451         6     0.663     0.625  80.03   0
        89    756.5856    718.5243 300.1929101 +22.8180582     1285.142     69.33344      1.029     1.85    -11.74617     19.55609      234.071        14     0.835     0.831 -63.35   0
        90    961.6180    717.0899 300.2572839 +22.8791223      902.736     69.24513      1.159     1.57     -12.1735     19.55609     164.8939        11     0.798     0.693  57.79   0
        91    838.9795    704.3193 300.2232049 +22.8386875     348.7755     69.29813      1.559     2.72     -11.6685     19.55609     59.96901         5     0.945     0.493  75.25   0
        92    141.8878    704.9225 300.0060802 +22.6296974     178.1706     69.45689      1.071     2.09    -11.86925     19.55609     63.95316         6     0.712     0.543  35.94   0
        93    875.1881    695.2812 300.2374302 +22.8469486     72752.54     69.29813      1.034     1.58    -11.75233     19.55609      16848.3        99     1.102     1.021  83.16   0
        94   1022.0043    696.8594 300.2826967 +22.8914124     687.7437     62.12807      1.094     1.83    -12.39696     19.55609     158.3779        11     0.919     0.717  55.01  16
        95    727.5202    695.2938 300.1914105 +22.8026730      437.034     69.43927      1.048     3.37    -11.66447     19.55609     75.10142         7     1.034     0.555  51.96   0
        96    908.0126    687.9432 300.2500494 +22.8546821     289.5924     69.29813      1.197     3.03    -11.75787     19.55609     39.97424         5     0.633     0.589  89.23   0
        97    561.4818    684.2598 300.1432940 +22.7497030     786.3733     69.40401      1.043     1.84      -11.338     19.55609     160.4592        12     0.829     0.732  27.18   0
        98    742.7052    681.5242 300.2006189 +22.8032741     4570.834     69.45689      1.030     1.79    -11.60913     19.55609     843.7014        21     0.885     0.806  69.77   0
        99    244.3122    676.9912 300.0469946 +22.6524387     2414.558     69.24513      1.163     1.98    -11.62922     19.55609     422.6683        20     0.994     0.829  69.95   0
       100    326.4004    674.9542 300.0731793 +22.6764938     548.9713      69.3158      1.089     2.42     -11.5529     19.55609     97.84129         9     0.886     0.609  40.55   0
       101    534.9966    670.3603 300.1395697 +22.7377689     479.0826     69.33344      1.389     3.35    -11.28044     19.55609     65.93353         8     0.899     0.703  25.66   0
       102    526.2891    662.4852 300.1394202 +22.7328968     1571.805     69.45689      1.054     1.91    -11.25929     19.55609     270.8211        14     0.848     0.740  85.84   0
       103    516.5842    656.1493 300.1384598 +22.7281672     680.3224     69.33344      1.075     2.10    -11.24595     19.55609     115.0195        11     0.975     0.633  21.75   0
       104    179.7552    652.4800 300.0348990 +22.6260306     257.6456     69.29813      1.280     2.28    -11.62148     19.55609     46.63736         5     0.690     0.491 -11.21   0
       105    194.0181    651.0078 300.0398103 +22.6298901     191.7837     69.28047      0.997     2.46    -11.58262     19.55609     51.06488         7     0.824     0.537 -44.79   0
       106    220.1596    647.1573 300.0491871 +22.6366332     326.4741     69.40401      1.237     3.88    -11.50146     19.55609     50.01904         7     0.981     0.691 -52.42   0
       107    441.3424    645.8578 300.1183923 +22.7026398     920.1453     69.38638      1.116     2.02    -11.27889     19.55609     161.6457        10     0.777     0.724  67.72   0
       108   1016.8377    643.0606 300.2985802 +22.8744099     304.2095     69.33344      0.876     1.69    -11.71625     19.55609     105.5421         6     0.683     0.503 -59.18   0
       109     95.2985    641.1025 300.0123562 +22.5974124     9435.028     69.50974      1.168     1.96    -11.61053     19.55609     1665.365        35     1.009     0.947 -85.23   0
       110     16.0747    642.6252 299.9872542 +22.5740604     254.4035     69.33344      0.976     2.20    -11.55709     19.55609     68.43542         6     0.852     0.482  74.50   0
       111    526.1609    641.1985 300.1463014 +22.7267500     437.7497     69.33344      1.101     2.15    -11.14357     19.55609     84.50136         8     0.720     0.677 -68.18   0
       112    944.1193    627.2037 300.2810578 +22.8480606     427.0533     69.22746      0.924     1.60      -11.273     19.55609     119.4422         6     0.640     0.529  57.32   0
       113     41.4542    625.0376 300.0008536 +22.5766397     734.6175      69.3158      1.539     4.58    -11.42245     19.55609     87.19767        15     1.337     0.731 -86.73   0
       114    107.4031    625.4617 300.0212013 +22.5965623     191.0592     69.29813      0.939     4.18    -11.49786     19.55609     31.36077         6     1.068     0.467  10.41   0
       115    884.5261    619.8771 300.2648602 +22.8280937     357.7645     69.42165      0.992     2.18     -11.2398     19.55609     66.42971         5     0.702     0.450  66.40   0
       116    446.1305    614.0657 300.1302178 +22.6949546     295.3484     69.36874      1.060     2.31    -11.04769     19.55609     58.02473         8     0.785     0.644 -42.18   0
       117    641.5525    611.2036 300.1919772 +22.7527523     146.1979     69.29813      0.862     2.30    -10.92478     19.55609     42.14982         5     0.692     0.466 -70.05   0
       118    490.6002    609.9960 300.1453783 +22.7071280     435.9443      69.1036      1.198     2.32    -11.00843     19.55609     67.28387         7     0.767     0.593 -71.32   0
       119    924.2585    605.2882 300.2819902 +22.8358129     1544.085     69.38638      1.056     1.64    -11.11135     19.55609     352.4749        15     0.863     0.745  59.42   0
       120    456.0570    605.5452 300.1360762 +22.6954878     823.4686     69.36874      1.168     2.11    -11.00623     19.55609     140.8012        12     0.856     0.767 -87.49   0
       121   1021.8662    603.2346 300.3130973 +22.8644753    -136.5731     62.71624      1.067     1.35     -10.9125     19.55609     96.37656         5     0.646     0.384 -20.10  16
       122     17.9821    599.2458 300.0019477 +22.5621979     2366.516      69.3511      1.193     2.08    -11.24721     19.55609     412.3237        19     0.948     0.845  67.70   0
       123    319.4682    592.3302 300.0978849 +22.6507132     4428.184     69.36874      1.103     1.99    -10.93484     19.55609     673.1526        23     0.923     0.894  86.93   0
       124    441.8922    589.3039 300.1369484 +22.6865778     4458.096     69.49213      1.158     1.87    -10.97384     19.55609     787.6824        24     1.003     0.856  79.95   0
       125    853.5372    583.0910 300.2671595 +22.8082393     911.1323     69.40401      1.033     1.79    -11.11484     19.55609     174.0915        10     0.756     0.696  66.04   0
       126    938.0619    580.3762 300.2943926 +22.8327939     6089.279     69.29813      1.026     1.67    -11.05221     19.55609     1248.347        25     0.919     0.817  77.83   0
       127    502.4460    578.8787 300.1591798 +22.7017515     5564.917     69.31579      1.125     1.98    -10.86333     19.55609     961.4809        25     0.947     0.881  67.80   0
       128    672.0300    574.7048 300.2133333 +22.7514139     276.7692     69.24513      1.137     2.50    -10.82115     19.55609     58.63832         7     0.800     0.674  53.01   0
       129    229.8447    574.4879 300.0758199 +22.6186988     672.1416     69.29813      1.101     1.93    -11.09829     19.55609     122.0651        10     0.818     0.658  82.99   0
       130    434.1247    567.1282 300.1417396 +22.6778842     2167.072     69.38638      1.172     1.98    -10.93207     19.55609     374.8537        20     0.924     0.913  22.96   0
       131    776.8837    567.0530 300.2484843 +22.7806546     451.4367      69.3511      1.104     1.52    -11.04546     19.55609     111.5936         6     0.644     0.483 -66.24   0
       132    412.3043    565.5902 300.1354510 +22.6708966     629.9951     69.24513      1.199     2.74     -10.9308     19.55609     84.26057         9     0.828     0.718   1.26   0
       133    166.8001    565.1227 300.0592694 +22.5970905     370.8515     69.19209      1.280     3.21    -11.22991     19.55609     80.22997         9     1.113     0.651  44.79   0
       134    853.9913    562.3868 300.2740309 +22.8024288     783.0104     69.20978      1.218     3.07    -11.08169     19.55609     101.5302        13     1.050     0.723 -40.10   0
       135    100.2900    562.7629 300.0393708 +22.5764491     217.9729     69.29813      1.206     3.96    -11.27614     19.55609     34.21972         6     0.806     0.556 -41.13   0
       136    734.3774    559.3823 300.2377342 +22.7657084     451.2611     69.29813      1.030     2.09    -11.00972     19.55609     85.31248         8     0.782     0.620 -84.42   0
       137    550.7477    554.6082 300.1821022 +22.7092732     99977.57      69.3158      1.154     1.93     -10.4595     19.55609     17821.82       126     1.232     1.174 -34.01   0
       138    236.8399    554.5932 300.0844602 +22.6150917     1696.138      69.3511      1.112     1.87    -10.99385     19.55609     326.8237        16     0.888     0.804  53.04   0
       139    802.7802    550.4803 300.2619404 +22.7836584     282.3296     69.29813      1.195     1.88    -11.01332     19.55609     54.99802         5     0.668     0.469  21.20   0
       140    441.4868    534.8654 300.1545155 +22.6708342      1408.86     69.40401      1.282     2.36    -10.82817     19.55609     189.2625        17     1.017     0.929  -9.42   0
       141    838.3959    520.9110 300.2826501 +22.7858411       882.05     69.22746      1.130     2.03    -11.04689     19.55609     159.1779        10     0.772     0.707  22.25   0
       142    709.5374    518.6865 300.2432222 +22.7465751      1179.57     69.42165      1.063     2.00    -10.77097     19.55609     209.1733        12     0.857     0.709  38.92   0
       143    918.8541    514.9743 300.3096607 +22.8082489     131.4112     69.33344      1.118     3.17    -11.04002     19.55609     39.51991         6     0.908     0.446  53.94   0
       144    614.5134    515.2137 300.2147568 +22.7170869     208.8048      69.2628      1.245     3.44    -10.33307     19.55609     37.45782         5     0.763     0.449 -69.23   0
       145    496.9901    514.7151 300.1783348 +22.6816993     312.2751      69.2628      1.207     2.00    -10.51612     19.55609     65.16234         7     0.702     0.612 -11.89   0
       146    966.7442    512.2459 300.3254803 +22.8218155     611.8022      69.3511      1.027     1.77    -10.99808     19.55609     133.2183         9     0.839     0.578  35.74   0
       147    838.6403    511.4769 300.2857921 +22.7832045     1023.284     69.29813      1.042     1.84    -11.04999     19.55609     182.6022        12     0.875     0.653  77.49   2
       148    876.6247    506.1039 300.2993780 +22.7930451     2162.854     69.24513      1.109     1.84    -11.06117     19.55609     417.5569        16     0.869     0.826  39.98   0
       149    968.5162    496.4852 300.3311546 +22.8178179     321.8597     69.42165      0.954     2.98    -11.00181     19.55609     70.05439         6     0.885     0.488  34.52   0
       150    108.7057    496.8179 300.0634140 +22.5600639     492.1283     69.24513      1.242     2.72    -11.23194     19.55609     75.97821        10     0.864     0.763  61.00   0
       151    650.1434    476.8544 300.2383162 +22.7167560     249.4848     69.36874      1.130     2.18    -10.32494     19.55609     63.53914         8     0.782     0.628  51.00   0
       152    710.7756    468.8470 300.2598025 +22.7326335     443.1492     69.33344      1.230     2.79    -10.64647     19.55609     86.24794         7     0.877     0.541   7.13   0
       153    868.1711    465.0622 300.3100786 +22.7787211      539.439     69.31579      1.062     2.11    -11.06433     19.55609     104.7305         9     0.818     0.629  72.09   0
       154    596.6852    459.5144 300.2273038 +22.6957489     1517.902     69.43927      1.110     2.06    -10.24778     19.55609     259.6875        15     0.874     0.814 -52.50   0
       155   1007.9400    438.2986 300.3623559 +22.8129081     616.4136     69.38638      1.083     2.03    -10.96297     19.55609     118.3813         9     0.841     0.597 -19.30   0
       156    879.7307    437.8541 300.3225216 +22.7743679     237.5272      69.3511      1.232     4.09    -11.04989     19.55609     41.50057         6     0.920     0.586  30.32   0
       157    966.4836    436.9517 300.3498639 +22.8001015     483.0572     69.29813      1.056     2.37    -10.98247     19.55609     81.03315         8     0.797     0.628 -51.69   0
       158    707.2495    433.3141 300.2702480 +22.7213712     553.9433     69.29813      1.097     2.49    -10.50368     19.55609     85.76788         7     0.761     0.609  74.56   0
       159    503.0497    434.1663 300.2063908 +22.6603942     224.9626      69.3511      1.025     3.09    -10.23165     19.55609      40.0514         5     0.785     0.502 -54.46   0
       160    211.4195    431.8457 300.1164400 +22.5722506     334.0663      69.3511      1.215     2.35    -10.73789     19.55609     51.18672         6     0.737     0.491  84.58   0
       161    273.7443    427.4088 300.1372561 +22.5896766     1772.167      69.3158      1.137     2.01    -10.55574     19.55609     296.3256        17     0.907     0.852  79.34   0
       162   1006.6325    425.6655 300.3660521 +22.8088856     2166.706      69.3158      1.048     1.82    -10.96673     19.55609     402.1257        16     0.851     0.779 -78.88   0
       163    220.8681    422.2767 300.1224851 +22.5723401     3716.188     69.40401      1.205     2.01     -10.6108     19.55609     615.7808        24     0.989     0.926 -80.49   0
       164    361.7020    416.4378 300.1681722 +22.6129135     2341.974      69.3158      1.151     2.07     -10.2279     19.55609     384.6718        20     0.994     0.873  67.58   0
       165    986.5708    416.6342 300.3627288 +22.8002802     850.5919     69.33344      0.998     1.68    -10.96919     19.55609     165.0363        11     0.758     0.685 -88.39   0
       166    605.8307    413.0438 300.2452474 +22.6851469     9222.266      69.3511      1.218     1.94    -10.26408     19.55609     1662.687        36     1.025     1.003  81.07   0
       167    718.6957    406.9320 300.2823835 +22.7172244     7958.153     69.43927      1.311     4.55    -10.42471     19.55609      1324.24        12     1.323     0.444  30.34   0
       168    802.6509    403.1686 300.3097644 +22.7413046     242.8333      69.3511      1.114     3.09    -10.88144     19.55609     37.30486         5     0.748     0.436 -71.58   0
       169    939.5067    395.7477 300.3548364 +22.7801782     352.7917     69.36874      1.046     2.28    -10.85026     19.55609     68.45353         6     0.672     0.609  10.21   0
       170    160.5471    393.3229 300.1131412 +22.5459341     955.3937      69.3511      1.078     2.04      -10.824     19.55609     161.8576        13     0.839     0.754 -58.72   0
       171    960.0789    382.6400 300.3655089 +22.7825740     584.1635     69.29813      1.108     2.75    -10.76623     19.55609     107.4786        10     0.940     0.713 -54.23   0
       172    546.4016    382.5251 300.2366579 +22.6585659     3245.022     69.22746      1.150     2.10    -10.18774     19.55609     430.1025        26     1.018     0.970 -69.61   0
       173    261.5532    382.1198 300.1481752 +22.5730232     310.6291     69.33344      1.246     2.85    -10.31487     19.55609     51.58844         7     0.793     0.627 -22.04   0
       174    119.3141    375.1286 300.1062374 +22.5283420     216.8508     69.42165      1.272     2.16    -10.61781     19.55609      45.4612         5     0.728     0.421  70.75   0
       175    750.7325    371.4074 300.3039025 +22.7166211     527.9891      69.3158      1.150     2.26    -10.31429     19.55609     96.05376         9     0.811     0.693  86.45   0
       176    453.1009    368.8079 300.2120754 +22.6266521     2865.337     69.19209      1.220     2.12    -9.694761     19.55609     487.2081        22     0.976     0.897  82.13   0
       177    942.0651    363.0496 300.3662542 +22.7715472     336.1295     69.33344      1.251     1.89    -10.66172     19.55609     64.22647         5     0.596     0.553 -86.21   0
       178    844.7957    362.9171 300.3359727 +22.7423680     828.6344     69.24513      1.306     2.14    -10.64345     19.55609     129.0167        12     0.938     0.764  -0.44   0
       179    817.9096    350.5741 300.3316014 +22.7307655     407.2392     69.24513      1.327     2.37    -10.49234     19.55609      54.2298         6     0.763     0.492  -4.51   0
       180    340.7023    348.0012 300.1838666 +22.5869719     1212.427     69.22746      1.191     2.07    -9.616282     19.55609     218.7501        15     0.954     0.809 -87.10   0
       181     59.1416    345.4630 300.0971768 +22.5017755     377.3556     69.36874      1.144     2.25    -10.19503     19.55609      80.7579         8     0.764     0.643  87.30   0
       182    310.0377    337.5137 300.1777356 +22.5747646     14524.63     69.29813      1.232     2.13     -9.80681     19.55609      2297.02        47     1.101     1.046 -78.93   0
       183    844.5612    334.6997 300.3450630 +22.7341893      742.064     69.33344      1.238     1.99    -10.43986     19.55609     118.5212        14     0.869     0.840  -7.55   0
       184      6.3502    325.4780 300.0872690 +22.4802005     2404.876      69.3158      1.175     2.17    -10.00634     19.55609     339.0424        20     1.020     0.895  53.29  16
       185    184.3301    324.1771 300.1429855 +22.5332296     230.4074     69.33344      1.139     3.11    -10.09561     19.55609     46.71204         5     0.927     0.375  -4.68   0
       186    720.1888    317.0890 300.3120258 +22.6918625     919.3765      69.2628      1.212     2.54    -10.07354     19.55609      136.852         9     0.784     0.714  37.03   0
       187    382.3387    301.9459 300.2117706 +22.5862372     1115.041     69.36874      1.381     2.65     -9.32548     19.55609     150.9453        15     1.061     0.808  59.60   0
       188    821.3562    294.2595 300.3509613 +22.7156157     289.3293     69.33344      1.151     3.43    -10.14002     19.55609     47.18732         5     0.749     0.454  75.18   0
       189    457.8461    281.0377 300.2420502 +22.6028735     588.3503      69.3511      1.242     3.32    -9.206127     19.55609     88.50972        11     1.036     0.779 -22.86   0
       190    702.7896    273.0217 300.3209127 +22.6739877     1037.905     69.29813      1.228     2.05    -10.01486     19.55609     187.9863        16     0.981     0.808  65.14   0
       191    964.0821    267.2372 300.4042307 +22.7506008     1568.819     69.28047      1.118     1.84    -10.08205     19.55609       307.19        18     0.921     0.835  68.98   0
       192    411.3502    257.0911 300.2353569 +22.5820572     356.1532     69.31579      1.305     2.82    -9.228703     19.55609     51.29578         7     0.860     0.576  14.86   0
       193     86.0877    251.1197 300.1361745 +22.4827930     691.8537     69.43927      1.615     3.95     -9.75921     19.55609     69.23134        18     1.297     1.012 -39.21   0
       194    116.8761    250.8528 300.1458267 +22.4919528     248.2426     69.33344      0.951     2.21    -9.737194     19.55609     59.66794         6     0.717     0.549  38.45   0
       195    979.7787    247.4850 300.4155380 +22.7496229     186.0029      69.2628      1.027     2.42    -9.973941     19.55609     52.92775         6     0.696     0.621  89.49   0
       196    774.2704    234.4321 300.3557094 +22.6843159     388.7548      69.3158      1.133     3.08     -10.0646     19.55609     57.68461         5     0.732     0.439  23.04   0
       197    872.5261    223.2886 300.3899497 +22.7105455     1032.676     69.47451      1.136     2.07    -10.10345     19.55609     157.4509        12     0.930     0.718 -41.64   0
       198    291.2047    220.7781 300.2097741 +22.5356064     1028.384     69.28047      1.209     2.48    -9.458996     19.55609     153.7033        14     0.984     0.784  84.15   0
       199    369.1089    215.6752 300.2356586 +22.5575002     359.7135     69.47451      1.168     3.02    -9.278483     19.55609     74.61631        10     0.965     0.708 -52.72   0
       200    186.1310    208.2656 300.1811697 +22.5005036     372.7275     69.36874      1.270     2.74    -9.555837     19.55609      58.7434         7     0.843     0.571 -38.00   0
       201    723.7209    204.8001 300.3495772 +22.6606560     867.9393     69.19209      1.164     2.38    -9.960924     19.55609     152.1997        11     0.879     0.745  44.70   0
       202    995.1987    197.1823 300.4366745 +22.7397768     361.7578     69.22746      1.077     2.38    -9.650599     19.55609     94.82482         9     0.834     0.676  80.64   0
       203    727.6897    196.2738 300.3535807 +22.6593947     254.7591     69.47451      1.134     3.33    -9.954733     19.55609      61.0727         7     0.953     0.734  64.68   0
       204    648.1603    195.5333 300.3290486 +22.6353539     625.1697     69.28047      1.228     2.42    -9.724996     19.55609     94.56492        11     0.946     0.698  70.70   0
       205    574.4571    187.3353 300.3087590 +22.6109128     429.5235     69.36874      1.084     2.38    -9.288397     19.55609     62.96503         8     0.833     0.603  72.69   0
       206    843.6661    186.9497 300.3927473 +22.6914556     522.5485     69.29813      0.998     1.75    -10.04401     19.55609     130.1552         9     0.745     0.662 -17.82   0
       207    855.7428    185.9547 300.3968346 +22.6947866      427.225     69.33344      1.201     2.23    -10.02868     19.55609     75.65202         7     0.805     0.551 -55.14   0
       208   1016.5694    176.8432 300.4499411 +22.7403267     848.6532      69.3511      1.148     1.75    -9.405584     19.55609     157.3636        14     0.892     0.807 -35.44   0
       209    972.3432    176.2841 300.4363282 +22.7269240     565.1367     69.40401      1.068     1.95    -9.660944     19.55609     108.4305        10     0.785     0.687 -52.57   0
       210    206.7624    169.4279 300.2001849 +22.4955425      387.799     69.33344      1.269     3.58     -9.50799     19.55609      55.6393         8     1.013     0.598  88.16   0
       211     68.4285    164.5099 300.1587943 +22.4526414     1052.581     69.29813      1.085     2.17    -9.631159     19.55609       152.18        13     0.868     0.786 -55.06   0
       212    891.4588    161.2531 300.4159845 +22.6983816     346.9891     69.36874      1.104     2.62    -9.916059     19.55609     57.82342         8     0.887     0.589 -21.34   0
       213     17.7826    161.6458 300.1439921 +22.4366270      199.441     69.33344      1.217     3.24    -9.625372     19.55609       35.106         5     0.731     0.455  14.82   0
       214    225.7841    157.7772 300.2098780 +22.4979019     2707.913     69.31579      1.223     2.24    -9.447373     19.55609     455.5094        19     0.974     0.870 -82.16   0
       215     10.0656    152.3411 300.1446142 +22.4316420     557.5994      69.3511      1.157     2.18    -9.618609     19.55609     108.2787        11     0.893     0.712  80.63   0
       216    209.1498    148.6842 300.2076574 +22.4903033     267.2078     69.29813      1.105     2.88    -9.437458     19.55609     54.27132         7     0.966     0.508  65.48   0
       217   1023.7939    144.9951 300.4625292 +22.7333303     4135.326     53.14653      0.822     1.79    -9.161857     19.55609     1440.804        11     0.912     0.423  89.93  24
       218    869.7704    139.0893 300.4164147 +22.6855143     1671.121     69.28047      1.135     2.03    -9.691638     19.55609     300.9128        15     0.904     0.772 -86.31   0
       219    973.4515    137.8511 300.4491449 +22.7162039     1264.998      69.3511      1.097     1.95    -9.385571     19.55609     227.7187        15     0.866     0.809  81.13   0
       220    419.3925    134.1567 300.2777529 +22.5491629     166.7185     69.33344      1.093     4.30    -9.243997     19.55609     45.11882         6     0.954     0.584 -18.56   0
       221    343.3734    127.0984 300.2563950 +22.5243485     313.2895      69.2628      1.219     4.18    -9.248716     19.55609     37.78785         5     1.115     0.448  32.27   0
       222    470.5319    121.6851 300.2977116 +22.5609078     914.8089     69.40401      1.418     2.74    -9.114841     19.55609     126.8895        16     1.064     0.842  58.07   0
       223    109.3788    123.1641 300.1849303 +22.4530571     233.8127     69.33344      1.193     3.24    -9.588646     19.55609     42.26047         7     0.848     0.606 -57.28   0
       224    244.7540    101.6161 300.2339948 +22.4874652     2965.266     69.33344      1.247     2.21    -9.082117     19.55609     464.5922        27     1.068     0.981  85.49   0
       225     95.8863    101.0368 300.1879159 +22.4426591      317.355     69.29813      1.233     2.32    -9.586617     19.55609      62.3528         9     0.769     0.728   0.82   0
       226    490.7492     86.9211 300.3152807 +22.5569793     3020.694      69.3158      1.270     2.14    -9.018342     19.55609     499.1841        21     1.004     0.924  63.62   0
       227    376.2546     86.4723 300.2798013 +22.5225366      318.112      69.3158      1.483     3.44    -9.147554     19.55609     42.62491         7     0.928     0.537  60.40   0
       228    743.3442     76.2943 300.3973851 +22.6295986     485.2704     69.36874      1.359     3.56    -8.805812     19.55609     51.80159         6     0.726     0.628   0.33   0
       229    836.0042     75.2545 300.4265982 +22.6570491     213.2446     69.29813      1.349     3.76    -8.886741     19.55609     30.18845         5     0.811     0.501 -55.07   0
       230    619.0625     66.9378 300.3617081 +22.5896821     2976.095      69.3511      1.276     2.32    -8.844842     19.55609     456.1946        25     1.071     0.925  88.43   0
       231    393.9043     66.0749 300.2919078 +22.5219675     713.8947     69.45689      1.269     2.58    -9.071164     19.55609     108.4327        11     0.839     0.823  40.50   0
       232    660.3405     64.4315 300.3753762 +22.6013270     402.0872      69.3511      1.107     2.15    -8.774245     19.55609     70.41779         6     0.758     0.487 -44.50   0
       233    676.3077     60.0936 300.3817564 +22.6048629     249.0125     69.47451      1.281     4.37    -8.740314     19.55609     33.73827         6     0.883     0.616  53.65   0
       234    143.0029     57.9755 300.2165226 +22.4444265      323.739      69.2628      1.070     2.53    -9.268255     19.55609     54.84367         5     0.775     0.479  62.01   0
       235    807.8753     57.8091 300.4234896 +22.6436099      750.775     69.29813      0.550     1.01    -8.702425     19.55609     439.1736         5     0.445     0.361  36.55   0
       236    663.2248     51.7999 300.3803715 +22.5985602     1398.061     69.24513      1.262     2.33    -8.716468     19.55609     202.7332        17     1.013     0.839  83.36   0
       237    678.2014     50.2062 300.3855531 +22.6025881     392.1551     69.13901      1.537     3.00    -8.698047     19.55609     60.11402         7     0.855     0.749 -14.58   0
       238    749.8003     43.2484 300.4101149 +22.6220320     622.1697      69.3158      1.139     2.06    -8.656606     19.55609     117.4098         8     0.756     0.616  59.84   0
       239    687.7164     36.7375 300.3928851 +22.6015664     300.4041     69.40401      1.108     2.48    -8.643101     19.55609     57.13047         6     0.731     0.528  37.90   0
       240    493.2033     35.8051 300.3326231 +22.5430279     554.5339     69.13901      1.448     3.41    -9.014383     19.55609     64.89308         9     0.938     0.652  67.95   0
       241    397.2408     34.3324 300.3032403 +22.5138489     385.0573     69.29813      1.169     3.03    -8.948938     19.55609     55.96154         7     0.821     0.596  73.95   0
       242    168.5795     24.2773 300.2353991 +22.4424197     1888.221      69.3158      1.279     2.31    -8.928276     19.55609       255.91        20     1.050     0.879 -88.34   0
       243    736.3016     24.5352 300.4119780 +22.6126095      293.223     69.40401      1.304     3.13    -8.592381     19.55609     44.78539         7     0.850     0.636  66.45   0
       244    729.8057     16.4666 300.4125707 +22.6083444     413.9965     69.31579      1.286     2.77    -8.554341     19.55609     67.36533         9     0.938     0.646  30.60   0
       245    284.4163     16.2107 300.2740253 +22.4748284     501.4579      69.2628      1.265     2.71    -8.889815     19.55609     86.04666        11     0.878     0.817  53.51   0
       246    631.3535   1006.9013 300.0600565 +22.8632274     4089.938      69.3511      1.081     1.73    -13.63709     19.55609     792.0032        21     0.892     0.822 -79.92   2
       247    226.9154   1020.8246 299.9297077 +22.7457731     446.8218     66.52291      1.540     3.93     19.76449     19.55609     47.19812         6     0.746     0.594  40.25  16
       248    483.5401   1020.5406 300.0096064 +22.8227640     284.0898     67.45463      1.378     3.68     -13.8981     19.55609     39.36034         6     0.986     0.396  19.61  16
       249     77.4168    941.3735 299.9091235 +22.6780966     1932.298     69.33344     22.983    45.26    -6.263928     19.55609     55.16415       310    10.253     5.545  -3.88   3
       250    352.4578   1018.6095 299.9694594 +22.7828474     381.8975     69.28047      1.714     4.66    -13.82419     19.55609     48.58081         6     1.275     0.484  -3.00  16
