#   1 NUMBER                 Running object number                                     
#   2 X_IMAGE                Object position along x                                    [pixel]
#   3 Y_IMAGE                Object position along y                                    [pixel]
#   4 ALPHA_J2000            Right ascension of barycenter (J2000)                      [deg]
#   5 DELTA_J2000            Declination of barycenter (J2000)                          [deg]
#   6 FLUX_APER              Flux vector within fixed circular aperture(s)              [count]
#   7 FLUXERR_APER           RMS error vector for aperture flux(es)                     [count]
#   8 FLUX_RADIUS            Fraction-of-light radii                                    [pixel]
#   9 FWHM_IMAGE             FWHM assuming a gaussian core                              [pixel]
#  10 BACKGROUND             Background at centroid position                            [count]
#  11 THRESHOLD              Detection threshold above background                       [count]
#  12 FLUX_MAX               Peak flux above background                                 [count]
#  13 ISOAREA_IMAGE          Isophotal area above Analysis threshold                    [pixel**2]
#  14 A_IMAGE                Profile RMS along major axis                               [pixel]
#  15 B_IMAGE                Profile RMS along minor axis                               [pixel]
#  16 THETA_IMAGE            Position angle (CCW/x)                                     [deg]
#  17 FLAGS                  Extraction flags                                          
         1    773.5452     12.3883 300.4226660 +22.6277094     130.4534     69.40489      1.124     3.36    -7.643519     19.58123     37.23888         5     1.051     0.312  67.25   0
         2    163.0256      3.9628 300.2353935 +22.4424124     1884.217     65.92334      1.355     2.54     -7.81761     19.58123     248.5322        22     1.131     0.921 -86.19  24
         3    731.2587      4.5608 300.4120279 +22.6127992     348.0627     67.74086      1.208     2.75     -7.60116     19.58123     47.47783         7     0.897     0.487   7.16  16
         4    163.8238    994.4628 299.9137988 +22.7267910     1445.898     69.38721      7.694    12.40     22.25579     19.58123     44.99646        21     2.125     2.013  87.46   2
         5     78.4510   1011.0026 299.8818896 +22.7058861     2726.569     69.40489     17.517    70.69     19.84163     19.58123     94.82993      1267    14.184     9.774  35.43  27
         6     69.4683    952.0850 299.8982814 +22.6863085     2411.294     69.49323     28.401    85.98   -0.1527821     19.58123     66.66212      1690    17.453    11.753 -77.82  19
         7    139.1924    957.2621 299.9182567 +22.7087337     895.6238     69.35184      6.355     9.40     7.466722     19.58123     50.36044        13     1.840     1.341   4.71   0
         8    121.7348    956.2200 299.9131719 +22.7031919     850.3489     69.38721      3.335     3.57     7.048925     19.58123     27.41408         5     0.815     0.451 -70.66   3
         9    726.2043    987.5234 300.0910304 +22.8936129      206.068     69.31644      1.041     2.89    -12.05883     19.58123     39.93492         7     0.827     0.600 -80.04   0
        10    644.0864    953.8218 300.0764274 +22.8593080     3280.543     69.33414      1.283     2.17    -12.25257     19.58123     466.1404        27     1.105     1.013  -0.29   0
        11    539.3788    991.5639 300.0315399 +22.8387132     1258.909     69.42256      1.319     2.40    -12.57605     19.58123     137.8834        14     0.947     0.826 -50.13   0
        12    221.5409    967.5566 299.9404964 +22.7364142     1876.055     69.38721      6.508    11.39     8.760149     19.58123     52.65626        46     2.444     1.816   0.90   3
        13    122.7741    953.2398 299.9144650 +22.7026501     700.8365     69.44024      4.238     3.91     5.841552     19.58123     31.43547         5     1.260     0.348  11.81   0
        14    625.8876    986.6579 300.0600691 +22.8632665     4097.718     69.47556      1.273     2.09    -12.12026     19.58123     617.6106        28     1.044     0.985 -66.07   3
        15    235.3217    947.7299 299.9512346 +22.7348699     16.50378     69.51088      1.070     2.10    -2.158085     19.58123     47.90396         5     0.695     0.446 -74.87   0
        16    523.8086    948.6786 300.0406569 +22.8217416     304.4026     69.36952      1.635     3.81    -12.52121     19.58123     35.68992         5     0.895     0.465  48.11   0
        17    552.6669    944.6612 300.0509472 +22.8292495     719.7781     69.44024      1.225     2.17    -12.49004     19.58123     107.0903        15     0.927     0.897 -71.34   0
        18    631.4928    984.4656 300.0625283 +22.8643196     4415.812     69.51088      1.221     2.13    -12.12938     19.58123     564.6201        30     1.085     1.009 -77.22   3
        19    377.1673    939.0057 299.9981802 +22.7749549     3211.454     69.40489      1.278     2.07    -12.10436     19.58123     504.9931        27     1.080     0.982  86.70   0
        20    160.7443    978.3531 299.9180869 +22.7212501     1147.437     69.44024      5.567    10.05     15.92454     19.58123     39.58371        22     2.137     1.318  34.06   2
        21    446.4474    941.1545 300.0190327 +22.7963662     598.5612     69.42256      1.379     3.07    -12.41486     19.58123     67.56068        10     0.894     0.743 -40.98   0
        22    490.6069    975.7594 300.0215071 +22.8195433     249.0365     69.44024      1.443     3.47    -12.85298     19.58123     27.76326         5     0.743     0.467  75.76   0
        23     69.2088    911.1641 299.9115208 +22.6745058     1844.528     69.40489     17.082    30.08    -7.435919     19.58123     52.84197       172     7.907     3.177 -27.17   3
        24    232.4234    975.4210 299.9413185 +22.7419360     3953.565     69.40489      7.553    28.73     9.146555     19.58123     93.62323       317     7.813     3.629  65.82   2
        25    409.5915    926.1870 300.0124390 +22.7810122     179.2212     69.29874      0.995     1.99    -12.18009     19.58123     52.18796         5     0.699     0.428 -64.04   0
        26    221.7355   1000.2974 299.9298968 +22.7458555     297.1748     69.51088      1.263     3.31     23.03815     19.58123      50.5706         8     0.890     0.647  86.33   0
        27    923.4107    917.6475 300.1752407 +22.9327057     946.9189     69.42256      1.186     2.47    -12.41924     19.58123      144.592        17     0.984     0.897 -86.74   0
        28    918.8108    970.1890 300.1566999 +22.9464082     403.9488     69.29874      1.376     3.86    -12.74448     19.58123     53.39133         9     0.914     0.837  74.10   0
        29    158.4100    999.0965 299.9106077 +22.7264928     935.9926     69.33414      2.221     3.76     24.36338     19.58123     42.28345         5     1.428     0.284  59.55   2
        30    190.9362    986.4692 299.9248269 +22.7326432     2051.888      69.4579      7.716    14.70     17.98459     19.58123     82.35833        52     2.705     2.222 -59.14   2
        31    712.3353    906.2617 300.1131668 +22.8661371     400.6484     69.44024      1.605     3.45    -12.11645     19.58123     43.02256         5     0.784     0.439  74.52   0
        32    203.6454    993.0179 299.9266445 +22.7383367     1307.196     69.42256      7.485     7.66     20.51596     19.58123     51.06314        27     1.626     1.584 -75.62   3
        33    747.0648    900.6879 300.1258002 +22.8749546     419.0483     69.49323      1.191     3.08    -12.00407     19.58123      75.9134         9     0.987     0.682 -26.64   0
        34    769.2544    894.4613 300.1347405 +22.8798230     5546.972      69.4579      1.181     2.01    -12.09001     19.58123     818.0425        32     1.069     1.009  76.81   0
        35    814.7780    894.4474 300.1489306 +22.8934716     226.5383     69.42256      1.226     2.68    -12.20942     19.58123     43.17882         5     0.705     0.477 -15.57   0
        36    211.5331    984.0339 299.9320212 +22.7381310         2324     69.40489     12.030    25.90     16.29855     19.58123     67.09571       188     5.447     4.314 -57.03   3
        37    820.9584    882.0308 300.1548983 +22.8917612     259.1725     69.44024      1.074     2.26    -12.19256     19.58123     44.35489         5     0.618     0.569  88.74   0
        38    777.7674    876.7903 300.1431448 +22.8773047     604.4468     69.40489      1.111     2.20    -12.12444     19.58123     102.7455         9     0.838     0.641 -75.72   0
        39    816.0848    870.1649 300.1572416 +22.8868939     412.5853     69.36952      1.061     2.48    -12.21009     19.58123     64.01634         7     0.689     0.661  23.12   0
        40    864.3696    861.1168 300.1752358 +22.8987751     245.4499     69.42256      0.986     1.76    -11.98516     19.58123     63.08854         5     0.676     0.435  66.23   0
        41    715.5728    860.1454 300.1291856 +22.8538748     307.9327     69.40489      1.258     2.38     -11.9567     19.58123     49.75694         6     0.747     0.494  88.08   0
        42    428.3596    856.7651 300.0408731 +22.7667371     1933.105     69.44024      1.167     1.98     -11.7582     19.58123     324.8172        18     0.932     0.850 -80.68   0
        43    727.2078    857.3292 300.1337266 +22.8565562     164.2346     69.38721      1.215     1.97    -11.87596     19.58123     52.09768         5     0.723     0.410  22.63   0
        44    153.3337    842.3293 299.9600579 +22.6800417     390.8719     69.44024      1.383     3.65    -10.44884     19.58123     52.20954         9     0.990     0.807  77.07   0
        45    130.7684    839.6306 299.9539245 +22.6724927     702.8368     69.40489      1.253     2.47    -10.50991     19.58123     96.18932        12     0.923     0.771  80.27   0
        46   1002.3737    828.4257 300.2289056 +22.9307601     1076.423     69.36952      1.219     2.22    -11.97445     19.58123     168.6984        15     0.932     0.810 -68.77   0
        47    956.7343    826.7728 300.2152099 +22.9166054     1075.642     69.38721      1.156     2.06    -11.96318     19.58123     172.6701        14     1.005     0.755   6.75   0
        48    433.3975    826.2303 300.0523768 +22.7594913     195.7857     69.36952      1.108     4.23    -11.67634     19.58123     33.43657         5     0.939     0.543 -37.70   0
        49    739.9345    820.5971 300.1496450 +22.8498309     297.7065     69.42256      1.099     2.77    -11.72857     19.58123     57.32597         6     0.753     0.648  30.54   0
        50    608.2181    814.8164 300.1105026 +22.8086667      2279.81     69.38721      1.194     1.92    -11.68273     19.58123     391.1448        21     0.968     0.916 -14.48   0
        51    410.4454    811.9251 300.0498909 +22.7485008     278.3476     69.38721      1.274     3.48    -11.60868     19.58123     44.91091         6     0.799     0.496  87.30   0
        52    158.4389    808.7098 299.9725831 +22.6719375     654.3926     69.38721      1.394     3.37    -11.02483     19.58123     88.03856        14     1.065     0.847  36.24   0
        53    628.7879    807.2260 300.1193773 +22.8126587     307.5555     69.40489      1.027     1.90    -11.68416     19.58123     75.35319         6     0.673     0.577  76.62   0
        54   1001.2227    794.4427 300.2396048 +22.9206558     491.1903      69.4579      1.095     2.35    -11.66959     19.58123     81.09624         9     0.787     0.719  81.43   0
        55    784.3198    794.4997 300.1719661 +22.8556496     1995.001     69.52853      1.102     1.95     -11.6979     19.58123     320.5625        16     0.894     0.782  46.67   0
        56    501.0478    786.8253 300.0862487 +22.7684859     308.2241     69.40489      1.292     3.34    -11.53168     19.58123     39.12683         5     0.788     0.505  58.21   0
        57    147.6461    785.1046 299.9769089 +22.6619305     445.0126     69.42256      1.204     3.17    -11.19915     19.58123      60.5817         7     0.722     0.673 -82.60   0
        58    562.8586    780.4048 300.1075769 +22.7851865     294.4431     69.36952      1.178     2.39    -11.45134     19.58123      59.4221         7     0.928     0.543  78.39   0
        59    297.3573    777.2003 300.0260161 +22.7046037      26002.6     69.40489      1.252     2.07    -11.16209     19.58123       3872.7        62     1.158     1.126  80.75   0
        60    555.1973    776.1045 300.1065910 +22.7816544     879.1481     69.31644      1.260     2.25    -11.40792     19.58123     128.0091        10     0.822     0.707   6.73   0
        61    968.2242    775.3335 300.2355308 +22.9052777     302.1734     69.38721      0.938     2.06    -11.63004     19.58123     76.88577         6     0.705     0.524  50.91   0
        62    225.7705    774.9664 300.0044871 +22.6824765     174.2004     69.42256      1.206     3.13    -11.15657     19.58123     37.50665         5     0.786     0.496 -34.09   0
        63    583.9678    772.0325 300.1168723 +22.7891161     386.8246      69.4579      1.163     2.39    -11.34391     19.58123     74.58208         9     0.770     0.749  23.86   0
        64    595.2083    770.2326 300.1209575 +22.7919711     293.3683     69.40489      1.390     2.64    -11.31521     19.58123     60.82174         6     0.731     0.590  86.95   0
        65    700.6792    766.5146 300.1550129 +22.8225361     144.5179     69.54617      1.058     3.46    -11.41916     19.58123     41.63587         5     0.749     0.463  18.73   0
        66    738.1208    756.9775 300.1697793 +22.8310259     283.3127     69.35183      1.042     2.38     -11.5654     19.58123     71.85188         6     0.726     0.529 -66.35   0
        67    347.0670    754.4411 300.0488782 +22.7129948     15310.83     69.38721      1.230     2.00    -11.22497     19.58123     2340.746        49     1.141     1.066  87.65   0
        68    361.3730    754.9793 300.0531526 +22.7174421     938.4734     69.40489      1.184     2.24    -11.23636     19.58123      152.273        12     0.864     0.744 -75.38   0
        69    870.1572    750.1442 300.2131493 +22.8686494     1362.424     69.40489      1.195     1.93    -11.51556     19.58123     253.8703        17     0.948     0.906 -75.18   0
        70    628.1834    746.4227 300.1389707 +22.7950284     397.1884     69.38721      1.113     2.22    -11.04373     19.58123     82.10156         9     0.782     0.722 -26.88   0
        71    229.4794    746.3790 300.0149392 +22.6753928     362.6356     69.40489      1.225     3.32    -11.15277     19.58123     55.65189         6     0.892     0.432  71.27   0
        72    475.1458    741.1882 300.0930342 +22.7476221      464.899     69.40489      1.257     2.29    -11.08776     19.58123     78.43848         8     0.806     0.629  89.80   0
        73     34.2609    741.5759 299.9558439 +22.6154103     318.4055     69.40489      1.116     3.33    -11.48659     19.58123     37.21422         5     0.752     0.428 -23.56   0
        74    226.9639    730.2465 300.0194044 +22.6700118      230.064     69.44024      1.137     3.00    -11.08551     19.58123     43.73693         7     0.710     0.691 -26.90   0
        75    520.1111    719.1135 300.1142083 +22.7547769     348.8278     69.56381      1.263     2.69    -10.92078     19.58123     53.75881         6     0.886     0.440 -54.89   0
        76    936.5610    715.4484 300.2451385 +22.8785890     2208.049     69.44024      1.129     2.05    -11.36725     19.58123     304.2882        19     0.928     0.876  44.47   0
        77    542.0951    716.6245 300.1218607 +22.7606568     666.5832     69.29874      1.086     1.75    -10.88284     19.58123     124.8073        12     0.978     0.675  25.05   0
        78    924.8858    707.0482 300.2442303 +22.8726773     891.8959     69.38721      1.201     1.91    -11.31278     19.58123     169.0233        10     0.821     0.700 -67.55   0
        79    287.7673    700.8387 300.0478719 +22.6798260     464.7487     69.44024      1.361     3.96    -10.96956     19.58123     64.63943         9     0.972     0.790  51.28   0
        80    756.2316    698.8177 300.1943399 +22.8197594     344.0503     69.38721      2.969     4.52    -11.18349     19.58123     26.70284         5     1.345     0.431  29.46   1
        81    751.1358    698.2380 300.1929407 +22.8180652     1215.845     69.38721      1.138     1.79    -11.17462     19.58123     218.8366        12     0.809     0.722 -65.15   0
        82    956.1859    697.0131 300.2572544 +22.8791753     912.0541     69.33414      1.279     1.98    -11.29309     19.58123     162.9738        13     1.015     0.767  39.60   0
        83    869.7257    675.1559 300.2374058 +22.8469858     72057.65     69.38721      1.192     1.90    -11.14789     19.58123     12291.04       111     1.253     1.186 -84.99   0
        84   1016.8970    676.7896 300.2827668 +22.8915582     690.3616     69.29874      1.355     3.60    -11.18193     19.58123     98.21483        14     1.150     0.846  65.89  16
        85    722.0719    675.4603 300.1912938 +22.8028121      467.646     69.44024      1.099     1.65    -10.95609     19.58123     78.36594         5     0.641     0.452  27.48   0
        86    902.7842    667.9643 300.2500506 +22.8548281     326.2566     69.40489      1.378     2.54    -11.11228     19.58123     52.00587         5     0.692     0.649 -87.91   0
        87    555.9634    664.1287 300.1432502 +22.7497509     863.9835     69.40489      1.300     2.07    -10.71346     19.58123     142.6006        12     0.875     0.766  30.66   0
        88    737.1690    661.2878 300.2006059 +22.8032691     4649.094     69.38721      1.178     1.74    -10.94469     19.58123     854.5098        31     1.037     1.003 -82.99   0
        89    238.7074    656.5740 300.0470131 +22.6524082     2384.363     69.36952      1.230     2.13    -10.56769     19.58123      345.632        21     1.048     0.896  88.92   0
        90    321.0648    654.6652 300.0732407 +22.6765730     670.5686      69.4579      1.405     2.76    -10.74958     19.58123     81.96372        12     0.922     0.794  10.18   0
        91    196.0044    652.3831 300.0351020 +22.6383912     226.4404     69.33414      1.221     3.86     -10.5532     19.58123     31.13135         5     0.881     0.486   0.64   0
        92    528.9077    649.9834 300.1394278 +22.7375770     360.2242     69.33414      1.058     1.89    -10.58147     19.58123     88.94985         8     0.739     0.616  64.47   0
        93    520.7508    642.1668 300.1394305 +22.7328873     1523.412     69.44024      1.176     1.85    -10.51495     19.58123     272.0364        19     0.961     0.864  54.13   0
        94    511.0909    636.0549 300.1384111 +22.7282361     664.9509      69.4579      1.255     2.30    -10.46273     19.58123     112.1987        11     0.835     0.777 -30.26   0
        95    174.3918    632.4572 300.0348633 +22.6261905     320.5921     69.38721      1.350     3.65    -10.55167     19.58123     51.47752         7     0.842     0.800 -67.33   0
        96    188.4443    630.6937 300.0398040 +22.6299020     228.0738     69.42256      1.115     3.42    -10.53561     19.58123      47.5443         5     0.798     0.425 -67.57   0
        97    957.7508    626.9839 300.2805158 +22.8595279     248.2799     69.44024      1.013     2.05    -11.04863     19.58123     49.11104         5     0.736     0.460 -30.12   0
        98    535.1479    626.2641 300.1490823 +22.7326408     273.9377      69.4579      1.255     4.40    -10.38602     19.58123     38.18238         6     0.968     0.570  64.12   0
        99    435.6402    625.7500 300.1182819 +22.7026489     857.8833     69.42256      1.278     2.90    -10.40655     19.58123     128.7482        15     1.058     0.876 -80.98   0
       100    214.1565    627.0634 300.0489761 +22.6365768     281.2755     69.40489      1.207     2.22    -10.50657     19.58123     52.91856         5     0.741     0.484 -31.27   0
       101   1011.5352    623.0806 300.2985597 +22.8745211     293.1397     69.51088      1.076     2.55    -11.20441     19.58123     66.70301         7     0.876     0.489  82.23   0
       102     89.7225    620.7619 300.0123566 +22.5974249     9688.104     69.38721      1.288     2.20    -10.70067     19.58123     1408.264        42     1.167     1.075  56.95   0
       103     10.6299    622.0683 299.9873648 +22.5740578     360.0846     69.38721      1.299     2.93    -11.41239     19.58123     39.77736         7     0.727     0.658 -73.45   0
       104    520.7419    621.0761 300.1462849 +22.7268315     478.2029     69.44024      1.185     1.95    -10.33881     19.58123     81.20261         8     0.723     0.637  55.01   0
       105    938.6714    606.8831 300.2811016 +22.8480365       538.02     69.52853      1.155     2.35      -10.924     19.58123     103.3149         9     0.854     0.688  67.32   0
       106     35.7266    604.8057 300.0007708 +22.5766423     768.9597     69.35184      1.743     4.94    -11.14207     19.58123     61.58511        15     1.415     0.831  87.48   0
       107    805.3842    605.1786 300.2401054 +22.8076045     241.1198     69.38721      1.117     3.08    -10.78843     19.58123     42.15551         5     0.763     0.413  66.43   0
       108    483.6143    601.8089 300.1409935 +22.7101671     179.8154     69.31644      1.102     3.43    -10.18197     19.58123     30.62157         5     0.795     0.428  69.80   0
       109    878.5524    599.7807 300.2646665 +22.8279817     411.6656     69.44024      1.300     2.02    -10.60168     19.58123     59.57917         5     0.703     0.474 -73.27   0
       110    440.8409    594.1071 300.1301871 +22.6951283     359.0159     69.42256      1.251     3.16    -10.20738     19.58123     41.37138         6     0.764     0.551 -46.62   0
       111    588.5421    591.9095 300.1768734 +22.7387905     302.4612      69.4579      1.270     4.14    -10.18823     19.58123     39.36608         7     1.015     0.482 -81.94   0
       112    484.8276    589.6080 300.1453374 +22.7070293     474.5724     69.38721      1.276     3.35    -10.13008     19.58123     71.44415         9     1.108     0.543  69.11   0
       113    918.5819    585.1080 300.2819167 +22.8357615      1573.51     69.33414      1.114     1.94    -10.69613     19.58123     282.9811        16     0.909     0.809  50.06   0
       114    450.4708    585.2319 300.1360686 +22.6954695     815.7543     69.40489      1.211     2.47    -10.17045     19.58123     116.0177        13     0.938     0.795 -88.42   0
       115   1016.8993    583.0053 300.3132622 +22.8646132     283.4126     69.29874      1.131     1.86    -11.27079     19.58123     67.61297         5     0.606     0.535   0.38   0
       116     12.6117    578.8035 300.0020438 +22.5622485     2476.134     69.22788      1.343     2.41    -11.00328     19.58123     310.7054        23     1.115     0.984  88.88   0
       117    313.9234    571.9947 300.0978957 +22.6507133     4442.928     69.31644      1.276     2.03    -10.32772     19.58123     725.6602        28     1.069     0.958  48.41   0
       118    436.3177    568.9772 300.1369485 +22.6865598     4278.675     69.36952      1.206     2.02    -10.17087     19.58123     680.6414        25     1.026     0.929  86.89   0
       119    932.6090    560.2744 300.2943633 +22.8328297     6034.104     69.40489      1.147     1.96    -10.58389     19.58123     927.4773        31     1.074     0.925  88.97   0
       120    848.1193    562.8903 300.2671722 +22.8082652     819.9479     69.51088      1.166     1.84    -10.54416     19.58123     171.5416        11     0.833     0.719 -38.19   0
       121    496.9251    558.5621 300.1591939 +22.7017462     5730.377     69.35183      1.217     1.92    -9.994129     19.58123     923.4722        32     1.093     0.978  82.16   0
       122    224.3840    554.0631 300.0758846 +22.6187062      660.441     69.38721      1.219     2.35    -10.49108     19.58123     104.5329        11     0.893     0.707 -28.68   0
       123    428.5575    546.8197 300.1417358 +22.6778733     2096.626     69.44024      1.179     2.11    -10.16136     19.58123      329.223        18     0.953     0.847  87.17   0
       124    771.2592    546.7472 300.2484657 +22.7805950     356.9118      69.4579      1.038     2.66    -10.64563     19.58123     64.12375         5     0.767     0.482 -44.75   0
       125    406.9648    545.2364 300.1355324 +22.6709430     529.9158     69.47556      1.130     2.49    -10.21418     19.58123     99.16441         7     0.693     0.671  86.54   0
       126    161.1614    544.8016 300.0592442 +22.5970798     298.6704     69.42256      1.062     2.20    -10.53211     19.58123     53.01277         6     0.725     0.537 -49.73   0
       127    848.6016    542.0671 300.2740910 +22.8024281     856.6888     69.38721      1.411     2.67    -10.51497     19.58123     103.6682        13     0.962     0.807 -48.58   0
       128    728.8107    538.9307 300.2377805 +22.7656279     328.7606     69.38721      1.086     2.46    -10.57435     19.58123     76.72969         8     0.829     0.635  88.77   0
       129    545.1964    534.2710 300.1821139 +22.7092473     100019.8     69.35184      1.235     2.02     -9.77736     19.58123     15815.53       134     1.304     1.279  74.20   0
       130    231.2991    534.2689 300.0844673 +22.6151023     1700.116     69.49323      1.246     2.15    -10.44136     19.58123     243.1344        19     1.028     0.874  68.82   0
       131    797.2351    530.5518 300.2618242 +22.7837278     286.5439     69.44024      1.072     3.38    -10.53605     19.58123     36.81147         5     0.729     0.468 -17.47   0
       132    435.8569    514.6111 300.1544743 +22.6708180     1209.128     69.36952      1.215     2.15    -9.813703     19.58123      192.732        14     0.937     0.803  33.47   0
       133    847.4103    510.4336 300.2840008 +22.7929835     189.2452     69.38721      1.081     4.07    -10.51108     19.58123     30.43867         5     1.178     0.401  36.85   0
       134    752.5839    502.8635 300.2569089 +22.7623937     183.3869     69.38721      1.234     3.49    -10.28118     19.58123     28.96456         5     0.773     0.454  72.22   0
       135    832.6896    500.7136 300.2825712 +22.7857803     850.7307     69.56381      1.110     2.11     -10.5121     19.58123     151.2253        13     0.905     0.769  33.43   0
       136    704.0400    498.4147 300.2432310 +22.7465676     1218.633     69.42256      1.156     1.98    -9.952761     19.58123     204.4191        13     0.872     0.744  84.28   0
       137    491.2767    494.4130 300.1782837 +22.6816381     282.3212     69.42256      1.043     2.14    -9.264189     19.58123     65.24514         6     0.674     0.590 -61.67   0
       138    961.1276    492.1155 300.3254090 +22.8217883     579.4849     69.51088      1.241     2.15    -10.17867     19.58123     116.4622        12     0.903     0.750 -80.69   0
       139    833.0268    490.7688 300.2859080 +22.7830243     1174.918     69.40489      1.484     3.50    -10.50935     19.58123     160.8303        17     1.376     0.826  83.80   0
       140    946.9997    491.0901 300.3213365 +22.8172617     373.3565     69.29874      1.354     2.37    -10.14601     19.58123      53.4965         7     0.829     0.512 -56.57   0
       141    586.4703    488.9564 300.2096894 +22.7086109     325.2123     69.36952      1.560     2.71    -9.489394     19.58123     37.39833         6     0.768     0.499 -88.05   0
       142    871.1445    485.8312 300.2993943 +22.7930262     2113.647     69.42256      1.217     1.92    -10.46737     19.58123     374.7631        21     0.986     0.903  78.47   0
       143    962.9849    476.2640 300.3311393 +22.8177893     345.0923     69.38721      1.250     2.95    -10.05002     19.58123      57.0154         6     0.855     0.560 -55.51   0
       144    103.3323    476.2799 300.0635405 +22.5600730     450.4737     69.51088      1.319     3.19     -10.4917     19.58123     56.36507         9     0.871     0.734 -68.96   0
       145    959.3583    464.9737 300.3336769 +22.8134584     156.3318     69.44024      0.917     3.82    -10.03274     19.58123     44.48965         6     1.007     0.417  74.99   0
       146    644.5573    456.4654 300.2383344 +22.7166919     308.5411     69.38721      1.100     2.62    -9.746885     19.58123     65.22168         6     0.838     0.457  73.85   0
       147    959.5735    448.5815 300.3390701 +22.8088118     268.4991     69.42256      1.233     3.16     -10.0076     19.58123     39.85469         6     0.816     0.535 -43.26   0
       148    705.2073    448.4612 300.2598259 +22.7325696     465.4043     69.38721      1.129     2.67    -9.812243     19.58123     57.21557         8     0.824     0.639  48.11   0
       149    862.7579    444.6436 300.3101628 +22.7786792     492.1158     69.49323      1.246     2.73    -10.24364     19.58123       74.251         7     0.762     0.676 -67.67   0
       150    847.0283    440.9574 300.3064572 +22.7729077     323.2837     69.42256      1.481     2.97    -10.17776     19.58123     35.71111         5     0.622     0.600  87.48   0
       151    591.2620    439.1711 300.2273570 +22.6957511     1573.838     69.40489      1.233     2.14    -9.608278     19.58123      246.694        17     0.947     0.824 -79.05   0
       152    951.6661    438.1003 300.3400095 +22.8034311     245.6186     69.49323      1.064     2.90    -9.990321     19.58123     44.42362         7     0.806     0.614  63.96   0
       153     67.5841    429.9260 300.0674931 +22.5360503     102.9619     69.40489      1.011     4.47    -10.14511     19.58123     27.78044         5     1.171     0.485  85.21   0
       154   1002.4869    417.9768 300.3623976 +22.8128677     607.4838     69.35184      1.152     1.97    -9.958898     19.58123      117.091         9     0.779     0.687  72.92   0
       155    960.7478    416.6990 300.3497945 +22.8000002     468.3115     69.49323      1.174     2.48    -9.957327     19.58123     78.65668         9     0.816     0.704  80.41   0
       156    701.9415    412.9658 300.2703399 +22.7213949     509.4503     69.42256      1.191     2.33    -9.798016     19.58123     98.65175        10     0.867     0.668 -62.15   0
       157    206.1458    411.0370 300.1166860 +22.5721993     381.1675     69.42256      1.193     4.55    -10.14948     19.58123     54.41835         9     1.057     0.595 -61.16   0
       158    268.1842    407.1443 300.1372371 +22.5896895     1733.268     69.38721      1.276     2.09    -9.777252     19.58123     290.2244        19     0.986     0.891 -74.47   0
       159   1001.2186    405.3813 300.3660937 +22.8088673     2057.256     69.40489      1.161     1.97    -9.933515     19.58123     338.8095        16     0.904     0.819 -82.52   0
       160    215.3611    401.9633 300.1224978 +22.5723596     3592.391     69.47556      1.258     2.13    -10.08293     19.58123     526.3776        25     1.041     0.941  78.77   0
       161    356.0846    396.1563 300.1681418 +22.6128955         2339     69.36952      1.261     2.10    -9.447932     19.58123     378.9017        23     1.050     0.917  85.69   0
       162    981.2459    396.2838 300.3628193 +22.8002710     845.8589     69.38721      1.186     2.20    -9.915656     19.58123     145.1609        12     0.865     0.790 -13.76   0
       163    600.3635    392.7946 300.2452560 +22.6851600     9084.871     69.42256      1.236     2.13    -9.591148     19.58123     1354.561        40     1.135     1.044  84.87   0
       164    797.4194    383.2289 300.3097483 +22.7414582     123.7697     69.40489      0.953     3.28    -9.767691     19.58123     31.44772         5     0.723     0.467  73.31   0
       165    933.8315    375.0399 300.3549330 +22.7799649     409.0834     69.44024      1.358     3.54    -9.873985     19.58123     51.88342         8     0.932     0.703 -79.99   0
       166    154.9689    372.9308 300.1131563 +22.5459141     992.5775     69.38721      1.290     2.54    -10.12195     19.58123     154.1755        13     0.931     0.815  55.46   0
       167    540.8937    362.2473 300.2366622 +22.6585629     3186.584     69.42256      1.292     2.06    -9.082453     19.58123     516.1317        23     1.068     0.894  86.05   0
       168    954.6052    362.4464 300.3655015 +22.7825663     586.3038     69.38721      1.100     2.45    -9.848188     19.58123     92.29801        11     0.893     0.723 -81.53   0
       169    255.7299    361.9862 300.1480313 +22.5729940     277.8833     69.42256      1.213     2.79    -9.726616     19.58123     64.70323         7     0.857     0.621 -80.94   0
       170    113.3206    354.8072 300.1060999 +22.5282208     318.2592     69.33414      1.079     3.31     -10.0443     19.58123     43.52646         5     0.739     0.448 -77.04   0
       171    745.0792    350.9523 300.3039215 +22.7165037     523.2248     69.40488      1.276     2.90    -9.715487     19.58123     71.92905        10     0.938     0.722  80.21   0
       172    447.6053    348.5587 300.2120731 +22.6266693     2722.774     69.42256      1.177     2.14    -9.059874     19.58123     429.6284        23     1.059     0.880 -77.29   0
       173    936.8354    343.0286 300.3662664 +22.7716632     298.8123     69.42256      1.165     2.15    -9.786469     19.58123     61.01403         6     0.738     0.510 -54.40   0
       174    839.4039    342.6191 300.3360231 +22.7423649     646.6472     69.35184      1.152     2.07    -9.704915     19.58123     96.45193        10     0.790     0.703  74.32   0
       175    812.0802    330.4863 300.3314468 +22.7306938     256.6121     69.56381      1.143     2.69    -9.587251     19.58123     43.90458         5     0.733     0.571  78.57   0
       176    335.0729    327.7697 300.1838154 +22.5869637     1197.141     69.40489      1.248     2.21    -9.269079     19.58123      184.903        13     0.938     0.720  86.34   0
       177     53.7123    325.2892 300.0971656 +22.5018704     532.7974     69.56381      1.402     3.25    -9.716361     19.58123     63.14713        10     1.003     0.661 -80.88   0
       178    304.4723    317.2470 300.1777153 +22.5747679     14520.33     69.40489      1.281     2.25    -9.461677     19.58123     1786.355        48     1.197     1.064  74.98   0
       179    839.0048    314.3727 300.3450713 +22.7341273     686.7027     69.36952      1.203     2.20    -9.492175     19.58123     98.16856         9     0.810     0.655  58.63   0
       180      1.4084    305.2069 300.0874401 +22.4804178     1592.967     54.33288      1.044     2.30    -9.535116     19.58123     329.3012        11     0.973     0.574  86.09  24
       181    178.6642    304.0099 300.1429001 +22.5332426     319.7231     69.36952      1.424     4.28    -9.788975     19.58123     30.46269         6     0.798     0.748  80.45   0
       182    714.7712    296.8757 300.3120388 +22.6918858     998.3643     69.42256      1.310     2.10    -9.374597     19.58123      165.933        12     0.859     0.762 -57.56   0
       183    376.6010    281.5519 300.2117386 +22.5861439     1077.802     69.40489      1.499     3.07    -9.097865     19.58123     133.8887        16     1.160     0.795  68.24   0
       184    815.7712    274.1435 300.3508916 +22.7156062     342.1741     69.40489      1.234     3.39    -9.285285     19.58123      50.2203         6     0.868     0.500 -58.24   0
       185    452.5298    260.8622 300.2420791 +22.6029612     629.7366     69.44024      1.374     2.68    -9.106004     19.58123     88.10982        12     1.011     0.726  76.22   0
       186    697.2689    252.5978 300.3209614 +22.6739193     1089.401     69.36952      1.217     2.49    -9.308843     19.58123     140.4155        12     0.937     0.725 -72.37   0
       187    958.4705    246.9903 300.4041965 +22.7505310     1486.669     69.38721      1.289     2.17    -9.379727     19.58123     221.2238        18     1.040     0.876 -66.67   0
       188    405.2237    236.7146 300.2351981 +22.5818477     197.7653     69.36952      1.265     2.89     -8.89248     19.58123     45.61325         6     0.731     0.619  39.99   0
       189    111.1689    231.1728 300.1455689 +22.4920964     352.8238     69.40489      1.369     2.57    -9.449415     19.58123     46.72929         6     0.738     0.539  60.20   0
       190     80.6255    230.7751 300.1362081 +22.4828222     763.8856     69.36952      1.525     3.05    -9.480398     19.58123     93.67844        12     1.073     0.716 -46.84   0
       191    768.8337    214.1904 300.3557256 +22.6843164     327.0738     69.40489      1.410     2.47    -9.202891     19.58123     55.38429         7     0.829     0.575  63.43   0
       192    867.1242    202.9367 300.3900136 +22.7105151     971.5198      69.4579      1.240     2.26    -9.176175     19.58123     159.4239        11     0.887     0.695 -77.25   0
       193    285.6830    200.7602 300.2096854 +22.5356909     1160.657     69.36952      1.393     2.51    -8.925245     19.58123     135.0055        19     1.089     0.891 -85.86   0
       194    363.5814    195.7858 300.2355273 +22.5576122     498.1317     69.36952      1.306     3.88    -8.828925     19.58123     62.89015        10     1.072     0.725   9.71   0
       195    115.2382    195.9584 300.1582618 +22.4832095      257.621     69.49323      1.286     4.22    -9.345175     19.58123     37.68631         8     0.995     0.582  23.66   0
       196    180.4118    187.7905 300.1811666 +22.5004070     330.3146     69.29874      1.205     2.92    -9.233361     19.58123      48.2222         7     0.837     0.578 -12.51   0
       197    718.1517    184.4861 300.3495747 +22.6605996     854.3492     69.38721      1.265     2.62    -9.139812     19.58123     106.6988        13     0.950     0.788  80.97   0
       198    782.7274    184.1705 300.3697984 +22.6798482     334.9501     69.40489      1.380     2.82    -9.063638     19.58123     45.98365         6     0.730     0.629  42.31   0
       199    201.9834    181.0775 300.1900502 +22.5049473     241.0412     69.40488      1.206     2.97    -9.126372     19.58123     37.32569         5     0.627     0.594  88.17   0
       200    989.4589    177.0005 300.4365790 +22.7396814     332.4661     69.36952      1.213     2.28    -9.038789     19.58123     70.98445         7     0.795     0.600 -64.99   0
       201    722.1547    175.6289 300.3536962 +22.6592527      351.592     69.44024      1.357     3.64    -9.128326     19.58123     52.81567        10     0.998     0.737  65.53   0
       202    643.1183    175.2381 300.3292032 +22.6354676     618.3206     69.36952      1.274     3.30     -8.84043     19.58123     87.93681        10     1.016     0.685   8.04   0
       203    838.2267    166.6709 300.3927751 +22.6914361     857.5816     69.40489      1.286     3.04    -9.037687     19.58123     119.6545        12     1.026     0.735 -72.29   0
       204    568.9749    167.0346 300.3087773 +22.6108997     329.3577     69.42256      1.191     2.82    -8.633266     19.58123     63.95247         9     0.889     0.679  65.32   0
       205    850.0703    165.8733 300.3967258 +22.6947529     367.9454     69.47556      1.464     2.58     -9.06988     19.58123     63.21228         7     0.867     0.478 -41.54   0
       206   1010.9539    156.8142 300.4498348 +22.7403095      861.621     69.42256      1.309     2.51    -8.919008     19.58123     132.2278        13     1.143     0.668  77.66   0
       207    966.8599    156.1447 300.4362985 +22.7269188     474.9482     69.47556      1.185     2.59    -8.896695     19.58123     85.31277         9     0.840     0.704  86.16   0
       208    200.9527    148.8743 300.2001791 +22.4953926      381.223     69.40489      1.374     4.63    -8.981012     19.58123     49.05476         8     1.019     0.597 -69.13   0
       209     62.9158    144.2228 300.1587926 +22.4526700     1103.054     69.36952      1.455     2.98    -9.180154     19.58123     141.9448        17     1.032     0.949  58.96   0
       210    886.0190    140.8654 300.4160478 +22.6983250     439.4835     69.36952      1.307     3.85    -8.941429     19.58123     56.67791         7     0.986     0.547  33.54   0
       211     12.8214    141.1296 300.1442354 +22.4367598     459.0872     69.42256      1.679     3.28    -9.241928     19.58123     44.37901         5     0.955     0.326  45.30   0
       212    220.3837    137.5881 300.2098813 +22.4979770     2922.305     69.35184      1.322     2.40    -8.847275     19.58123     337.3881        26     1.181     0.933  73.77   0
       213      4.6844    132.2188 300.1445991 +22.4317622     620.4827     67.99397      1.264     3.13    -9.143277     19.58123     87.01114        12     1.040     0.784  80.28  16
       214    203.5820    128.1417 300.2077230 +22.4902280     257.7465     69.35183      1.043     2.77    -8.829557     19.58123     53.87713         6     0.772     0.488  82.98   0
       215   1019.0990    124.7118 300.4627925 +22.7335135     8969.407     69.56381      1.270     2.11    -8.768948     19.58123      1481.05        38     1.126     1.012 -79.10  16
       216    864.3788    118.8890 300.4164318 +22.6855271       1712.8     69.33414      1.296     2.32    -8.884018     19.58123     223.5046        15     0.922     0.840 -78.76   0
       217    967.9590    117.6262 300.4491397 +22.7161696      1434.49      69.4579      1.296     2.20     -8.72816     19.58123     194.2256        18     0.996     0.901  42.97   0
       218    414.0640    113.9035 300.2778014 +22.5492218     280.1771     69.49323      1.252     2.77    -8.496823     19.58123     45.24697         5     0.755     0.512  28.01   0
       219    338.1590    105.9699 300.2567620 +22.5241971     371.4608     69.42256      1.324     3.94     -8.65163     19.58123     44.06422         6     0.806     0.551 -55.01   0
       220    103.8757    102.9277 300.1849152 +22.4530974     340.2511     69.47556      1.577     4.35    -8.745397     19.58123      47.3182         7     1.297     0.415 -71.26   0
       221    465.2064    101.3982 300.2977724 +22.5609525     877.1346     69.22788      1.334     2.58    -8.535885     19.58123     107.1231        13     0.957     0.815  43.29   0
       222    239.2567     81.4530 300.2339592 +22.4875145     2978.486      69.4579      1.296     2.37    -8.481956     19.58123     351.7514        27     1.164     0.966  64.52   0
       223     90.2037     80.7311 300.1878672 +22.4426260     372.9833     69.36952      1.391     4.29    -8.556501     19.58123     41.83246         7     0.887     0.590  30.43   0
       224    485.3399     66.6708 300.3153035 +22.5570059     3157.314     69.44024      1.332     2.38    -8.622322     19.58123     413.4977        24     1.085     0.981  82.26   0
       225    370.7551     66.3375 300.2797573 +22.5225803     297.3684     69.42256      1.271     3.34    -8.610265     19.58123     45.83514         5     0.823     0.473 -47.45   0
       226    737.6666     56.1013 300.3973087 +22.6295370      333.433     69.49323      1.356     3.34    -8.087218     19.58123     50.42559         5     0.869     0.471 -88.78   0
       227    830.9697     54.6658 300.4268516 +22.6570574     266.8804     69.40489      1.733     4.14    -8.118345     19.58123     28.52169         5     1.069     0.458 -64.60   0
       228    613.5807     46.7792 300.3616800 +22.5897004     3090.205     69.40489      1.269     2.26    -7.761485     19.58123     448.1151        25     1.124     0.912 -89.44   0
       229    388.5154     45.7874 300.2919477 +22.5219979     750.0654     69.35183      1.238     2.60    -8.656581     19.58123      120.872        12     0.951     0.743  63.70   0
       230    654.7247     43.9986 300.3753957 +22.6012223     387.8623     69.29874      1.242     2.30    -7.898042     19.58123     69.31534         7     0.691     0.658  -9.03   0
       231    670.8558     40.0450 300.3817026 +22.6049161     307.8288     69.44024      1.205     3.76    -7.929459     19.58123      46.4062         6     0.947     0.428  53.69   0
       232    137.6354     38.4201 300.2163287 +22.4446969     384.6279     69.42256      1.470     3.77    -8.124463     19.58123     44.88067         6     0.885     0.473 -83.11   0
       233    657.7554     31.5905 300.3803640 +22.5985628     1366.101     69.42256      1.274     2.42    -7.817421     19.58123     198.6313        13     0.919     0.774  63.67   0
       234    744.3472     23.1132 300.4100895 +22.6220523     771.3123     69.44024      1.217     2.36    -7.766425     19.58123     117.6174        11     0.883     0.719  22.48   0
       235    682.5852     16.1629 300.3931016 +22.6015623     319.6192     69.40489      1.316     2.40    -7.744164     19.58123     46.62573         5     0.693     0.473 -74.03   0
       236    487.8872     15.7338 300.3326165 +22.5431315     604.4029     69.49323      1.423     3.22    -8.688732     19.58123     84.56936        12     1.026     0.853  46.02   0
       237    391.7531     13.8030 300.3033277 +22.5137785     368.0226     69.38721      1.185     2.34    -8.774532     19.58123     57.01933         6     0.671     0.578  64.39   0
       238    287.6808   1012.3975 299.9464568 +22.7691264     528.0358     69.31644      1.310     2.52    -11.57208     19.58123     78.67996        10     0.809     0.781 -59.43   0
       239    188.8215   1002.6626 299.9188971 +22.7366485     666.8146     69.38721      2.911     6.15     25.23879     19.58123     26.94632         8     2.443     0.436  69.86   2
