#   1 NUMBER                 Running object number                                     
#   2 X_IMAGE                Object position along x                                    [pixel]
#   3 Y_IMAGE                Object position along y                                    [pixel]
#   4 ALPHA_J2000            Right ascension of barycenter (J2000)                      [deg]
#   5 DELTA_J2000            Declination of barycenter (J2000)                          [deg]
#   6 FLUX_APER              Flux vector within fixed circular aperture(s)              [count]
#   7 FLUXERR_APER           RMS error vector for aperture flux(es)                     [count]
#   8 FLUX_RADIUS            Fraction-of-light radii                                    [pixel]
#   9 FWHM_IMAGE             FWHM assuming a gaussian core                              [pixel]
#  10 BACKGROUND             Background at centroid position                            [count]
#  11 THRESHOLD              Detection threshold above background                       [count]
#  12 FLUX_MAX               Peak flux above background                                 [count]
#  13 ISOAREA_IMAGE          Isophotal area above Analysis threshold                    [pixel**2]
#  14 A_IMAGE                Profile RMS along major axis                               [pixel]
#  15 B_IMAGE                Profile RMS along minor axis                               [pixel]
#  16 THETA_IMAGE            Position angle (CCW/x)                                     [deg]
#  17 FLAGS                  Extraction flags                                          
         1    741.3188     14.6624 300.4197912 +22.6055124     398.6404     69.57444      1.105     2.91    -8.291112     19.59913     77.01212         8     0.887     0.583  81.16   0
         2    736.8115   1021.8284 300.0910226 +22.8934285     316.9286      62.9715      1.190     3.13    -13.57977     19.59913     59.71591         6     0.993     0.467  65.79  16
         3    205.1066   1020.2123 299.9261166 +22.7333205     2860.887     68.30853     14.585    33.34      3.80795     19.59913     70.21077       228     6.546     4.714  27.35  27
         4    224.2420   1019.6070 299.9322607 +22.7388954     3607.172     69.43295      9.606    25.99    0.2998846     19.59913     86.85211       288     5.972     4.365  16.48  27
         5    241.8643   1009.6874 299.9409684 +22.7413464     4732.246     69.55677      9.934    34.24    -4.279326     19.59913     111.5577       567     9.651     5.017  57.43  19
         6    171.1695   1013.3083 299.9178192 +22.7211470     1342.985     69.41525      6.320     9.80     8.661933     19.59913     36.86632        22     2.043     1.312 -46.01  18
         7     77.8562   1019.9747 299.8866594 +22.6950205     2016.369      68.8998     32.733    54.71     6.241972     19.59913     55.00935       317    13.189     6.297 -24.32  27
         8     78.6216    957.2160 299.9073332 +22.6772711     2016.535     69.45065     23.035    39.80    -5.967368     19.59913      47.7881       252     8.400     5.234  -4.86   3
         9     83.7739    944.1838 299.9131766 +22.6750852     1805.216     69.48605     15.539    25.13    -8.175294     19.59913      51.0052       122     5.234     3.351  -5.49   3
        10    114.5767   1010.5623 299.9011309 +22.7033575     860.9324     69.48605      7.666     9.22     10.69022     19.59913      30.4369        13     2.482     0.955  -6.68  16
        11    929.7999   1005.0513 300.1566288 +22.9465159     482.3947     69.41525      1.201     2.10    -14.29948     19.59913     87.99146         8     0.782     0.658 -86.95   0
        12    166.3235   1003.0023 299.9196697 +22.7167382     819.4168     69.37982      5.553     8.24     7.442567     19.59913     38.91762        15     1.960     0.967 -84.25   0
        13     81.2775    977.5779 299.9015283 +22.6839027     2683.935     69.45065     25.866    34.34    -1.348832     19.59913     63.35282       302     6.198     5.282  42.37   3
        14    655.1382    988.4276 300.0764643 +22.8593367     3306.665     69.46835      1.133     2.05    -13.51225     19.59913     568.5155        22     0.970     0.862  31.32   0
        15    534.6061    982.8572 300.0407558 +22.8215608     194.3681     69.43295      0.950     1.97    -13.54883     19.59913     50.65374         5     0.662     0.471  73.64   0
        16    246.4959    982.6466 299.9512140 +22.7349881     107.9092     69.48605      0.994     2.65    -7.432743     19.59913     48.30905         5     0.694     0.486 -76.27   0
        17     85.8174    990.6008 299.8986979 +22.6889977     2700.551     69.37982     25.745    40.60     2.664152     19.59913     64.67589       333     7.845     5.831  19.75  27
        18    563.4776    979.2591 300.0509137 +22.8291956     722.6751     69.50373      1.104     1.96    -13.47712     19.59913     126.2988        10     0.759     0.706 -70.36   0
        19    176.4534   1023.2848 299.9162119 +22.7255929     936.1699     56.20545      5.857     7.75     9.753283     19.59913     43.79778        13     1.878     0.894  -5.18  26
        20    642.3879   1019.0325 300.0625264 +22.8642883     4709.831     69.45065      1.103     1.76    -13.68574     19.59913     862.7294        30     1.083     0.937 -53.05  19
        21    113.7163    973.0068 299.9130930 +22.6923392     1073.714     69.39754      7.173     7.73    0.9725814     19.59913     38.46948        15     1.704     0.981 -43.96   2
        22    457.3900    975.6513 300.0190748 +22.7963135     466.7169     69.48605      1.053     1.82    -13.42457     19.59913     85.39982         5     0.643     0.466 -71.15   0
        23    101.6704    972.0609 299.9096591 +22.6884491     1103.018     69.50373      4.507     3.03    0.5022204     19.59913     33.31931         5     0.881     0.541  86.77   2
        24    636.8201   1021.3191 300.0600480 +22.8632729     4035.526      65.0077      1.095     1.73    -13.71936     19.59913     815.0209        23     0.923     0.881 -67.45  19
        25    388.0533    973.7340 299.9981303 +22.7749454     3284.567     69.50373      1.150     1.81    -13.40139     19.59913     625.2111        22     0.924     0.872 -41.69   0
        26    105.3465    970.0464 299.9114570 +22.6889764     768.0928     69.50373      4.435     4.21   0.02821563     19.59913     27.39903         5     1.077     0.469 -25.07   1
        27     95.6839    962.0378 299.9110630 +22.6837788     1188.411     69.45065     10.491     9.13    -2.441509     19.59913     53.26142        22     1.949     1.507  37.50   1
        28    420.5790    960.6301 300.0125144 +22.7809545     125.3254     69.46835      0.966     3.51    -13.31513     19.59913     44.76279         5     0.763     0.467  74.49   0
        29    934.2969    952.2049 300.1752416 +22.9326965     1134.447     69.37982      1.160     1.87    -13.47718     19.59913     207.4035        12     0.831     0.734 -13.95   0
        30    584.5867    949.8158 300.0670722 +22.8270869     186.5928     69.41525      0.915     3.25     -13.1072     19.59913     37.62543         5     0.725     0.469  74.35   0
        31     99.4898    941.9617 299.9187817 +22.6791700      987.056     69.45065      8.077     8.70    -7.617797     19.59913     35.83002        12     1.839     1.150  44.56   2
        32    723.1980    941.2502 300.1130237 +22.8662259     408.6711     69.45065      1.651     5.12    -13.29825     19.59913     60.63321         7     1.421     0.572  56.03   0
        33    757.9871    935.3246 300.1257904 +22.8749637     462.7654     69.48605      1.038     1.72    -13.20189     19.59913     119.7738         7     0.673     0.595 -31.82   0
        34    780.1276    929.0306 300.1347376 +22.8798000     5467.811     69.46835      1.120     1.65    -13.14906     19.59913     1240.452        28     0.943     0.913  20.73   0
        35    970.9207    928.5020 300.1943792 +22.9368760     212.9407      69.5921      0.947     3.46    -13.30673     19.59913     42.39651         6     0.932     0.500  -0.57   0
        36     64.9901    997.7609 299.8898974 +22.6847909     1937.174     69.46835     24.118    47.87    -1.839891     19.59913     52.40771       372    10.102     6.296 -80.18  19
        37    484.9440    917.4665 300.0465930 +22.7879004     294.7404     69.52142      1.107     3.70    -12.89881     19.59913      33.3331         6     0.790     0.498   3.18   0
        38    788.7036    911.1281 300.1432384 +22.8772353     623.6472     69.57444      1.010     1.74    -13.02386     19.59913     160.0131         9     0.765     0.628 -78.24   0
        39    971.6944    910.1390 300.2005994 +22.9318362     256.7996     69.55677      0.984     2.14    -13.16405     19.59913     59.57756         5     0.739     0.408 -69.69   0
        40    826.9017    904.6271 300.1572577 +22.8868280     428.5903     69.41525      1.029     3.20    -12.97191     19.59913     73.88361         9     1.031     0.588   5.16   0
        41    935.7953    901.4368 300.1922391 +22.9185724     203.0887     69.50373      1.107     3.48    -12.98847     19.59913     33.80222         5     0.772     0.454 -18.67   0
        42    726.4220    895.0157 300.1290810 +22.8539269     404.3579     69.45065      1.008     2.82    -13.00903     19.59913     80.35303         8     0.956     0.586 -79.61   0
        43    439.2463    891.4476 300.0408453 +22.7667210     2116.038     69.48605      1.071     1.85    -12.85421     19.59913     381.6233        17     0.889     0.810  57.33   0
        44    737.6203    891.8358 300.1336045 +22.8563740     280.4429     69.48605      1.090     2.11    -12.97008     19.59913     88.24023         6     0.856     0.598  -7.25   0
        45    100.8305    879.9965 299.9393695 +22.6618166     288.5809     69.43295      1.264     3.82    -11.92193     19.59913     32.02695         5     0.828     0.505  37.35   0
        46    164.4462    877.1519 299.9600596 +22.6801092     444.3447     69.48605      1.234     2.40    -11.40781     19.59913     68.17463         8     0.843     0.597 -35.01   0
        47    141.6601    874.2206 299.9539338 +22.6724253     718.8331     69.41525      1.156     2.30    -11.72058     19.59913     132.5516        13     0.975     0.731 -80.37   0
        48   1013.2715    862.7668 300.2289877 +22.9307013     1125.083     69.46835      1.109     1.70    -12.81649     19.59913      254.473        14     0.946     0.787 -75.23   0
        49    967.4551    861.3762 300.2151522 +22.9165647     880.3788     69.50373      0.977     1.84    -12.80661     19.59913     190.4179        11     0.767     0.692 -63.15   0
        50    750.9136    855.0886 300.1497076 +22.8498163     272.1622     69.62742      1.045     2.01    -12.69402     19.59913     70.86115         6     0.714     0.495  64.25   0
        51    619.1326    849.4835 300.1104901 +22.8086715     2382.412     69.57444      1.057     1.80    -12.63277     19.59913     439.5085        16     0.814     0.800  -6.02   0
        52    421.2018    846.7955 300.0497658 +22.7484988     314.3106     69.29118      1.048     2.21    -12.59569     19.59913     59.15315         6     0.676     0.562 -66.33   0
        53    169.4333    843.4225 299.9725869 +22.6719393     753.4167     69.46835      1.119     2.23    -12.26642     19.59913     105.8764        11     0.820     0.767 -34.64   0
        54    639.7458    842.0157 300.1193388 +22.8127138     420.2372     69.43295      1.228     2.48    -12.56704     19.59913     78.25283         7     0.826     0.596 -77.99   0
        55    188.4098    841.3646 299.9791535 +22.6770483     213.4366     69.46835      1.453     4.19    -12.28065     19.59913       26.878         7     1.050     0.478 -82.77   0
        56    795.1918    829.0679 300.1719722 +22.8556294     1952.191     69.45065      1.068     1.73    -12.43061     19.59913     443.6866        14     0.825     0.770 -74.97   0
        57   1012.1907    829.0089 300.2396388 +22.9206832     664.5859     69.36211      1.242     2.22    -12.86001     19.59913     138.3598        10     1.018     0.690  73.45   0
        58    512.5297    821.5290 300.0864049 +22.7686625     303.4255     69.53909      1.237     2.79    -12.30769     19.59913     63.18056         7     0.917     0.521 -57.71   0
        59    158.6681    819.8197 299.9769227 +22.6619408     352.3764     69.45065      1.007     2.19    -12.32127     19.59913     83.08245         7     0.744     0.598 -53.73   0
        60    308.2830    811.9625 300.0259836 +22.7046122     26008.77     69.43295      1.180     1.90    -12.30315     19.59913      4700.25        58     1.120     1.029  77.87   0
        61    566.1443    810.9406 300.1065379 +22.7817136     897.0598     69.53909      1.207     2.03    -12.24135     19.59913     167.8133        11     0.874     0.693  -1.90   0
        62    978.9121    809.8295 300.2355025 +22.9051984     405.2562     69.46835      1.063     1.79    -12.76025     19.59913     99.26852         6     0.674     0.540  49.53   0
        63    236.7686    809.6284 300.0045108 +22.6824716     83.39974     69.46835      0.886     2.65    -12.31249     19.59913     35.34459         5     0.727     0.442  19.71   0
        64    605.8142    805.6208 300.1206186 +22.7920901     290.6319     69.43295      1.181     5.52    -12.24152     19.59913     56.00971         8     1.293     0.664 -54.91   0
        65    595.0854    806.9607 300.1168424 +22.7892555     356.2991     69.45065      1.081     2.01     -12.2376     19.59913     82.97292         7     0.788     0.518  48.30   0
        66    357.9879    789.1644 300.0488583 +22.7129955     15442.07     69.45065      1.185     1.85    -12.01355     19.59913     2978.534        50     1.082     1.050  70.56   0
        67    748.7830    791.5645 300.1697180 +22.8309448     443.9555     69.46835      1.060     2.06    -12.18167     19.59913     71.05207         5     0.668     0.473  18.31   0
        68    372.3579    789.6575 300.0531670 +22.7174504       984.69     69.45065      1.171     2.10    -12.02253     19.59913     154.2075        11     0.811     0.745  12.94   0
        69    880.9315    784.7784 300.2131065 +22.8686275     1316.751     69.46835      1.108     1.85    -12.35967     19.59913     264.2733        13     0.859     0.717 -87.00   0
        70    638.8495    780.9694 300.1389260 +22.7949274     363.8159     69.50373      1.048     2.35    -12.13325     19.59913     93.44563         8     0.818     0.645   0.22   0
        71    240.1153    781.1370 300.0148216 +22.6753076     276.5074     69.57444      1.109     2.45    -12.15481     19.59913     63.60812         5     0.741     0.502 -55.41   0
        72    485.8687    775.5439 300.0930719 +22.7474697     454.2969     69.48605      1.209     2.71    -11.85817     19.59913     86.57231         9     0.911     0.650  55.00   0
        73    886.7009    772.1107 300.2190271 +22.8667202     196.6443     69.62742      1.256     3.31     -12.3251     19.59913     51.60595         5     0.952     0.446  29.10   0
        74    238.2467    765.1902 300.0194291 +22.6701741     217.6638     69.48605      1.093     4.33    -12.03837     19.59913     35.53151         6     0.917     0.599  27.87   0
        75    531.2338    753.8248 300.1142562 +22.7548510     316.9856     69.48605      1.219     2.45    -11.67708     19.59913     48.13448         6     0.706     0.570 -48.16   0
        76    553.0810    751.2581 300.1218913 +22.7606696     608.5817     69.52142      1.136     2.02    -11.71392     19.59913     119.4635        10     0.790     0.699  80.74   0
        77    947.3496    750.0441 300.2451151 +22.8785670     2340.009     69.50373      1.091     1.69    -12.31545     19.59913     474.2595        17     0.906     0.803  88.29   0
        78    935.8058    741.3701 300.2443379 +22.8726152     839.5841     69.46835      1.062     1.88    -12.26021     19.59913     148.4349        11     0.795     0.707 -61.94   0
        79    298.9402    735.7401 300.0478781 +22.6799493     254.8353     69.53909      1.109     2.50    -11.56268     19.59913     55.26229         7     0.705     0.661  26.34   0
        80    762.0563    732.7681 300.1929837 +22.8180477     1196.424     69.48605      1.147     1.94    -12.01389     19.59913     224.7542        13     0.867     0.766 -31.67   0
        81    967.0162    731.5461 300.2572658 +22.8791500     825.5145     69.45065      1.062     1.91    -12.20386     19.59913     158.2928        10     0.853     0.637 -19.02   0
        82    147.1978    719.5865 300.0059686 +22.6297619     299.2825     69.30892      1.375     4.06    -12.16239     19.59913     50.55836         6     0.844     0.784  74.81   0
        83    844.2993    718.4355 300.2232741 +22.8385943     311.9499     69.45065      1.154     2.80    -11.98727     19.59913     46.91945         5     0.721     0.439  23.82   0
        84    880.6164    709.7565 300.2374172 +22.8469907     72212.38     69.48605      1.088     1.81    -11.98226     19.59913     12935.93       104     1.169     1.110  81.39   0
        85    732.8661    710.1139 300.1912597 +22.8027900     414.7361     69.57444      1.214     2.02    -11.86493     19.59913     72.95515         8     0.777     0.604  42.66   0
        86    913.2223    702.6256 300.2499014 +22.8547178     241.4916     69.43295      1.253     4.14    -11.97202     19.59913     43.32788         6     0.750     0.652 -77.24   0
        87    566.9115    698.7218 300.1432868 +22.7497430     732.4552     69.60976      1.172     2.20     -11.4615     19.59913     121.7405        10     0.850     0.661  57.54   0
        88    748.0287    695.9338 300.2005958 +22.8032662     4584.086     69.46835      1.158     1.88    -11.77549     19.59913     913.9655        25     0.986     0.882 -85.32   0
        89    249.7046    691.3046 300.0470250 +22.6524263     2396.563     69.62742      1.165     1.89     -11.5849     19.59913      412.675        21     1.010     0.878  78.04   0
        90    331.7068    689.3377 300.0731602 +22.6764752     560.3241     69.55677      1.019     2.35    -11.52481     19.59913     113.5556         8     0.849     0.526 -74.11   0
        91    540.0959    684.5800 300.1395397 +22.7376400     507.3005     69.37982      1.213     2.46    -11.34091     19.59913     66.34654         8     0.781     0.643 -82.13   0
        92    531.5458    676.9111 300.1393727 +22.7328742     1648.455     69.50373      1.175     2.17    -11.31102     19.59913     254.1118        16     0.901     0.875 -61.29   0
        93    521.8208    670.5436 300.1384169 +22.7281294     685.6003     69.48605      1.138     2.04    -11.28537     19.59913     122.3907        10     0.827     0.688  52.11   0
        94    450.4353    670.1808 300.1163211 +22.7066080     113.4287     69.48605      1.031     3.47    -11.33829     19.59913     26.68314         5     0.773     0.450  70.61   0
        95    185.3096    667.3299 300.0348073 +22.6262202     140.9759     69.62742      1.035     3.68    -11.70452     19.59913     50.29714         7     1.004     0.715 -40.53   0
        96    199.3548    665.4861 300.0397719 +22.6299078     362.4119     69.45065      0.962     0.69    -11.60192     19.59913     117.6704         5     0.667     0.424 -64.49   0
        97    256.2124    662.3796 300.0584550 +22.6460839      256.222     69.43295      1.089     3.73    -11.41874     19.59913     33.41941         5     1.001     0.399 -84.49   0
        98    968.5609    661.2332 300.2806197 +22.8594166     194.6616     69.50373      0.936     3.46    -11.67309     19.59913     40.99421         5     0.729     0.474 -74.50   0
        99    446.5948    660.2268 300.1183635 +22.7025996     928.5645     69.45065      1.232     2.37    -11.31306     19.59913      122.123        11     0.872     0.696  -7.22   0
       100    100.6972    655.5485 300.0123485 +22.5974397     9659.132     69.53909      1.181     2.10    -11.89672     19.59913      1337.58        35     1.044     1.031  65.34   0
       101   1022.2424    657.4266 300.2985997 +22.8744116     363.7389     61.20957      0.996     1.82    -11.67347     19.59913     78.64829         6     0.629     0.591 -70.94  16
       102     21.6389    656.9822 299.9873267 +22.5741122     358.5141     69.48605      1.206     3.15    -11.74373     19.59913     44.81541         7     0.722     0.679 -85.95   0
       103    531.6248    655.6376 300.1463160 +22.7267927     672.7111     69.48605      1.365     2.35      -11.183     19.59913     72.26793        10     0.855     0.696 -48.89   0
       104    949.5918    641.5562 300.2811042 +22.8480787     446.5864     69.48605      0.992     2.13    -11.48382     19.59913     92.66575         7     0.783     0.521  59.70   0
       105     46.8188    639.4832 300.0008368 +22.5766565     931.8074     69.43295      1.809     4.75    -11.86004     19.59913     85.51457        15     1.344     0.764 -79.12   0
       106    889.4789    634.2863 300.2647269 +22.8279724     422.0128     69.60976      1.418     2.16    -11.32446     19.59913     63.05496         6     0.679     0.610 -31.14   2
       107    451.8343    628.1475 300.1304255 +22.6949666     378.3431     69.48605      1.247     2.25    -11.21155     19.59913     60.94884         8     0.802     0.602  46.38   0
       108    647.1359    626.1265 300.1918741 +22.7529686     205.7394     69.50373      1.337     5.03    -11.01025     19.59913      30.6632         6     1.066     0.673 -72.90   0
       109    599.4165    627.2595 300.1766473 +22.7389822     271.6477     69.43295      1.027     3.38    -10.91966     19.59913     40.99273         5     0.777     0.427  67.65   0
       110    617.2018    625.0825 300.1828927 +22.7436914     284.3847     69.37982      1.277     4.00    -10.92081     19.59913     40.27241         6     0.871     0.601  -2.41   0
       111    495.7749    624.7028 300.1452185 +22.7071603     461.0713     69.39754      1.200     2.34    -11.11332     19.59913     75.09879         8     0.874     0.549 -80.14   0
       112    929.5646    619.7819 300.2819407 +22.8358212     1627.704     69.46835      1.049     1.94    -11.23172     19.59913     269.5681        14     0.864     0.733  67.58   0
       113    461.1802    619.8723 300.1360242 +22.6953958     831.2468     69.50373      1.248     2.57    -11.17867     19.59913     123.8997        11     0.925     0.741  79.32   0
       114     23.3942    613.7902 300.0019157 +22.5622568     2466.241     69.32665      1.202     2.20    -11.96874     19.59913     320.0036        20     0.995     0.871  84.45   0
       115    324.8109    606.7217 300.0978815 +22.6507059     4464.158     69.45065      1.200     2.03    -11.04585     19.59913     752.3148        27     1.004     0.937  83.49   0
       116    447.2295    603.6862 300.1369465 +22.6865655     4419.503     69.46835      1.215     2.13    -11.11356     19.59913     640.2094        24     1.024     0.920 -80.40   0
       117    858.7766    597.5807 300.2670923 +22.8082263     882.3134     69.46835      1.110     2.01      -11.084     19.59913     166.8013        11     0.778     0.742 -23.38   0
       118    943.4169    594.8770 300.2943581 +22.8328183     6055.918     69.46835      1.088     1.78    -11.14649     19.59913     1112.953        28     0.933     0.914 -64.66   0
       119    507.7725    593.2776 300.1591700 +22.7017402     5679.123     69.48605      1.225     2.07    -10.79609     19.59913     887.5901        31     1.048     0.990  80.71   0
       120    235.3689    588.8609 300.0758804 +22.6187406     569.7637     69.50373      1.181     2.73    -11.01429     19.59913     111.1794        12     0.991     0.775   8.00   0
       121    677.1309    588.5380 300.2134373 +22.7511716     251.8267     69.50373      1.124     2.21     -10.9016     19.59913     58.39877         7     0.839     0.567  79.97   0
       122    439.4764    581.4845 300.1417525 +22.6778682      2182.55     69.57444      1.192     2.17    -10.93687     19.59913     273.8384        20     0.993     0.901  56.71   0
       123    782.3313    581.1091 300.2486244 +22.7805796     457.9207      69.5921      1.361     2.81    -11.23556     19.59913     67.86034        11     0.968     0.726   9.95   0
       124    417.7566    579.6467 300.1355928 +22.6708249     618.5613     69.50373      1.243     2.65    -11.03132     19.59913     106.6833        13     0.928     0.856 -18.96   0
       125    172.3699    579.4077 300.0593735 +22.5971209     323.6185     69.46835      1.337     3.25    -11.13739     19.59913      45.9496         6     0.857     0.488   4.84   0
       126    859.3038    576.7108 300.2740422 +22.8023897     774.6074     69.64507      1.349     2.67     -11.0722     19.59913      116.359        13     0.975     0.799 -38.66   0
       127    739.7507    573.6921 300.2377694 +22.7656839     399.0736     69.50373      1.256     2.75    -11.14958     19.59913     69.27505         9     0.858     0.719  89.52   0
       128    556.0618    568.9635 300.1821046 +22.7092449     99024.26     69.48605      1.278     2.10    -10.41366     19.59913     15878.96       130     1.281     1.256 -56.31   0
       129    242.2838    568.9996 300.0844866 +22.6151185     1529.974     69.34438      1.215     2.25    -11.03848     19.59913     242.1583        17     0.906     0.881  79.05   0
       130    807.6938    564.7894 300.2618333 +22.7834954     274.2851     69.41525      0.962     1.69    -11.14352     19.59913     56.13017         5     0.680     0.428  71.21   0
       131    446.7570    549.2880 300.1544842 +22.6708121     1261.076     69.46835      1.222     2.39    -10.60011     19.59913     179.1264        15     0.921     0.845 -12.50   0
       132    858.7596    545.2285 300.2841076 +22.7931830     351.7496     69.48605      1.713     3.83    -11.05421     19.59913     32.41399         5     0.732     0.708 -53.44   0
       133    843.6273    535.3109 300.2826150 +22.7857986     750.2574     69.45065      1.091     2.17    -11.03701     19.59913     118.2313        11     0.860     0.701 -45.46   0
       134    714.8190    533.2198 300.2431596 +22.7465865     1355.152     69.46835      1.289     1.94    -10.76993     19.59913     216.4019        19     1.012     0.997 -73.81   0
       135    958.6545    530.1700 300.3201462 +22.8187933      139.022     69.48605      1.246     3.22    -11.07371     19.59913     45.29249         5     0.972     0.674   8.74   0
       136    619.9186    530.0153 300.2146459 +22.7172127     118.0903     69.45065      0.982     2.84    -10.24733     19.59913     33.36233         5     0.646     0.566   0.73   0
       137    502.3619    529.2661 300.1782950 +22.6817437     278.7762     69.45065      1.191     2.41    -10.13752     19.59913     45.36047         5     0.690     0.467  76.91   0
       138    972.1901    526.7689 300.3254727 +22.8218718     622.5545     69.46835      1.155     2.04    -11.04825     19.59913     128.8884        10     0.813     0.708  39.77   0
       139    843.7889    525.4059 300.2858850 +22.7830017     1022.899     69.34438      1.426     4.13    -11.02496     19.59913     156.7219        18     1.339     0.810  83.97   0
       140    957.8238    525.6503 300.3213564 +22.8172457     364.6032     69.46835      1.111     2.19      -11.052     19.59913     61.16789         6     0.691     0.596 -75.95   0
       141    597.2314    523.8480 300.2095867 +22.7086390     168.5271     69.50373      1.081     2.88    -10.15915     19.59913     37.31699         6     0.726     0.582 -39.42   0
       142    882.0037    520.4936 300.2993934 +22.7930434     2036.055     69.37982      1.075     1.83    -11.05367     19.59913     373.0482        18     0.998     0.807  77.27   0
       143    542.0002    516.5977 300.1947496 +22.6899948      144.056     69.25569      1.447     4.63    -10.13564     19.59913     22.16763         5     1.046     0.583 -74.22   0
       144    114.1058    511.4113 300.0633709 +22.5601304     438.0699     69.41525      1.219     2.11    -11.09802     19.59913     71.74119         8     0.740     0.652 -86.75   0
       145    973.8448    510.8724 300.3311559 +22.8177997     441.7319     69.45065      1.261     1.78    -10.91912     19.59913     76.18104         6     0.687     0.509  25.14   0
       146    655.3372    491.0978 300.2383240 +22.7166571     233.1948     69.55677      1.110     2.82    -10.23294     19.59913     50.55972         5     0.792     0.457  37.06   0
       147    969.9981    483.2564 300.3389320 +22.8087111     279.1964     69.41525      0.975     2.10    -10.72575     19.59913     58.93842         7     0.677     0.646  77.75   0
       148    716.4019    483.1924 300.2599126 +22.7326930     416.4388     69.29118      1.121     2.77    -10.36284     19.59913     59.96484         5     0.734     0.436  67.72   0
       149    873.4236    479.3607 300.3100877 +22.7786542     538.5573     69.50373      1.201     2.52    -11.01781     19.59913     76.24405         9     0.842     0.664  14.24   0
       150    857.5830    475.6685 300.3063500 +22.7728464     344.4122     69.46835      1.180     2.69    -10.97284     19.59913     47.64532         6     0.829     0.471  -0.80   0
       151    602.1003    473.8843 300.2273409 +22.6957526     1586.209     69.62742      1.269     2.10    -10.11106     19.59913     239.7476        19     1.005     0.897 -65.52   0
       152   1013.4846    452.4831 300.3624952 +22.8128947     536.5764      69.5921      1.070     2.82     -10.3606     19.59913     99.70252         9     0.912     0.665 -64.53   0
       153    885.2420    452.3665 300.3225442 +22.7744393      246.393     69.52142      1.244     3.43    -10.79483     19.59913     29.28984         5     0.738     0.461  14.00   0
       154    971.6768    451.4413 300.3497947 +22.8000707     349.7486     69.43295      0.991     2.38    -10.56831     19.59913     67.83353         7     0.839     0.495   3.01   0
       155    712.4693    447.5663 300.2702648 +22.7212813     526.2535     69.46835      1.283     3.26    -10.29463     19.59913     72.40804        10     1.019     0.683  85.80   0
       156    216.4889    446.3182 300.1163388 +22.5721812      404.609     69.57444      1.402     3.56    -10.77245     19.59913     47.58447         7     0.850     0.683  72.64   0
       157    279.1004    441.8615 300.1372508 +22.5896871     1696.187     69.53909      1.281     2.21    -10.42194     19.59913     276.0402        21     1.054     0.904  76.15   0
       158   1011.9334    440.0473 300.3660525 +22.8088556     2022.167     69.46835      1.181     1.85    -10.35995     19.59913     410.1893        19     0.946     0.832  87.00   0
       159    226.2561    436.8015 300.1224668 +22.5723810     3807.241     69.39754      1.273     2.26    -10.71998     19.59913     513.3452        27     1.098     0.958 -69.13   0
       160    991.9961    431.1491 300.3627255 +22.8003256     908.9421     69.46835      1.168     2.00    -10.41963     19.59913     175.2042        11     0.797     0.746  41.29   0
       161    367.0547    430.9547 300.1681458 +22.6129407     2321.126     69.50373      1.299     2.14    -10.06132     19.59913     359.7374        21     0.983     0.938  49.81   0
       162    611.1350    427.4803 300.2452323 +22.6851353      8905.83     69.57444      1.289     2.33    -10.17393     19.59913     1193.525        36     1.130     1.047  87.05   0
       163    627.8027    428.1570 300.2502023 +22.6903265     414.2439     69.48605      2.117     3.73    -10.17616     19.59913     48.24036         5     1.021     0.434 -20.13   2
       164    944.3412    409.8833 300.3547738 +22.7799374     277.2993     69.57444      1.031     2.94    -10.47472     19.59913     50.04021         7     0.840     0.694 -85.36   0
       165    166.2156    407.9879 300.1131669 +22.5460990     1030.491     69.41525      1.371     2.40    -10.59551     19.59913     155.7315        14     0.972     0.883  -5.80   0
       166    551.8077    396.9014 300.2366967 +22.6585671     3205.995     69.34438      1.321     2.34    -9.720559     19.59913      456.621        25     1.075     0.995 -82.76   0
       167    965.4075    397.0410 300.3655153 +22.7825570     537.9537     69.48605      1.067     2.02    -10.45272     19.59913     93.48948         8     0.717     0.657 -26.33   0
       168    266.3607    396.4435 300.1480451 +22.5728311     265.9646     69.55677      1.112     3.20    -10.16722     19.59913     50.31301         5     0.727     0.486  11.01   0
       169    665.5196    387.0389 300.2753063 +22.6898223     323.7061     69.43295      1.067     3.62    -10.04901     19.59913      41.6243         6     0.785     0.482  77.66   0
       170    756.1724    385.9994 300.3038826 +22.7166931     631.7216     69.43295      1.383     2.46    -10.17544     19.59913     88.73177         8     0.906     0.573  23.68   0
       171    458.3731    383.2392 300.2120558 +22.6266291      2958.69     69.48605      1.302     2.39    -9.748527     19.59913     377.7214        25     1.073     0.999  54.16   0
       172    850.2517    377.3808 300.3360001 +22.7424074     746.4066     69.45065      1.268     2.53    -10.31416     19.59913     90.82815        12     0.892     0.837 -34.12   0
       173    947.2582    377.4973 300.3662048 +22.7715027     275.4973     69.53909      1.188     3.03    -10.46291     19.59913     52.31009         6     0.774     0.500  -0.39   0
       174    443.0921    371.6540 300.2110643 +22.6187206     182.8018     69.52142      0.998     3.40    -9.751613     19.59913     37.81455         5     0.954     0.351  45.71   0
       175    823.4175    364.9643 300.3316700 +22.7307991     335.8987     69.46835      1.404     2.73    -10.16312     19.59913     46.62226         8     0.823     0.663  -1.58   0
       176    346.0893    362.4748 300.1838708 +22.5869955     1293.359     69.62742      1.365     2.65    -9.877072     19.59913     172.3976        16     1.019     0.912  57.00   0
       177     64.4637    360.0346 300.0971293 +22.5018090      344.345     69.46835      1.057     2.69    -10.31756     19.59913     68.57695         6     0.762     0.494  83.26   0
       178    315.3925    352.0147 300.1777218 +22.5747862     14444.25     69.37982      1.308     2.27    -9.886703     19.59913     1841.215        49     1.168     1.105  79.52   0
       179    849.8582    349.1586 300.3450449 +22.7341789      534.342     69.46835      1.207     2.76    -10.19279     19.59913     93.84854         9     0.872     0.647  26.95   0
       180     11.7324    340.0860 300.0872301 +22.4802622      2317.76     69.55677      1.274     2.24     -10.1317     19.59913     350.9102        23     1.068     0.953  70.15   0
       181    725.6637    331.5888 300.3120513 +22.6919174     996.1197     69.41525      1.399     2.09    -9.968495     19.59913      142.221        13     0.909     0.783   7.23   0
       182    941.2173    324.1523 300.3816485 +22.7543593     334.7126     69.50373      1.230     2.10    -10.30888     19.59913     64.74355         6     0.702     0.593 -29.24   0
       183    387.6478    316.4131 300.2117565 +22.5862342     1097.994     69.48605      1.540     2.48    -9.670793     19.59913     135.4976        18     1.367     0.802  74.56   0
       184    826.5788    308.8769 300.3508720 +22.7156277     320.4461     69.46835      1.093     3.06    -9.931414     19.59913     40.63137         7     0.838     0.604  13.37   0
       185    708.6923    306.6202 300.3148733 +22.6796576     191.5202     69.39754      1.123     4.26     -9.91852     19.59913     34.43482         7     0.878     0.657 -66.96   0
       186    463.3375    295.7061 300.2420293 +22.6029822     562.7974     69.55677      1.312     3.18    -9.527535     19.59913     63.53036        10     0.921     0.708  43.54   0
       187    708.2416    287.4053 300.3209726 +22.6740014     1122.769     69.48605      1.357     2.65    -9.885199     19.59913     146.2117        15     1.054     0.782  78.19   0
       188    969.3965    281.6834 300.4042277 +22.7505898     1484.669     69.39754      1.100     2.07     -10.1909     19.59913     255.9066        14     0.876     0.785 -70.81   0
       189    416.8940    271.5014 300.2354380 +22.5821071     263.2753     69.64507      1.159     2.48    -9.497581     19.59913     40.25209         6     0.750     0.500   0.25   0
       190     91.4155    265.3160 300.1362585 +22.4827181     726.9598     69.43295      1.567     3.52    -10.06143     19.59913     68.77316        11     1.012     0.736 -50.35   0
       191    122.0014    265.5136 300.1456971 +22.4919503     293.0874     69.39754      1.281     3.73    -10.02076     19.59913     35.94548         6     0.804     0.499   3.24   0
       192    779.5745    248.8905 300.3557022 +22.6843054     283.6323     69.39754      1.440     2.82    -9.664553     19.59913     45.07705         6     0.789     0.490 -84.22   0
       193    877.8756    237.7753 300.3899483 +22.7105561     998.6426     69.48605      1.299     2.47    -9.615174     19.59913      155.932        14     0.902     0.891  71.85   0
       194    296.3903    235.3520 300.2096939 +22.5355955     935.9818     69.48605      1.255     2.49    -9.562193     19.59913     126.9107        15     0.951     0.892  -5.67   0
       195    374.6281    230.3486 300.2356502 +22.5576174     479.0847     69.48605      1.553     3.62    -9.295877     19.59913     60.82841         9     1.049     0.912  -0.88   0
       196    776.2241    229.5089 300.3609505 +22.6777311     203.8008     69.39754      1.165     4.17    -9.566298     19.59913      44.3755         6     0.906     0.603 -68.95   0
       197    191.4436    222.8574 300.1811243 +22.5005362     297.1265     69.45065      1.281     3.85     -9.58657     19.59913      45.1253         8     0.964     0.711 -10.53   0
       198    729.0072    219.3279 300.3495444 +22.6606597     757.1757     69.43295      1.246     2.28    -9.510584     19.59913     130.6857        11     0.902     0.694  67.46   0
       199    793.6572    218.7440 300.3698775 +22.6798592     291.9363     69.53909      1.198     3.94    -9.512847     19.59913     45.64747         6     0.939     0.474  88.59   0
       200    212.9687    216.0086 300.1900378 +22.5050256      184.374     69.46835      1.242     3.23    -9.516258     19.59913     37.79143         7     0.892     0.698  82.05   0
       201   1000.4459    211.6199 300.4366592 +22.7397414     368.0459     69.52142      1.114     2.53    -9.905653     19.59913     66.44238         7     0.862     0.487  81.93   0
       202    733.3532    210.7865 300.3536710 +22.6595069     359.5292     69.46835      1.335     2.29    -9.470995     19.59913     47.33051         6     0.695     0.592  21.81   0
       203    653.6364    210.0260 300.3290871 +22.6354045     546.3693     69.48605      1.257     2.76    -9.476865     19.59913     89.94919        11     0.965     0.712  16.42   0
       204    848.9539    201.4507 300.3927251 +22.6914511     580.7996     69.50373      1.182     2.90    -9.394518     19.59913     99.03246        10     1.004     0.629  68.22   0
       205    579.9255    202.0357 300.3087283 +22.6110210     461.1747     69.41525      1.327     2.29    -9.426478     19.59913     62.86597         8     0.776     0.650  44.31   0
       206    861.0998    200.5416 300.3968061 +22.6948274     396.3122     69.55677      1.293     4.01     -9.38494     19.59913     48.99353         8     0.964     0.609 -69.39   0
       207   1021.6511    191.3417 300.4498561 +22.7402586     807.4109      63.7668      1.199     2.33    -9.703127     19.59913     133.2423        12     0.901     0.816 -31.80  16
       208    977.7338    190.7215 300.4363595 +22.7269311     572.8722     69.57444      1.378     2.43    -9.620687     19.59913      96.7441         9     0.981     0.536  42.81   0
       209    211.6984    184.3174 300.1999291 +22.4955466       320.76     69.62742      1.178     3.16    -9.356849     19.59913     53.06599         5     0.899     0.430 -78.35   0
       210    134.9206    183.6638 300.1762799 +22.4723332     69.78139     69.57444      1.128     3.41    -9.416183     19.59913     32.17519         5     0.793     0.423  18.18   0
       211     73.7740    178.9374 300.1588161 +22.4526362     1087.154     69.46835      1.269     2.41    -9.409863     19.59913     175.4581        13     0.900     0.827  65.75   0
       212    897.0439    175.5307 300.4161296 +22.6984010     307.1324     69.43295      1.106     2.39    -9.348128     19.59913     60.90094         8     0.824     0.635  59.15   0
       213    231.1294    172.3411 300.2098560 +22.4979349     2787.397     69.50373      1.321     2.42    -9.297844     19.59913     343.3163        20     1.023     0.926 -81.53   0
       214     15.2181    166.5299 300.1446546 +22.4315103     652.3008     69.50373      1.263     3.33    -9.266304     19.59913     76.79861        12     1.005     0.818 -39.63   0
       215    214.5969    163.5019 300.2075854 +22.4904396     318.0269     69.37982      1.081     2.97    -9.256088     19.59913     47.41479         6     0.885     0.433 -72.67   0
       216    875.1146    153.6017 300.4164104 +22.6855287     1650.948     69.39754      1.181     2.21    -9.192072     19.59913     250.5521        16     0.886     0.848  36.02   0
       217    978.7764    152.3160 300.4491500 +22.7161983     1316.368     69.45065      1.199     2.07    -9.285999     19.59913     214.7672        16     0.945     0.840 -42.36   0
       218    424.4092    148.7254 300.2776290 +22.5490973     244.4165     69.46835      1.199     3.68     -9.18965     19.59913     39.63169         6     0.705     0.668  20.92   0
       219    348.8148    140.5964 300.2567513 +22.5241029     368.9723     69.32665      1.396     3.53    -9.089478     19.59913     33.95408         5     0.949     0.379 -84.31   0
       220    114.8953    137.7970 300.1849420 +22.4531609     284.9458     69.37982      1.088     2.20    -9.224717     19.59913     51.07316         7     0.707     0.645   0.56   0
       221    475.9213    136.3222 300.2976825 +22.5609730     796.4422     69.57444      1.321     2.55    -9.123316     19.59913     106.4754        15     1.105     0.852 -15.36   0
       222    250.1400    116.1597 300.2339968 +22.4875031     3010.392     69.46835      1.347     2.55    -9.124555     19.59913     376.3058        25     1.047     1.037  50.28   0
       223    101.4617    115.5971 300.1879713 +22.4427593     521.1548     69.45065      1.665     3.27    -9.214836     19.59913     65.15511         6     1.030     0.591  46.80   0
       224    879.4053    113.2777 300.4308337 +22.6752185      219.069     69.37982      1.229     3.46    -9.000922     19.59913     27.51224         5     0.763     0.453  72.05   0
       225    496.0650    101.4686 300.3152607 +22.5569958     3061.944     69.52142      1.356     2.43    -9.084647     19.59913     395.7557        24     1.071     0.993  79.30   0
       226    382.2776    101.3291 300.2799011 +22.5228545     349.0422     69.57444      1.332     2.98    -8.938223     19.59913     58.30305         5     0.945     0.381  74.22   0
       227    748.7578     90.9513 300.3973609 +22.6296744     437.7563     69.46835      2.054     3.97    -9.043004     19.59913     44.05049         6     1.114     0.428 -89.36   0
       228    840.9911     89.8474 300.4264618 +22.6569782     279.1245     69.48605      1.227     2.85    -8.816776     19.59913     46.19099         6     0.874     0.465  37.70   0
       229    624.5112     81.6160 300.3616888 +22.5897748      2938.68     69.39754      1.312     2.36    -9.061349     19.59913     392.5595        28     1.103     1.078  42.57   0
       230    399.4737     80.4820 300.2920140 +22.5220196     649.0947     69.57444      1.293     3.19    -8.808941     19.59913     82.56543        13     1.049     0.828  81.72   0
       231    665.4498     78.7769 300.3753593 +22.6012222      391.479     69.46835      1.395     2.52     -8.98154     19.59913     63.70413         6     0.824     0.477  46.27   0
       232    681.6445     74.3079 300.3818533 +22.6047884     398.7874     69.45065      1.764     3.99    -8.914557     19.59913     42.10162         8     0.942     0.762 -62.16   0
       233    147.8186     73.2411 300.2161168 +22.4445002     297.3423     69.48605      1.368     3.39    -9.010412     19.59913      37.6199         6     0.774     0.535 -45.89   0
       234    990.6158     70.8485 300.4792779 +22.6963102     184.7779     69.50373      1.238     4.60    -9.092805     19.59913       27.678         5     0.846     0.711 -22.39   0
       235    668.6098     66.3451 300.3803767 +22.5985952      1258.14     69.46835      1.330     2.46    -8.846044     19.59913     160.0948        16     0.998     0.879  62.62   0
       236    309.5983     67.1364 300.2683890 +22.4912481     173.9525     69.46835      1.209     5.17    -8.726352     19.59913     31.18238         5     1.013     0.744 -22.26   0
       237    683.7633     65.4788 300.3853776 +22.6028850      561.659     69.41525      2.085     5.18    -8.819835     19.59913     42.38247        10     1.210     0.626  53.36   0
       238    754.8803     57.6755 300.4100641 +22.6219410     694.3238     69.57444      1.307     2.69    -8.698471     19.59913     101.6876        14     0.939     0.867  26.05   0
       239     71.3809     50.6675 300.1996897 +22.4150984      258.721     69.45065      1.388     3.77    -9.129116     19.59913     36.86061         6     1.089     0.677  70.96   0
       240    498.8304     50.1311 300.3327762 +22.5430728      595.835     69.45065      1.361     2.53    -9.079135     19.59913     73.03551        10     0.854     0.735   9.09   0
       241    402.3031     48.4509 300.3032851 +22.5136654     177.0245     69.53909      1.064     3.18    -8.598576     19.59913     45.51896         7     0.916     0.512  61.15   0
       242    174.0712     38.7393 300.2354670 +22.4424644     1900.522     69.50373      1.366     2.23     -8.71199     19.59913     263.9116        20     1.071     0.914  66.72   0
       243    741.8673     38.9721 300.4120769 +22.6126664     268.5645     69.45065      1.299     3.88    -8.537425     19.59913     46.93414         7     1.007     0.539 -34.22   0
       244    289.8008     30.9044 300.2739853 +22.4749068     592.9277     69.34438      1.347     2.57    -8.493323     19.59913     99.27754        13     0.958     0.874  64.48   0
       245    735.2137     30.7401 300.4126742 +22.6083069     251.7043     69.43295      1.117     2.66    -8.461992     19.59913      68.1502         8     0.859     0.629 -66.79   0
       246    773.1812     25.4952 300.4262053 +22.6181685     282.9825     69.37982      1.491     4.14    -8.359508     19.59913     48.12458         7     1.088     0.449  50.80   0
       247    456.9043     24.9571 300.3278942 +22.5232766     1108.808     69.48605      0.458   -17.25    -8.841745     19.59913      753.384         6     0.458     0.282   7.19   0
       248    793.0081     22.0812 300.4334911 +22.6231236     1055.127     69.41525      1.239     2.37    -8.314006     19.59913     147.2109        11     0.876     0.714 -89.27   0
       249    498.4624     20.7834 300.3421810 +22.5345288     161.4225     69.45065      1.274     4.55    -9.079636     19.59913     35.44036         5     0.805     0.732  17.11   0
       250    176.6911     17.8492 300.2430567 +22.4372508     492.9597     69.46835      1.370     2.87    -8.537897     19.59913     63.49134        10     0.885     0.767  55.66   0
       251    968.1381     15.3274 300.4902783 +22.6736103     242.3965     69.50373      0.945     1.42    -8.723373     19.59913     75.39636         5     0.618     0.447  19.68   0
