#   1 NUMBER                 Running object number                                     
#   2 X_IMAGE                Object position along x                                    [pixel]
#   3 Y_IMAGE                Object position along y                                    [pixel]
#   4 ALPHA_J2000            Right ascension of barycenter (J2000)                      [deg]
#   5 DELTA_J2000            Declination of barycenter (J2000)                          [deg]
#   6 FLUX_APER              Flux vector within fixed circular aperture(s)              [count]
#   7 FLUXERR_APER           RMS error vector for aperture flux(es)                     [count]
#   8 FLUX_RADIUS            Fraction-of-light radii                                    [pixel]
#   9 FWHM_IMAGE             FWHM assuming a gaussian core                              [pixel]
#  10 BACKGROUND             Background at centroid position                            [count]
#  11 THRESHOLD              Detection threshold above background                       [count]
#  12 FLUX_MAX               Peak flux above background                                 [count]
#  13 ISOAREA_IMAGE          Isophotal area above Analysis threshold                    [pixel**2]
#  14 A_IMAGE                Profile RMS along major axis                               [pixel]
#  15 B_IMAGE                Profile RMS along minor axis                               [pixel]
#  16 THETA_IMAGE            Position angle (CCW/x)                                     [deg]
#  17 FLAGS                  Extraction flags                                          
         1    164.4423     14.6511 300.2567372 +22.4136577     647.0643      70.1122      1.665     4.99    -2.227837     19.77575     62.05421        16     1.212     1.075 -40.26   0
         2    942.2643   1010.3451 300.1752149 +22.9326645     1128.801     70.14789      1.159     2.11    -4.664029     19.77575     202.2856        12     0.861     0.761  70.50   0
         3    111.9736   1021.7888 299.9131806 +22.6866610     664.7023     63.79448      6.677     7.68     5.181899     19.77575     40.00175        12     1.660     0.995  28.23  25
         4    103.2516   1020.9432 299.9107476 +22.6837980     1267.101     66.97178      5.646     9.97     5.105113     19.77575     65.03034        25     2.302     1.205 -80.92  27
         5     94.4180   1022.9630 299.9073469 +22.6817219     1137.925     58.34348      7.733    11.71     4.894416     19.77575     47.91778        31     2.856     1.337  -3.27  27
         6     74.5467   1021.5685 299.9016310 +22.6753512     1523.103     64.69057      6.447    18.16     2.140604     19.77575     50.37719        57     4.146     2.211  67.17  27
         7     83.9940   1007.7384 299.9090674 +22.6742300     1552.784     70.07649     11.261    13.23     2.260893     19.77575     43.34511        42     3.111     1.565 -33.22  19
         8     89.9384   1001.4033 299.9129758 +22.6742022     1988.121     70.07649      9.422    22.58     2.355228     19.77575     59.47549       118     4.990     2.837  -5.52  19
         9     91.9725   1014.8767 299.9092205 +22.6786716     2318.243     70.09435     13.165    21.14     3.871683     19.77575     56.74113       105     4.926     2.519 -24.94  19
        10    440.5720   1006.7158 300.0202044 +22.7810497     146.4757     70.09435      1.166     3.95    -5.349123     19.77575     34.48531         5     1.034     0.431  75.04   0
        11    731.1796    999.2814 300.1130584 +22.8661570     491.3181     70.05863      1.928     4.25    -4.582839     19.77575     54.32536         8     1.215     0.630  48.70   0
        12    108.6962    999.8771 299.9192974 +22.6794015     1047.492     70.21922      4.443     4.32     3.023079     19.77575     42.44394         5     1.136     0.619  41.82   2
        13     83.2991   1018.3828 299.9053858 +22.6770692     2054.718     70.00502      9.399    16.81     2.940125     19.77575     45.88148        73     3.139     2.501 -78.81  19
        14    428.6149   1018.8031 300.0125500 +22.7809228      253.987     69.93348      1.350     3.80    -5.349437     19.77575     43.75983         9     1.009     0.732  68.78  16
        15    543.1262    994.6153 300.0560448 +22.8083733     243.4331     70.09435      1.355     4.05    -5.409168     19.77575     35.88696         6     0.746     0.636  45.66   0
        16    766.0068    993.3146 300.1258470 +22.8748972     507.5034      70.0229      1.131     1.90    -4.491243     19.77575     108.4851         7     0.688     0.617   7.94   0
        17    788.2233    987.2186 300.1347513 +22.8798154     6469.469     70.09435      1.245     2.14    -4.473615     19.77575     995.5475        36     1.084     1.049  59.74   0
        18    979.2066    986.7386 300.1944171 +22.9369729     315.0121     70.05863      1.237     2.65    -5.007449     19.77575     54.99199         5     0.811     0.442 -46.80   0
        19    100.0289    979.2876 299.9233094 +22.6709010     355.6784     70.09435      1.303     4.26    0.9446169     19.77575     45.87503         7     1.150     0.525  39.88   0
        20    493.1624    975.5927 300.0466951 +22.7879205     304.7303      70.1122      1.589     4.30    -5.312038     19.77575     30.16552         6     0.762     0.691  58.78   0
        21    796.6176    969.3498 300.1431841 +22.8772091     908.6832     70.09435      1.391     2.70    -4.465281     19.77575     102.7514        14     0.968     0.878 -57.21   0
        22    649.1633    967.0449 300.0980207 +22.8322988     229.7562     70.13004      1.228     4.55    -5.255478     19.77575     33.18539         7     0.982     0.600 -71.55   0
        23    834.8871    962.7202 300.1572637 +22.8867896     503.0136     70.25484      1.293     2.30    -4.442549     19.77575     60.03671         7     0.698     0.637  15.34   0
        24    883.1669    954.0206 300.1751384 +22.8987778      406.415     70.09435      1.377     2.87    -4.430223     19.77575     54.99983         9     0.910     0.664  73.75   0
        25    734.7557    952.9023 300.1292731 +22.8539298     383.8232     70.09435      1.442     4.26    -4.739636     19.77575     55.80684        11     1.222     0.645 -18.41   0
        26    746.1776    950.0986 300.1337427 +22.8565530     324.3337      70.0229      1.312     3.64    -4.703721     19.77575     47.98029         8     1.086     0.587  46.61   0
        27    447.2389    949.6162 300.0408684 +22.7666871     2462.898      70.1122      1.387     2.42    -5.284698     19.77575     273.4415        24     1.058     1.053 -30.95   0
        28    108.9149    938.3824 299.9393846 +22.6618558     128.3704     70.05863      1.080     3.86    -3.081709     19.77575     35.73782         6     0.880     0.584  85.69   0
        29    172.5480    935.1519 299.9601994 +22.6800470     340.5765     70.13004      1.121     2.90    -3.174471     19.77575     54.86923         8     0.832     0.669 -37.27   0
        30    149.7618    932.5729 299.9539613 +22.6724632     907.6913      70.1122      1.361     2.57    -3.364897     19.77575     120.1384        16     0.987     0.894 -23.68   0
        31   1021.2613    921.0239 300.2289238 +22.9307282     1094.369     65.78401      1.168     2.08    -4.438776     19.77575     200.2829        12     0.898     0.759 -23.81  24
        32     23.9710    922.1045 299.9183096 +22.6316719     212.0283     70.04076      1.274     3.77    -4.779214     19.77575       37.911         5     0.836     0.488 -66.91   0
        33    975.4700    919.5099 300.2151409 +22.9165615      1169.33     70.25484      1.220     2.31    -4.389778     19.77575      153.796        14     0.957     0.807 -69.25   0
        34    181.6721    914.1234 299.9698783 +22.6767639     233.8797     70.18356      1.501     5.88    -3.789204     19.77575     31.96793         8     1.552     0.626 -77.49   0
        35    758.8474    912.8085 300.1498278 +22.8496591     280.4832      70.1122      1.455     5.36    -4.605861     19.77575     41.54472         8     1.313     0.676  74.83   0
        36    627.1251    907.6428 300.1104989 +22.8086516     2738.996     70.07649      1.371     2.62    -4.893055     19.77575     294.4738        22     1.032     1.001  74.58   0
        37    429.6452    904.7921 300.0499878 +22.7485571     317.3255      70.1122      1.381     2.39    -5.019841     19.77575     55.44355         5     0.721     0.440  70.75   0
        38    177.3642    901.7631 299.9725630 +22.6719289     772.5748     70.16573      1.354     3.19    -3.876852     19.77575     100.7516        14     1.155     0.785 -14.82   0
        39    647.5560    899.6383 300.1194637 +22.8124875     388.1004     70.18356      1.436     3.96    -4.695944     19.77575     53.72217         9     1.071     0.653  35.18   0
        40    196.3843    898.7966 299.9794370 +22.6767921     215.1421     69.95137      1.233     3.36     -3.88021     19.77575     37.14868         5     0.757     0.432 -68.96   0
        41    803.1910    887.3071 300.1719398 +22.8556474     2342.751      70.0229      1.317     2.45    -4.325923     19.77575     307.0486        22     1.056     0.950  21.64   0
        42   1019.9086    887.2782 300.2394870 +22.9206375      701.973     69.73635      1.200     2.36    -4.180169     19.77575      113.115        11     1.074     0.623  59.20  16
        43    520.1665    879.6609 300.0863233 +22.7685265     382.4949      70.1122      1.521     4.09    -4.505908     19.77575     35.20235         6     0.743     0.644  65.74   0
        44    166.6856    878.0318 299.9769691 +22.6619228     601.5499     70.09435      1.251     2.86    -4.063492     19.77575     83.35059        13     1.001     0.838  59.16   0
        45    316.3001    870.1799 300.0260132 +22.7046051      30698.7     70.00502      1.405     2.51    -4.795373     19.77575     3386.437        75     1.328     1.228  66.44   0
        46    574.2556    868.8519 300.1066705 +22.7816614     979.4637     70.13004      1.600     3.14    -4.343338     19.77575     89.32337        14     0.999     0.887  38.37   0
        47    987.0785    867.8029 300.2355905 +22.9052034     331.8391     70.00502      1.206     2.02    -4.034546     19.77575     78.05421         5     0.719     0.472  60.29   0
        48    244.6332    868.7084 300.0042196 +22.6826623     319.4022     70.05863      1.613     3.88    -4.293296     19.77575     34.86093         5     0.984     0.438  -7.99   0
        49    602.8095    864.9298 300.1168328 +22.7891059     409.9207     70.07649      1.355     2.24    -4.284113     19.77575     68.88871         7     0.694     0.654  69.52   0
        50      2.3858    864.7608 299.9302711 +22.6087641     493.3255     60.05578      1.381     3.08    -4.787657     19.77575     60.49332         9     0.863     0.743  71.06  24
        51    613.9984    863.0637 300.1209224 +22.7919285      380.212     70.09435      1.283     4.05    -4.285012     19.77575     56.17199         9     0.914     0.755 -82.47   0
        52    719.5549    859.1666 300.1550512 +22.8224836     304.9176     70.14789      1.417     3.11    -4.310129     19.77575     41.38251         6     0.737     0.630  39.30   0
        53    365.9581    847.3925 300.0488653 +22.7129838     18040.85      70.1122      1.442     2.66    -4.454424     19.77575     2032.213        56     1.291     1.195  64.58   0
        54    757.1489    849.5902 300.1698747 +22.8310150      440.565      70.1122      1.473     4.21    -4.328999     19.77575      47.2515         9     0.934     0.729  19.76   0
        55    380.0431    847.8410 300.0530985 +22.7173411     1008.945     70.18356      1.337     2.88    -4.456009     19.77575     118.5104        15     1.066     0.817 -83.79   0
        56    888.9659    843.0329 300.2130724 +22.8686723      1788.29     70.16573      1.387     2.36    -4.144958     19.77575     246.8998        21     1.034     0.993  64.75   0
        57    376.6658    841.5931 300.0540815 +22.7145362     393.4458     70.09435      1.881     4.58    -4.398211     19.77575     44.82404         7     1.113     0.736  27.86   0
        58    646.9968    839.1858 300.1389639 +22.7949823     569.3056     69.93348      1.508     3.77    -4.283126     19.77575     52.60524        11     1.017     0.872 -31.70   0
        59    248.3995    839.1718 300.0150011 +22.6753295     449.5918     70.05863      1.238     3.30    -4.248357     19.77575     58.19929         9     0.903     0.798 -59.11   0
        60     53.1541    834.6785 299.9558194 +22.6154003     303.5328     70.07649      1.268     3.78    -4.660185     19.77575     40.06616         6     0.754     0.621  50.29   0
        61    494.2251    833.8151 300.0931725 +22.7475955     577.6534      70.1122      1.514     2.47    -4.095973     19.77575     70.00896         9     0.830     0.703 -86.03   0
        62    895.1274    830.6481 300.2190227 +22.8669661     385.8532     70.09435      1.453     4.32     -4.11488     19.77575     41.93285         7     0.830     0.640  11.42   0
        63    440.2071    829.6205 300.0777358 +22.7301789     96.35958     70.05863      1.224     3.77    -4.174589     19.77575     28.96581         5     1.031     0.397  85.00   0
        64    872.8621    825.1826 300.2138633 +22.8587202     243.4139     70.07649      1.276     3.90    -4.172001     19.77575     29.73716         6     0.754     0.578 -40.06   0
        65    539.5259    811.9725 300.1143729 +22.7549281     363.3867     70.09435      1.438     4.25    -3.980473     19.77575     33.22841         6     0.979     0.526 -13.69   0
        66    955.2547    808.1378 300.2450869 +22.8785360     2616.715     70.14789      1.267     2.18    -4.013429     19.77575     368.8123        23     1.003     0.974  66.81   0
        67    560.7921    809.4757 300.1218022 +22.7605939     788.8101     70.05863      1.514     3.57    -4.042107     19.77575     81.23597        15     1.078     0.928 -17.11   0
        68    943.6733    799.5984 300.2442556 +22.8726123     951.9304     70.00502      1.251     2.30    -4.014899     19.77575     135.0002        13     0.898     0.792 -86.06   0
        69    307.2107    793.8380 300.0480279 +22.6799957     471.1485     70.09435      1.442     3.87     -4.12563     19.77575     49.76823        12     0.969     0.864 -13.32   0
        70    770.1569    791.0400 300.1929776 +22.8181191     1432.436     70.18356      1.439     2.75    -4.373668     19.77575     156.9696        19     1.080     0.936  88.12   0
        71    974.9510    789.6489 300.2572424 +22.8791346     1016.415     70.13004      1.365     2.48     -4.03265     19.77575      140.953        16     1.028     0.868  53.09   0
        72    155.6341    777.7107 300.0061768 +22.6298598     319.9222     70.05863      1.270     2.85     -4.13542     19.77575      44.1941         5     0.720     0.455  73.45   0
        73    853.1472    776.7443 300.2234809 +22.8389072     237.0476     70.13004      1.168     4.33     -4.14066     19.77575     28.40514         5     0.852     0.626 -42.34   0
        74    888.5239    767.9009 300.2373810 +22.8469778     84802.27     70.21922      1.404     2.47    -4.100577     19.77575     9736.642       118     1.359     1.294  73.31   0
        75    740.8062    767.9630 300.1913446 +22.8026940      442.622     70.13004      1.639     4.58    -4.440925     19.77575      42.2916         8     0.985     0.604 -27.37   0
        76    574.9062    756.8898 300.1433019 +22.7497474     845.1003     70.25484      1.415     3.64    -4.061814     19.77575     84.24731        16     1.162     0.911  70.42   0
        77    755.9954    754.0701 300.2005943 +22.8032635     5365.358     70.05863      1.458     2.73    -4.315481     19.77575     580.9538        36     1.202     1.167  87.40   0
        78    257.7018    749.5045 300.0470625 +22.6524242     2827.441     70.27266      1.508     2.79    -4.058618     19.77575     295.8896        26     1.213     1.019  63.27   0
        79    339.5559    747.5093 300.0731526 +22.6764254     596.0994     70.09435      1.502     4.20    -4.047509     19.77575     69.68896        12     1.110     0.841  17.50   0
        80    215.6438    745.6847 300.0352363 +22.6387017     195.0231     70.05863      1.375     4.66    -4.050222     19.77575     31.61291         6     0.973     0.847 -50.49   0
        81    548.1171    742.7281 300.1395724 +22.7376474     320.7394     70.21922      1.414     2.47    -3.934557     19.77575     50.07607         7     0.727     0.644  -6.64   0
        82    539.4526    735.0538 300.1393727 +22.7328465     1888.996     70.13004      1.511     3.22    -3.927637     19.77575     191.3685        21     1.197     0.968  60.63   0
        83    530.0808    728.8479 300.1384753 +22.7282545     928.7544      70.1122      1.719     4.35    -3.927016     19.77575     86.25743        18     1.302     1.011  62.96   0
        84    923.1254    726.5317 300.2616216 +22.8454781      180.266     70.16573      1.288     5.40    -4.096954     19.77575      32.0345         7     0.979     0.841  27.59   0
        85    193.2073    725.3354 300.0348841 +22.6261328     369.4211     70.07649      1.596     4.30    -4.041539     19.77575     41.63588         6     0.902     0.657  86.95   0
        86    207.4620    723.5779 300.0398843 +22.6299091     326.0381     70.07649      1.244     3.99    -4.037696     19.77575     51.32079         6     0.992     0.458  54.90   0
        87    233.6505    721.0037 300.0488584 +22.6370340     325.9751     70.09435      2.047     3.46    -4.028253     19.77575      44.0168         5     0.842     0.410 -70.62   0
        88    976.4479    719.7572 300.2804458 +22.8595192     339.7732     70.13004      1.588     4.05    -4.125835     19.77575     35.79671         7     0.933     0.555 -33.39   0
        89    454.3995    718.5209 300.1182913 +22.7025827     1049.643     69.96926      1.641     3.34     -3.92384     19.77575     108.3474        20     1.182     1.062  40.98   0
        90    108.6525    713.7621 300.0123842 +22.5974264     11337.18      70.1122      1.478     2.62    -4.052099     19.77575     1289.132        49     1.310     1.179  77.86   0
        91     29.4345    715.3119 299.9872830 +22.5740796     371.2827     70.07649      1.240     3.54    -3.876373     19.77575     45.91756         8     0.936     0.626  69.12   0
        92    539.6072    713.9628 300.1462806 +22.7268435       548.16      70.1122      1.625     5.06    -3.870386     19.77575     44.15329        11     1.046     0.825  29.26   0
        93    957.2220    699.6678 300.2809867 +22.8479880      569.239     70.09435      1.267     2.75    -4.114953     19.77575     73.42746        12     0.905     0.849 -86.36   0
        94     54.8782    698.0451 300.0007973 +22.5767738     946.3773     70.07649      1.922     5.31    -3.944957     19.77575     68.45483        18     1.611     0.785  81.52   0
        95    897.9821    692.4500 300.2648707 +22.8281562     451.1592     70.09435      1.401     4.80    -4.053292     19.77575     44.08283         9     0.921     0.708 -69.76   0
        96    459.8739    686.4581 300.1304212 +22.6950302     480.5715     70.13004      2.057     5.63    -3.810626     19.77575     37.00504         8     1.160     0.771  23.49   0
        97    625.2103    682.9002 300.1830225 +22.7436141     382.9548     70.00502      1.558     4.32    -3.882372     19.77575     41.89297         6     1.032     0.668  73.71   0
        98    504.0562    682.8856 300.1453266 +22.7072628     514.2137     70.18356      1.857     6.09     -3.79965     19.77575     37.32276        11     1.083     0.965  -4.10   0
        99    937.5098    677.8907 300.2819248 +22.8358265     1806.057     70.25484      1.433     2.78    -4.104071     19.77575     200.1791        19     1.039     0.974  88.63   0
       100    469.6342    678.1812 300.1361486 +22.6955851     1021.938     70.09435      1.508     3.24    -3.782601     19.77575     100.3813        17     1.057     1.004  55.36   0
       101     31.4468    671.8965 300.0020251 +22.5622444     2876.531     70.13004      1.458     2.71    -3.876353     19.77575     297.4446        27     1.157     1.120 -55.17   0
       102    332.8210    664.9344 300.0979130 +22.6507290     5211.493     70.07649      1.575     3.00    -3.941038     19.77575     490.9609        37     1.336     1.162  56.03   0
       103    455.1169    661.8364 300.1369480 +22.6865412     5126.808     70.07649      1.612     3.15      -3.7265     19.77575     423.8819        36     1.340     1.190  81.35   0
       104    951.3513    652.9703 300.2943430 +22.8328206     7011.033      70.1122      1.441     2.71    -3.966321     19.77575     732.9559        40     1.227     1.143  62.60   0
       105    866.7790    655.4410 300.2671827 +22.8081771     995.2247     70.13004      1.405     3.12    -3.866347     19.77575     98.91326        17     1.127     0.877  50.89   0
       106    515.8049    651.3903 300.1592229 +22.7017536     6527.144     69.95137      1.618     3.26    -3.695091     19.77575     550.1513        43     1.341     1.315  25.40   0
       107    685.0867    647.2714 300.2132477 +22.7513503     352.0663     70.21922      1.638     5.58     -3.72641     19.77575     30.30846         6     1.369     0.641 -32.77   0
       108    243.4090    646.9894 300.0759580 +22.6187465     805.2727     69.98714      1.514     3.23    -3.969086     19.77575     83.21497        15     1.082     0.905  38.05   0
       109    447.3564    639.6826 300.1417373 +22.6778585     2461.828     70.05863      1.627     3.23    -3.654893     19.77575     246.7355        25     1.236     1.100  65.60   0
       110    790.2142    639.3702 300.2485552 +22.7806079     603.8574      70.1122      1.667     4.11    -3.741966     19.77575     50.45634        12     1.076     0.956 -67.59   0
       111    425.9854    637.9720 300.1356469 +22.6709554     800.5355      70.1122      1.721     4.05    -3.648384     19.77575     67.16524        12     1.107     0.772  38.75   0
       112    180.0168    637.7607 300.0592625 +22.5970711     445.3752      70.1122      1.606     3.37    -3.998321     19.77575     56.75047        10     1.014     0.842 -11.07   0
       113    867.1832    634.9674 300.2739658 +22.8024207     918.7012     70.07649      1.739     4.09    -3.752131     19.77575     77.87108        16     1.208     0.955 -41.72   0
       114    563.9505    627.1115 300.1820971 +22.7092319     117133.2     70.09435      1.660     3.31    -3.634947     19.77575     9163.288       158     1.575     1.517  67.62   0
       115    747.7247    631.7703 300.2377925 +22.7656860     289.5533     70.09435      1.243     4.53    -3.710197     19.77575     39.01865         8     0.946     0.616 -88.56   0
       116    250.2168    627.2820 300.0844806 +22.6151399     2136.461     70.05863      1.657     3.34    -3.971071     19.77575     180.6219        28     1.372     1.140  88.77   0
       117    299.2084    610.0540 300.1053072 +22.6249045      213.271     70.09435      1.570     4.36    -3.968897     19.77575     25.79946         5     1.050     0.515  52.86   0
       118    454.6740    607.5500 300.1544598 +22.6708374     1505.737     70.09435      1.771     3.53    -3.549483     19.77575     136.0262        25     1.269     1.209 -73.39   0
       119    426.5516    608.7736 300.1453155 +22.6627506     990.5184      70.1122      0.707     1.13    -3.553994     19.77575     490.2442         5     0.544     0.405  37.36   0
       120    851.4708    593.3060 300.2826148 +22.7857495     1054.566     70.20139      1.556     3.33    -3.561678     19.77575     94.20918        17     1.111     0.980  49.54   0
       121    722.5870    591.1681 300.2431642 +22.7464945     1429.224     70.07649      1.692     3.71     -3.43459     19.77575     115.3358        22     1.261     1.075  56.56   0
       122    510.4517    587.5641 300.1783075 +22.6818374     425.4558      70.1122      1.696     3.74    -3.426763     19.77575     44.30865         6     1.066     0.570  26.33   0
       123    979.9614    584.9106 300.3253897 +22.8218517     787.0595     70.07649      1.389     3.03    -3.611224     19.77575     99.22554        13     0.965     0.908 -48.30   0
       124    851.7337    583.7917 300.2857896 +22.7830967     1250.074     70.09435      1.690     3.52    -3.549554     19.77575     114.1372        20     1.183     1.043  62.60   0
       125    965.8632    583.9657 300.3213018 +22.8173552     431.0557     70.09435      1.886     4.05    -3.611087     19.77575     38.53443         6     0.955     0.490  54.39   0
       126    889.8713    578.6588 300.2993419 +22.7930549     2465.628     70.13004      1.476     2.72    -3.584166     19.77575     270.6908        25     1.154     1.040 -61.99   0
       127    122.4494    569.3110 300.0636309 +22.5601674     605.3143     70.09435      1.590     3.77    -3.571015     19.77575     55.30575        15     1.076     0.954 -39.65   0
       128    981.7176    568.9537 300.3311243 +22.8177952     404.4836     70.05863      1.440     4.35    -3.587137     19.77575     42.34237         9     0.987     0.665  31.96   0
       129    663.5473    549.3189 300.2383844 +22.7167794     301.7809     70.13004      1.576     5.16    -3.017718     19.77575      38.2131         7     0.944     0.799 -28.76   0
       130    977.8133    541.6005 300.3387980 +22.8087691       323.98     69.91558      1.409     4.71    -3.533431     19.77575     37.16423         8     1.043     0.605 -69.47   0
       131    724.3636    541.3011 300.2599263 +22.7327132     485.7021     70.09435      1.634     5.99    -3.241772     19.77575     40.68884        13     1.161     0.869  -7.88   0
       132    881.0686    537.5381 300.3099647 +22.7786086     457.8021     70.14789      1.462     4.22    -3.498403     19.77575     61.52019        12     1.101     0.807  39.60   0
       133    865.4278    534.0481 300.3062252 +22.7729185     267.6876      70.1122      1.347     4.13     -3.46815     19.77575     37.84957         6     0.784     0.622 -45.76   0
       134    609.9258    531.9748 300.2273298 +22.6957218     1933.938      70.1122      1.736     3.91    -2.994262     19.77575     125.4826        23     1.201     1.161  63.39   0
       135    970.5087    530.2387 300.3402136 +22.8033169     352.2188     70.09435      1.550     3.37    -3.459925     19.77575     35.18184         5     0.756     0.435 -66.51   0
       136   1021.2589    510.9429 300.3623072 +22.8129811     704.4637     65.86006      1.337     3.18    -3.326298     19.77575     75.63464        12     0.976     0.805 -64.08  16
       137    979.5651    509.2631 300.3498538 +22.8000058     520.3813     70.09435      1.660     4.87    -3.325596     19.77575     55.90069        14     1.201     0.930 -75.01   0
       138    720.7484    505.8898 300.2703086 +22.7214638     526.3066      70.1122      1.556     3.55    -3.081301     19.77575     52.48256        11     0.953     0.818  47.27   0
       139    224.6900    504.3618 300.1164989 +22.5722326     447.4018     70.07649      1.598     2.46    -3.155982     19.77575     52.42717         5     0.720     0.450 -78.86   0
       140    286.9344    500.1314 300.1372172 +22.5896975     2021.956     70.14789      1.696     3.68    -3.310215     19.77575      149.555        24     1.242     1.136  60.61   0
       141   1019.7117    498.0438 300.3660167 +22.8088120     2585.782     69.89767      1.524     2.94    -3.244259     19.77575     246.8355        27     1.206     1.054  76.73  16
       142    234.2052    494.9677 300.1225080 +22.5723940     4336.589     70.07649      1.636     3.14    -3.158188     19.77575      424.803        36     1.335     1.248  81.08   0
       143    374.7547    489.0979 300.1681031 +22.6128812      2927.78      70.1122      1.839     3.67    -3.110262     19.77575     207.3401        35     1.451     1.268  51.91   0
       144    999.7411    489.2175 300.3626581 +22.8002930     1023.561     70.04076      1.423     3.13    -3.193601     19.77575       98.021        16     1.057     0.922  -9.77   0
       145    618.9921    485.6011 300.2452212 +22.6851306     10448.04     69.91558      1.759     3.55    -2.980652     19.77575     766.0696        56     1.480     1.380  84.08   0
       146    636.4633    485.3004 300.2507573 +22.6902830     545.5113     70.18356      2.570     6.72    -2.975399     19.77575      32.5075        10     1.391     0.912 -20.11   0
       147    952.5725    468.0069 300.3548454 +22.7800670     542.7948     70.09435      1.635     5.56    -3.154444     19.77575     45.04333        12     1.114     0.902  10.59   0
       148    173.8026    466.1078 300.1131173 +22.5459913      1185.58     70.00502      1.604     3.67    -3.257774     19.77575     113.7069        19     1.136     1.096 -55.72   0
       149    559.6901    455.0992 300.2366751 +22.6585937      3721.46     70.25484      1.773     3.58    -2.755947     19.77575     258.9394        34     1.381     1.259  39.54   0
       150    973.2917    455.2198 300.3654590 +22.7826018     750.2296      70.0229      1.683     3.71    -3.147905     19.77575     61.83097        13     1.053     0.870 -68.90   0
       151    132.2000    448.2702 300.1059888 +22.5283909     307.8048     70.00502      1.533     4.33    -3.312629     19.77575      33.5437         6     0.785     0.681 -59.65   0
       152    763.6707    443.7278 300.3038736 +22.7164829     684.4028     70.16573      1.857     6.56    -2.974346     19.77575     39.98618        14     1.278     0.946 -86.38   0
       153    466.3862    441.4201 300.2120900 +22.6266870     3434.495     70.05863      1.808     3.84    -2.708727     19.77575     260.5055        32     1.407     1.215  78.18   0
       154    858.2825    435.4321 300.3360429 +22.7424561     808.2482     70.09435      1.758     4.61     -2.95517     19.77575     67.53859        18     1.287     1.048  46.13   0
       155    955.8055    435.6302 300.3663723 +22.7717351     281.6937     70.09435      1.369     3.21    -3.144523     19.77575     35.09382         6     0.919     0.636 -29.73   0
       156    353.9177    420.7839 300.1838176 +22.5870318     1443.391     70.05863      1.696     3.75     -2.67609     19.77575     116.0562        24     1.258     1.151  59.88   0
       157     72.4542    417.9504 300.0972825 +22.5017658     647.0388     70.13004      1.555     4.28    -3.431379     19.77575     77.63964        13     1.290     0.804 -78.47   0
       158    323.2082    410.1951 300.1777098 +22.5747818     17046.63     69.95137      1.748     3.44    -2.634521     19.77575     1386.771        67     1.531     1.391  68.02   0
       159    857.6960    407.0652 300.3450751 +22.7341327     834.0411     70.20139      1.739     4.88    -2.797332     19.77575     62.64588        16     1.185     1.006 -81.02   0
       160    934.3041    401.8668 300.3706382 +22.7555936     2999.819     70.21922      0.908     3.49    -2.959454     19.77575     849.6834        10     0.911     0.386  57.00   0
       161     19.6425    398.2388 300.0872870 +22.4802631     2925.415     70.18356      1.616     2.87    -3.504738     19.77575     293.6606        31     1.316     1.171  65.85   0
       162    733.7949    389.6866 300.3121237 +22.6920100     1129.194      70.0229      1.718     4.19     -2.78088     19.77575     82.49588        19     1.197     1.088 -40.10   0
       163    948.5287    382.3234 300.3814201 +22.7542405      366.642     70.20139      1.372     3.83    -2.831948     19.77575     37.87149         9     0.964     0.685  61.35   0
       164    395.6114    374.5214 300.2118075 +22.5862631     1170.906     70.07649      1.882     5.01      -2.5355     19.77575     77.86686        22     1.482     1.105  61.34   0
       165    834.4652    366.9063 300.3508807 +22.7156365     384.1946     70.20139      1.581     4.71    -2.532259     19.77575      35.3539         6     0.987     0.670 -34.60   0
       166    471.3916    353.8281 300.2420968 +22.6030497     701.3945     70.09435      1.805     5.27    -2.467469     19.77575     51.08429        15     1.192     1.067 -51.33   0
       167    715.9097    345.4998 300.3209046 +22.6739603     1166.074     70.25484      1.712     4.16    -2.544219     19.77575     84.94259        21     1.237     1.136  41.39   0
       168    976.9720    339.6028 300.4041615 +22.7504862     1682.332     70.04076      1.543     3.48    -2.885158     19.77575     149.7748        22     1.216     1.021  60.07   0
       169     99.4779    324.0295 300.1361743 +22.4829418    -790.1155     70.09435    -18.982     3.57    -3.009084     19.77575     59.28741        14     1.013     0.935  60.93   0
       170    129.9697    324.1339 300.1456108 +22.4921207       368.69     70.09435      1.604     3.79    -2.895437     19.77575     42.66808         6     0.773     0.693 -75.48   0
       171    993.3912    320.2305 300.4155713 +22.7498374     379.5887     70.07649      1.680     5.68     -2.97208     19.77575     37.35218         7     1.384     0.656  -5.41   0
       172    183.9386    316.3639 300.1648988 +22.5060837       286.54      70.1122      1.334     3.36    -2.501113     19.77575     46.16974         7     0.844     0.685  60.00   0
       173    787.6441    307.2268 300.3556743 +22.6844642     279.1245      70.1122      1.432     3.40    -2.567557     19.77575     35.49634         5     0.747     0.447 -73.28   0
       174    885.5621    295.8394 300.3898799 +22.7105292     1090.799     70.16573      1.596     3.92    -2.304131     19.77575     91.88438        21     1.197     1.133 -51.57   0
       175    304.3238    293.6215 300.2096940 +22.5356694      1232.25     70.09435      1.852     4.74    -1.981648     19.77575     91.37666        24     1.466     1.111  46.78   0
       176    382.3992    288.7202 300.2355589 +22.5576771     610.7694     69.98714      1.640     4.61    -2.174524     19.77575     47.56738        15     1.125     0.948  20.77   0
       177    199.4453    281.0135 300.1811931 +22.5005941     429.8353      70.1122      1.665     4.71    -2.095464     19.77575     40.18445         7     0.956     0.659 -71.54   0
       178    736.6358    277.2856 300.3495079 +22.6605795     1059.685     70.07649      2.107     5.66    -2.671126     19.77575     72.68676        22     1.392     1.286  56.11   0
       179   1007.8015    269.3229 300.4365932 +22.7395226      486.864     69.98714      1.604     4.31    -2.877485     19.77575     42.79984        10     1.049     0.691  39.26   0
       180    220.6319    274.2229 300.1899806 +22.5050010     315.6795     70.09435      1.708     4.67    -1.959964     19.77575     36.07397         6     0.930     0.667  -6.46   0
       181    661.3047    268.4848 300.3289081 +22.6354774     704.1193     70.27266      2.009     5.34    -2.547229     19.77575     46.57353        14     1.143     0.957  55.30   0
       182    856.6936    259.5347 300.3926705 +22.6914499     840.5157     70.20139      1.684     4.28    -2.442134     19.77575     67.67493        17     1.166     1.034 -65.66   0
       183    587.7498    260.4063 300.3086341 +22.6111124     497.0298     70.09435      2.027     4.69    -2.537437     19.77575     36.07494         7     0.847     0.738  67.65   0
       184    868.8035    258.6905 300.3967181 +22.6948350     480.2321     70.00502      1.729     4.72    -2.423137     19.77575     36.57809         6     0.941     0.672  73.33   0
       185    985.5680    249.0798 300.4362327 +22.7270461     682.5218     70.09435      1.822     4.10    -2.682167     19.77575     58.87731        14     1.158     0.875 -27.34   0
       186    220.2725    241.7050 300.2004240 +22.4955629     386.6644     70.20139      1.705     5.66    -1.945543     19.77575     42.11687         8     1.417     0.638 -89.61   0
       187     81.8358    237.3802 300.1588232 +22.4527948     1145.513      70.1122      1.631     3.68    -2.593994     19.77575     105.5175        22     1.256     1.100  -8.06   0
       188    904.5515    234.0509 300.4158569 +22.6984626     427.8361     70.13004      1.561     5.26    -2.417926     19.77575     43.27256         8     1.217     0.716  72.41   0
       189     31.5687    233.8496 300.1443604 +22.4367007     213.1809     70.13004      1.312     3.35    -1.965645     19.77575     35.48774         5     0.749     0.434  67.04   0
       190    238.9934    230.6341 300.2098348 +22.4980010     3068.425     70.09435      1.722     3.43     -1.90315     19.77575     271.0139        37     1.441     1.280  58.46   0
       191     23.2390    225.0873 300.1446179 +22.4316882     600.4822     70.07649      1.595     4.17    -1.703255     19.77575     69.22167        17     1.230     1.081  69.67   0
       192    222.8894    221.4166 300.2078220 +22.4905261     331.1056      70.0229      1.402     2.27    -1.935169     19.77575     39.44534         5     0.700     0.453 -21.27   0
       193    882.8863    211.6270 300.4163834 +22.6855294     1933.344     70.09435      1.705     3.59    -2.465314     19.77575     164.2336        28     1.305     1.227 -88.83   0
       194    986.5463    210.2298 300.4491483 +22.7161725     1658.068     70.09435      1.753     3.94    -2.505735     19.77575     124.8272        22     1.341     1.031  88.22   0
       195    432.7034    207.7041 300.2775003 +22.5495039     253.2354     70.27266      1.393     4.57    -1.929471     19.77575     33.20722         5     0.822     0.720 -76.18   0
       196    483.7510    194.5268 300.2976557 +22.5610230     889.1971     70.09435      1.756     4.25    -1.910786     19.77575     71.12267        18     1.314     0.975 -67.06   0
       197    123.4275    196.1602 300.1851179 +22.4534466     350.1952     70.14789      1.145     3.46     -2.24769     19.77575     35.41597         5     1.187     0.291 -35.47   0
       198    257.8797    174.3910 300.2339563 +22.4875242     3421.623     70.04076      1.819     3.75    -1.890297     19.77575     249.9694        38     1.450     1.356  56.20   0
       199    109.3118    174.1005 300.1878917 +22.4428833     368.3769     70.25484      1.575     5.02    -2.169861     19.77575     41.40879         8     1.140     1.010  49.58   0
       200    503.9344    159.5654 300.3152799 +22.5570333     3538.613     70.09435      1.869     3.68    -2.127605     19.77575     253.7003        38     1.501     1.326  85.68   0
       201    756.9476    151.0000 300.3968216 +22.6303847     482.4898     70.04076      2.691     3.41    -2.121343     19.77575     35.91412         4     0.903     0.373  16.33   2
       202    632.1667    139.5335 300.3616872 +22.5897071     3470.098     70.09435      1.765     3.63    -2.069036     19.77575     264.3856        35     1.414     1.279  61.70   0
       203    407.4023    138.6443 300.2920405 +22.5220917     835.5496     70.07649      1.785     4.42    -2.056797     19.77575     71.53169        15     1.166     0.953  27.42   0
       204    673.6014    137.1668 300.3753549 +22.6014416     553.9255     70.05863      1.900     3.72     -2.31146     19.77575     41.82409         8     0.932     0.695 -18.23   0
       205    156.4888    131.2924 300.2164349 +22.4447498     242.9931     70.25484      1.444     4.30    -2.018875     19.77575     40.06247         6     0.903     0.631  22.26   0
       206    728.0560    128.1002 300.3952534 +22.6151501     349.4981     70.18356      1.272     3.56    -2.053581     19.77575     35.03537         5     0.975     0.376  58.34   0
       207    676.4619    124.4009 300.3803874 +22.5986310     1490.153     70.05863      1.733     3.62    -2.180478     19.77575     123.2259        24     1.248     1.162  82.38   0
       208    691.9480    123.4224 300.3855268 +22.6029892     524.3544     70.09435      1.354     3.46    -2.128637     19.77575     28.12516         5     1.694     0.204 -35.63   0
       209    762.5959    115.7279 300.4100250 +22.6219413     940.0409     70.04076      1.927     7.24    -2.051335     19.77575     61.43637        19     1.432     1.091   7.62   0
       210    700.3708    108.9980 300.3928292 +22.6013681     364.7685     70.05863      1.619     5.25     -2.00996     19.77575     32.05995         8     1.156     0.673  36.12   0
       211    506.7785    109.2195 300.3324991 +22.5434270     550.3077     70.09435      1.557     3.57    -2.026957     19.77575     60.03894         9     0.947     0.771 -55.77   0
       212    410.5065    107.3065 300.3031726 +22.5140240     450.5188     70.25484      1.899     4.76    -2.005555     19.77575     42.70938         8     0.927     0.845 -74.10   0
       213    181.7588     96.9675 300.2354206 +22.4424770     2234.871     70.14789      1.765     3.59    -2.093044     19.77575     164.5486        30     1.323     1.283 -84.04   0
       214    749.9218     97.7812 300.4118996 +22.6129878     359.6481     70.09435      1.762     3.64    -1.971305     19.77575     36.13446         6     0.903     0.485 -35.61   0
       215    297.7722     89.2116 300.2739902 +22.4750349     666.8281     70.09435      1.710     5.13    -1.899601     19.77575     59.85841        16     1.384     1.027  88.62   0
       216    743.1987     89.2563 300.4125711 +22.6085243     577.5098      70.0229      1.888     5.38    -1.950619     19.77575     55.76446         9     1.074     0.764  86.86   0
       217    780.5955     84.4145 300.4257901 +22.6183337     383.7162     69.95137      1.662     4.70    -2.048037     19.77575      31.6981         7     0.882     0.710 -68.23   0
       218    800.6954     80.1247 300.4334430 +22.6231206     1241.144     70.23703      1.730     4.11    -2.088615     19.77575      85.8466        24     1.257     1.205 -55.79   0
       219    183.6181     75.9376 300.2428195 +22.4369987     504.1827     70.05863      1.973     6.01    -2.127564     19.77575     53.16315        10     1.437     0.707  36.63   0
       220    975.8467     73.7870 300.4900846 +22.6737442     499.2685      70.1122      1.773     3.96    -1.792673     19.77575     47.36268        10     1.104     0.698  12.89   0
       221    749.6150     73.1181 300.4198044 +22.6058084     470.1483     70.07649      1.665     5.01    -1.972211     19.77575      41.9697         8     1.069     0.665 -59.48   0
       222    601.4323     57.5564 300.3787134 +22.5569485     509.5352     70.14789      1.732     5.89    -1.520847     19.77575     40.85742        12     1.079     0.905 -27.73   0
       223    764.7768     52.5208 300.4312078 +22.6044299     498.1454     70.05863      1.733     5.64    -1.989891     19.77575     39.22916         8     0.987     0.907 -81.16   0
       224    573.4873     51.1451 300.3720951 +22.5467343     1046.185     70.14789      1.710     4.23     -1.68501     19.77575     82.58698        18     1.147     1.060  72.84   0
       225     11.0729     47.4553 300.1984675 +22.3770800      383.591     70.09435      1.327     3.37     -2.16458     19.77575     46.32248         7     0.996     0.564 -76.61   0
       226    530.9322     45.0893 300.3608161 +22.5322445     697.6603     70.23703      1.795     4.56    -1.926427     19.77575     57.02505        13     1.188     0.875 -67.34   0
       227    636.1259     41.4888 300.3947243 +22.5627255     676.3581     70.25484      1.673     5.62    -1.279699     19.77575     61.48495        14     1.176     0.942  86.28   0
       228    456.4905     35.4297 300.3407887 +22.5071638     1167.083     70.05863      1.704     4.11    -1.995654     19.77575     98.95095        24     1.320     1.179  53.65   0
       229    103.7531     33.4257 300.2317971 +22.4008490     888.8771      70.1122      1.686     3.65    -2.189255     19.77575     95.42617        14     1.113     0.893   0.90   0
