#   1 NUMBER                 Running object number                                     
#   2 X_IMAGE                Object position along x                                    [pixel]
#   3 Y_IMAGE                Object position along y                                    [pixel]
#   4 ALPHA_J2000            Right ascension of barycenter (J2000)                      [deg]
#   5 DELTA_J2000            Declination of barycenter (J2000)                          [deg]
#   6 FLUX_APER              Flux vector within fixed circular aperture(s)              [count]
#   7 FLUXERR_APER           RMS error vector for aperture flux(es)                     [count]
#   8 FLUX_RADIUS            Fraction-of-light radii                                    [pixel]
#   9 FWHM_IMAGE             FWHM assuming a gaussian core                              [pixel]
#  10 BACKGROUND             Background at centroid position                            [count]
#  11 THRESHOLD              Detection threshold above background                       [count]
#  12 FLUX_MAX               Peak flux above background                                 [count]
#  13 ISOAREA_IMAGE          Isophotal area above Analysis threshold                    [pixel**2]
#  14 A_IMAGE                Profile RMS along major axis                               [pixel]
#  15 B_IMAGE                Profile RMS along minor axis                               [pixel]
#  16 THETA_IMAGE            Position angle (CCW/x)                                     [deg]
#  17 FLAGS                  Extraction flags                                          
         1    566.9445     13.3672 300.3721946 +22.5466496     909.9803     69.96114      1.277     2.87    -1.853383     19.73314     128.7804        15     0.996     0.908  37.99   0
         2    289.8021     10.4516 300.2869157 +22.4627694     274.8223     69.92551      1.314     4.09    -1.622181     19.73314     44.16766         6     1.236     0.387 -85.47   0
         3      4.3024      9.4860 300.1985128 +22.3768983     548.8625     67.66136      1.594     4.31    -2.170928     19.73314     46.68792         9     0.998     0.665  37.03  16
         4    524.3641      7.1847 300.3609453 +22.5321175     856.1391     69.94333      1.485     3.13    -1.859097     19.73314     79.51611        14     0.998     0.891 -42.76   0
         5    629.4592      3.6992 300.3947939 +22.5625968     719.1953     65.56631      1.373     3.44    -1.855583     19.73314     96.97092        11     0.978     0.817  79.96  24
         6    224.6443      2.7358 300.2691610 +22.4410235     241.8884     61.54715      1.514     3.77    -1.681084     19.73314     36.60927         5     0.986     0.415  74.50  24
         7      2.3308   1014.0276 299.8714682 +22.6642738     514.0646     59.65547      4.772     5.20    -12.82756     19.73314     31.22413         6     1.184     0.646 -67.36  25
         8    238.8256   1008.5588 299.9467128 +22.7337624     1325.581     69.99676      7.999    18.01     2.081791     19.73314      59.9572        55     5.417     1.664  48.51  19
         9    167.7801   1021.9180 299.9202850 +22.7162469     714.4805     63.06706      4.013     7.08     14.23574     19.73314     37.51771        13     1.374     1.023  30.14  24
        10    102.5152    997.1757 299.9080672 +22.6895520     1450.123     69.90769     25.818    39.94     10.81344     19.73314      44.4267       173     8.365     5.291  56.02  19
        11     83.0472    979.7809 299.9076842 +22.6787208     2099.926     69.97895     20.294    44.89     4.647034     19.73314     65.30803       397    10.354     5.402 -14.88  19
        12     80.9384    966.3133 299.9114141 +22.6742299     2093.777     70.03235     13.874    31.31     1.973921     19.73314      58.7425       182     8.588     3.169 -22.48   3
        13     66.3265   1015.6299 299.8908182 +22.6839635     2741.416     69.96114     13.066    36.37     5.844503     19.73314     59.11564       294     6.682     5.496 -37.55  19
        14     88.5137   1012.9713 299.8985748 +22.6898689     3356.107     69.94333     19.314    51.90     12.04644     19.73314     69.37856       639    12.166     6.144  29.47  27
        15     83.1543    998.5660 299.9016009 +22.6841330     3025.252     69.96114     16.929    25.19     7.923399     19.73314     63.52782       191     4.638     3.798  72.02  19
        16    234.9972   1022.9519 299.9408358 +22.7367357     1924.072     58.23917      9.541    17.04     3.764614     19.73314     66.45587        71     4.613     1.749  18.62  27
        17    209.7031   1022.8438 299.9330102 +22.7291065     630.1666     58.81402      3.343     4.71     7.633342     19.73314     43.28367         5     1.401     0.448  56.31  24
        18    110.7065   1006.7819 299.9074835 +22.6947644     892.5508     69.87203      5.244     4.73     12.91371     19.73314     31.74498         5     1.180     0.631  67.16   1
        19    122.1547   1004.5115 299.9117789 +22.6975537     837.7522     69.94333      8.935     8.15     12.42377     19.73314     34.95998        12     1.914     0.970  13.83   1
        20    242.1323   1020.5783 299.9438263 +22.7381990      3451.49       67.882      7.338    21.81     2.602635     19.73314     104.6988       141     6.781     1.948  31.85  27
        21    129.1755   1002.0412 299.9147643 +22.6989555     655.4795     69.99676      2.678     3.74     11.77369     19.73314     27.99718         5     1.437     0.279 -79.44   1
        22    808.4464   1002.3144 300.1260064 +22.9029758     350.2831     69.92551      1.144     2.69    -6.033719     19.73314      54.0119         5     0.723     0.446 -67.31   0
        23    565.0159    999.7634 300.0510296 +22.8291897     908.8284     69.94333      1.134     1.80    -5.102748     19.73314     206.9754        11     0.836     0.674  73.53   0
        24    128.0308   1009.7923 299.9118847 +22.7008316     708.2255     69.94333      9.647     8.89      13.4027     19.73314     31.54802        10     1.897     1.163  28.59   3
        25    741.9550    996.2864 300.1072552 +22.8812961     291.9621     69.92551      1.011     2.14    -6.022234     19.73314     51.54636         5     0.736     0.465  55.18   0
        26    458.8581    996.1843 300.0191616 +22.7962942     569.6884     69.92551      1.056     1.95    -5.220911     19.73314      121.943         8     0.746     0.625  38.65   0
        27    389.4679    994.4543 299.9981408 +22.7749633     3766.644     69.97895      1.008     1.90    -5.156922     19.73314     624.0086        21     0.906     0.824  84.13   0
        28    114.4793    994.6501 299.9126058 +22.6924232     1334.086     69.96114      8.082    10.67     10.37097     19.73314     44.60164        20     2.420     1.310 -16.23   3
        29    421.7746    981.6158 300.0123697 +22.7809843     230.1523     69.96114      1.079     3.40    -5.224009     19.73314     63.64951         5     1.048     0.319 -37.39   0
        30    126.9571    981.0059 299.9209245 +22.6922639     451.7328     69.96114      1.715     3.68     7.507963     19.73314     28.73798         5     0.999     0.389  59.78   0
        31    935.6104    972.9731 300.1751946 +22.9327048     1127.589     69.94333      0.966     1.63    -5.274571     19.73314     298.1704        11     0.766     0.645 -48.96   0
        32    585.9404    970.3096 300.0671339 +22.8270257      225.275     70.03235      0.850     2.56    -5.114108     19.73314     54.83757         5     0.732     0.429 -16.81   0
        33    433.8770    969.3216 300.0201375 +22.7810941      134.226     70.05014      1.163     2.34    -5.226084     19.73314     41.43474         5     0.740     0.418 -19.92   0
        34    618.2207    967.8455 300.0779851 +22.8360076     75.20831     69.99676      1.139     3.44    -5.143487     19.73314     27.88886         5     1.003     0.341  46.77   0
        35    724.2441    961.5037 300.1130652 +22.8660056     535.5132     69.96114      1.587     5.13    -5.547589     19.73314     87.01942        10     1.444     0.546  55.37   0
        36    759.2486    956.0410 300.1257475 +22.8749416     661.2222     69.97895      0.978     1.62    -5.482912     19.73314     154.3933         8     0.684     0.607 -55.94   0
        37    781.5458    949.7551 300.1347405 +22.8798281     6762.869     69.96114      0.993     1.71    -5.334958     19.73314     1243.017        24     0.869     0.821 -86.89   0
        38    972.5292    949.1990 300.1944468 +22.9369550     336.8833     69.87203      0.924     1.84    -5.524854     19.73314     66.51757         5     0.649     0.485 -74.30   0
        39    791.3252    942.3590 300.1401955 +22.8806403     316.7592     69.92551      1.827     4.43    -5.183145     19.73314     54.27448         6     1.634     0.341 -65.15   0
        40     92.9244    941.5170 299.9232096 +22.6707286     485.1075     70.03235      1.323     2.31    -1.404174     19.73314      53.5466         6     0.742     0.500   0.95   0
        41    486.8049    937.3667 300.0470078 +22.7878235     342.3332     69.92551      1.117     4.34    -5.212329     19.73314     64.60488         8     1.199     0.507 -62.56   0
        42    833.1060    937.2006 300.1548935 +22.8916942     171.4552     69.81851      1.012     2.23    -5.017366     19.73314     55.94041         6     0.722     0.541  55.31   0
        43    790.0735    931.9094 300.1432078 +22.8772670     653.3876     70.10349      1.025     1.59    -5.030031     19.73314     197.5469        11     0.864     0.627  74.26   0
        44    828.3340    925.3278 300.1572720 +22.8868563     421.2866     69.97895      0.877     1.74    -4.917264     19.73314     99.60863         5     0.658     0.449  72.58   0
        45    936.7391    922.4395 300.1920008 +22.9185421     223.7268     69.94333      1.116     3.22    -5.166614     19.73314      60.4684         7     0.989     0.609  24.29   0
        46    728.0670    915.8011 300.1291360 +22.8540434     425.3378     69.92551      1.032     2.00    -5.130177     19.73314     92.19126         8     0.783     0.586  53.98   0
        47    739.1004    912.6450 300.1336001 +22.8564483     360.2916     69.96114      1.109     2.20    -5.091505     19.73314     57.51542         7     0.701     0.629  -4.59   0
        48    440.6639    912.1124 300.0408741 +22.7667324     2413.537     70.05014      1.089     1.86    -5.184026     19.73314     464.4195        18     0.918     0.795  67.08   0
        49    218.7891    900.5517 299.9756496 +22.6967987     264.6807     69.96114      0.936     3.02     -4.25646     19.73314     54.60043         6     0.877     0.524 -64.65   0
        50    102.1699    900.5800 299.9394069 +22.6617794     251.7199     69.94333      1.123     2.25    -4.193563     19.73314     45.46023         5     0.696     0.456 -20.98   0
        51    165.7516    897.7951 299.9600658 +22.6800796     507.3723     69.92551      1.289     2.35    -3.333475     19.73314     91.31899        10     0.923     0.678 -55.56   0
        52    143.0318    895.1829 299.9538572 +22.6725071      1051.63     69.92551      1.127     2.03    -3.638542     19.73314     220.0028        13     0.921     0.777 -87.84   0
        53   1014.6433    883.5408 300.2289560 +22.9307383     1220.954     69.92551      0.967     1.97    -4.959999     19.73314     208.0861        14     0.850     0.726 -60.47   0
        54    968.7876    882.0823 300.2151312 +22.9165702     1238.815     69.92551      1.030     1.60    -4.870816     19.73314      306.342        13     0.914     0.690  48.00   0
        55    752.2609    875.8395 300.1496808 +22.8498377     381.0465     69.94333      1.171     1.91    -4.811191     19.73314     91.47176         6     0.683     0.580  33.68   0
        56    620.4822    870.1157 300.1105051 +22.8086589     2922.676     70.06792      1.081     1.82    -5.127745     19.73314     521.2578        20     0.879     0.839  75.78   0
        57    422.7552    867.2068 300.0499199 +22.7484826     264.9096     69.96114      1.018     2.01    -5.056431     19.73314     64.63629         6     0.645     0.576 -37.80   0
        58    170.7918    864.1921 299.9725685 +22.6719653     760.8962     69.80066      1.183     2.02    -4.597107     19.73314     157.9183        11     0.846     0.696 -49.20   0
        59    641.2193    862.6915 300.1193779 +22.8127517      418.263     69.87203      1.135     2.42    -5.111889     19.73314     93.37205         8     0.909     0.547  33.15   0
        60   1013.3956    849.9822 300.2394902 +22.9207307     651.8477     69.88986      0.944     1.57    -4.700872     19.73314      161.024         9     0.993     0.493 -71.01   0
        61    796.5939    849.7849 300.1719727 +22.8556605     2462.029     69.85419      1.040     1.75    -4.659899     19.73314     457.6025        19     0.864     0.828  84.74   0
        62    204.8707    844.2434 299.9896502 +22.6764831     225.6991     69.90769      0.989     1.99    -4.621294     19.73314     54.68712         6     0.687     0.548 -55.45   0
        63    513.7046    842.3184 300.0863165 +22.7686443     296.2913     70.10349      1.000     2.35    -4.910987     19.73314     66.27094         6     0.799     0.488  41.63   0
        64    160.0920    840.4449 299.9769720 +22.6619472     620.3533     69.92551      1.144     2.45    -4.589994     19.73314     111.8957        10     0.856     0.712 -52.88   0
        65    309.6331    832.6238 300.0259954 +22.7046089      31044.3     69.94333      1.113     1.93    -4.563068     19.73314     5274.282        68     1.130     1.056  64.27   0
        66    575.1323    835.6277 300.1076120 +22.7851593     378.1153     69.92551      1.092     2.84    -4.915222     19.73314     57.71608         6     0.721     0.632  43.01   0
        67    567.3810    831.3874 300.1065792 +22.7816172       934.97     69.90769      1.079     2.10    -4.874961     19.73314     151.0034        13     0.889     0.776 -82.89   0
        68    980.0811    830.3594 300.2354878 +22.9051094      516.759     69.90769      1.046     1.60    -4.660993     19.73314     122.8699         7     0.633     0.602  56.05   0
        69    237.6446    830.3969 300.0043417 +22.6823562     320.6068     69.94333      1.184     2.97    -4.609292     19.73314     43.40237         6     0.811     0.516  43.48   0
        70    596.3150    827.4954 300.1168524 +22.7891828     623.9029     70.12125      1.144     2.87    -4.860986     19.73314      94.1621        11     1.067     0.624  79.37   0
        71    607.3823    825.6733 300.1208907 +22.7919809     423.0963     69.94333      1.292     2.56    -4.860077     19.73314     61.26845         7     0.825     0.580  20.20   0
        72    927.5133    822.7871 300.2215621 +22.8871743     252.0647     69.88986      0.913     2.04    -4.608235     19.73314       50.232         5     0.676     0.487  76.00   0
        73    712.7638    822.1121 300.1548642 +22.8225748     214.6334     69.92551      0.861     2.05    -4.744335     19.73314     55.56596         6     0.707     0.537 -46.25   0
        74    750.1829    812.2167 300.1697399 +22.8309599     429.3199     69.90769      1.098     1.57    -4.680157     19.73314     105.1449         6     0.640     0.519  61.52   0
        75    359.3448    809.8119 300.0488758 +22.7129930     18643.03     69.92551      1.150     2.04    -4.445923     19.73314     2922.538        46     1.076     0.968  69.20   0
        76    373.5639    810.3693 300.0531164 +22.7174211     1179.105     69.96114      1.020     1.85    -4.381485     19.73314     186.4568        12     0.772     0.722  43.03   0
        77    882.3517    805.4376 300.2131301 +22.8686526     1643.512     69.96114      1.024     1.78    -4.574138     19.73314     300.5256        15     0.811     0.799 -76.74   0
        78    370.6133    804.2238 300.0541984 +22.7147735      345.778     69.94333      1.324     4.61    -4.333535     19.73314     42.27581         9     0.937     0.828  58.46   0
        79    640.2733    801.4802 300.1390036 +22.7949091     629.4656     70.05014      1.230     3.27    -4.663076     19.73314     88.80154         9     1.026     0.646  60.38   0
        80    476.5965    801.7474 300.0879720 +22.7458732     337.6856     69.94333      1.081     1.93    -4.526661     19.73314     52.88692         5     0.659     0.468  71.47   0
        81    241.7968    801.5469 300.0150196 +22.6753341      455.038     69.92551      1.159     2.22    -4.573782     19.73314     87.24877         9     0.787     0.711 -28.48   0
        82     46.2138    797.2756 299.9556447 +22.6153759      291.593     69.96114      1.144     2.22    -4.593705     19.73314     59.92374         7     0.782     0.580 -32.57   0
        83    487.5004    796.2967 300.0931383 +22.7475824     383.8097     70.13902      0.956     1.97    -4.514501     19.73314       84.864         8     0.711     0.643  38.81   0
        84    389.5066    793.0161 300.0637211 +22.7172311     141.2702     69.87203      1.052     2.86    -4.179195     19.73314     43.96745         6     0.772     0.498  85.92   0
        85    433.4583    791.6346 300.0778417 +22.7300267     215.5354     69.96114      0.894     3.22    -4.154532     19.73314     43.79596         5     0.715     0.471 -72.50   0
        86     75.1145    791.0244 299.9666542 +22.6222651     249.8409     69.90769      1.314     3.55    -4.586524     19.73314     39.24403         6     0.821     0.614 -89.50   0
        87    641.8602    790.4421 300.1430893 +22.7922186     246.3341     69.92551      1.104     2.81    -4.543288     19.73314     37.32549         5     0.726     0.459 -19.79   0
        88    866.4448    787.8994 300.2138792 +22.8588488     249.5826     69.96114      0.961     2.74    -4.506275     19.73314     57.09661         5     0.800     0.534 -43.89   0
        89    239.4015    786.5363 300.0191589 +22.6703125     417.2791     69.94333      1.167     4.47    -4.468656     19.73314     55.16463         8     1.214     0.467 -82.43   0
        90    532.6338    774.8236 300.1141697 +22.7549673     419.6412     69.96114      1.250     3.50    -4.363653     19.73314     54.87186         9     1.021     0.600  87.20   0
        91    441.5041    773.7490 300.0861638 +22.7273125     177.1603     70.01456      1.280     2.46     -4.14348     19.73314     43.67649         5     0.709     0.480 -74.29   0
        92    948.6729    770.7482 300.2450926 +22.8785799     2617.781     69.94333      1.041     1.85    -4.439566     19.73314     506.7915        19     0.880     0.779  59.10   0
        93    554.3279    771.9465 300.1218577 +22.7606513     745.4326     69.94333      1.166     2.23    -4.340095     19.73314     120.5663        10     0.876     0.624  29.13   0
        94    635.7819    766.8240 300.1488812 +22.7836193     91.52989     69.94333      0.873     3.39    -4.290518     19.73314     37.78736         5     0.986     0.338 -49.38   0
        95    937.0369    762.0828 300.2442842 +22.8726037     921.0992     69.92551      1.010     1.72    -4.324551     19.73314     243.7437        10     0.794     0.622  39.14   0
        96    300.1255    756.2067 300.0479024 +22.6798481     475.7799     69.88986      1.214     2.76    -4.157954     19.73314      91.1718        10     0.928     0.758 -76.00   0
        97    763.4176    753.5451 300.1929531 +22.8180929     1419.967     69.92551      1.042     1.97    -4.721621     19.73314     205.4438        14     0.868     0.729  51.27   0
        98    968.2286    752.2407 300.2572116 +22.8791289     995.1407     69.96114      1.057     1.72    -4.472352     19.73314     196.8012         8     0.690     0.624 -53.21   0
        99    845.5611    739.6285 300.2230756 +22.8387313     198.4207     69.97895      1.049     3.52     -4.40825     19.73314     48.23685         5     0.768     0.465  73.61   0
       100    148.8453    740.1932 300.0060939 +22.6298399     388.9029     69.96114      1.089     2.03    -4.168338     19.73314     78.32038         6     0.708     0.539 -48.73   0
       101    881.8751    730.3995 300.2373960 +22.8469700      87051.1     69.81851      1.090     1.79    -4.186186     19.73314     16228.42        92     1.103     1.041 -88.29   0
       102    734.4598    730.9522 300.1912821 +22.8029245     394.0468     69.99676      1.183     1.99    -4.645808     19.73314     76.22392         8     0.721     0.670  -7.60   0
       103    914.6733    723.3311 300.2499192 +22.8547738     284.4581     70.01456      1.158     2.88      -4.0978     19.73314     55.17318         5     0.936     0.335  22.19   0
       104    568.3239    719.5266 300.1432669 +22.7498130     994.5193     70.01456      1.162     2.22    -3.917274     19.73314     145.6733        12     0.808     0.791  52.07   0
       105    749.3930    716.6277 300.2005936 +22.8032920     5486.477     69.94333      1.129     2.09    -4.500946     19.73314     791.7264        29     1.000     0.940  62.03   0
       106    251.0478    711.8965 300.0470588 +22.6524124     2858.693     69.97895      1.217     2.06    -4.027556     19.73314     501.0854        22     1.003     0.869  84.81   0
       107    333.0578    709.9904 300.0731751 +22.6764820     561.1865     69.90769      1.208     2.22    -4.045261     19.73314     109.3102         9     0.784     0.665  37.27   0
       108    208.6467    707.4521 300.0353256 +22.6384095     233.8883     69.97895      1.148     3.37     -4.02999     19.73314     44.52461         5     0.906     0.494  -4.52   0
       109    541.2321    704.9861 300.1395640 +22.7375140     455.2802     69.94333      1.470     3.51     -3.91039     19.73314     57.07581         8     0.939     0.622  59.18   0
       110    532.8912    697.5352 300.1393915 +22.7328742      1878.25     70.06792      1.182     2.11    -3.906689     19.73314     279.1522        17     0.917     0.859  83.53   0
       111    523.2213    691.4330 300.1383667 +22.7282225     841.7327     69.94333      1.205     2.51     -3.91187     19.73314     121.2727        12     0.973     0.685  57.16   0
       112    916.6749    688.8250 300.2617673 +22.8454667     225.3035     69.96114      1.076     1.84     -4.02698     19.73314     66.44385         5     0.698     0.427  69.52   0
       113    186.4697    687.6997 300.0348577 +22.6260895     502.5583     70.03235      1.305     2.45    -4.028689     19.73314     57.91046         5     0.685     0.467 -69.47   0
       114    200.6113    686.0425 300.0397913 +22.6298598     401.8917     69.94333      1.201     2.79    -4.016539     19.73314     60.27031         6     0.779     0.479  81.73   0
       115    226.5721    682.8777 300.0488888 +22.6367456     201.8242     69.96114      0.992     1.85    -3.995388     19.73314     65.37645         6     0.710     0.495 -89.46   0
       116    969.4424    681.5626 300.2805814 +22.8591984      313.775     70.03235      1.312     5.10     -4.53137     19.73314     58.29855         7     1.584     0.464  45.25   0
       117    447.9617    681.1086 300.1183067 +22.7026808      993.598     69.92551      1.241     2.29    -4.023024     19.73314     158.0734        14     0.926     0.793 -89.45   0
       118    101.9781    676.1808 300.0123527 +22.5974208     11391.32     69.94333      1.232     2.10    -4.128431     19.73314     1918.388        39     1.075     0.993  78.42   0
       119   1023.3157    678.0833 300.2985137 +22.8743458     488.5118     56.45747      1.007     1.84    -5.260825     19.73314     100.8462         8     0.713     0.634 -45.67  24
       120     22.8574    677.5731 299.9873265 +22.5740619     418.1965     69.94333      1.248     3.75    -4.186298     19.73314     58.92222         7     0.872     0.599  80.40   0
       121    532.8104    676.4042 300.1462387 +22.7267877     674.2218     69.78281      1.256     2.29    -3.858122     19.73314     96.09218        10     0.799     0.762  -1.28   0
       122    950.8607    662.3560 300.2810342 +22.8481135     571.8453     69.96114      1.083     1.91    -4.298724     19.73314     108.3085         8     0.714     0.656 -59.27   0
       123     47.9575    660.3785 300.0007124 +22.5766714     1007.989     69.97895      1.725     4.77     -4.14637     19.73314     99.69975        16     1.398     0.700 -87.39   0
       124    817.6897    660.6579 300.2400765 +22.8077051     290.3869     70.01456      1.173     3.81    -3.887431     19.73314     45.39449         7     0.976     0.540 -27.06   0
       125    891.2181    655.0164 300.2648273 +22.8281283     421.4031     69.92551      1.118     1.86    -3.918506     19.73314      72.1308         7     0.676     0.626 -35.85   0
       126    453.0331    649.3322 300.1302181 +22.6950874     448.7028     69.94333      1.370     2.73    -3.932564     19.73314     50.03359         7     0.744     0.604  17.06   0
       127    600.9396    647.8969 300.1767160 +22.7390448     168.0294     70.01456      1.095     2.60    -3.677953     19.73314     44.38123         7     0.797     0.665  56.83   0
       128    618.5962    645.9001 300.1828623 +22.7437675     360.0257     69.81851      1.352     3.48    -3.707371     19.73314     48.60949         8     1.036     0.661  57.42   0
       129    497.2252    645.1214 300.1453375 +22.7071376     479.8948     69.94333      1.213     2.13    -3.768864     19.73314     76.22757         6     0.696     0.543  58.99   0
       130    930.7860    640.3374 300.2819358 +22.8357736     1967.111     69.90769      1.094     1.91    -4.023072     19.73314     345.4564        14     0.852     0.739 -86.78   0
       131    462.7279    640.4453 300.1361241 +22.6954467     979.2812     69.92551      1.259     3.87     -3.85617     19.73314     129.0339        12     1.031     0.690  60.03   0
       132     24.7501    634.4070 300.0019499 +22.5622595     3005.133     69.94333      1.170     2.06    -4.138168     19.73314     478.6669        22     1.035     0.856  70.03   0
       133    326.1902    627.3315 300.0979196 +22.6507169     5373.916     69.94333      1.238     2.25    -4.066979     19.73314     713.4385        29     1.088     0.953  87.24   0
       134    448.5350    624.3654 300.1369367 +22.6865758     5092.882     69.94333      1.222     2.23    -3.862853     19.73314     750.8099        29     1.062     0.969  49.87   0
       135    860.1510    618.1703 300.2671255 +22.8082359     962.1486     69.96114      1.183     2.31     -3.59885     19.73314     163.6119        14     0.904     0.817 -79.73   0
       136    944.7150    615.4943 300.2943568 +22.8328140     7380.613     70.12125      1.124     1.95    -4.216028     19.73314     1186.417        28     0.992     0.881  70.89   0
       137    509.1194    614.0012 300.1591576 +22.7017771     6639.542     69.83636      1.266     2.33    -3.533361     19.73314     922.5139        31     1.108     0.973  62.05   0
       138    678.8359    609.7228 300.2133833 +22.7514503     291.8344     69.90769      1.053     2.66    -3.886065     19.73314     44.73212         5     0.878     0.349 -47.78   0
       139    236.4713    609.4620 300.0758371 +22.6186670     825.7355     69.97895      1.195     2.69    -4.091947     19.73314     115.7366        12     0.923     0.820  39.70   0
       140    440.8322    602.1342 300.1417682 +22.6778872     2655.577     69.94333      1.324     2.36    -3.834197     19.73314      358.016        22     1.025     0.949 -66.44   0
       141    783.6760    601.8870 300.2485886 +22.7806352     551.3633     70.06792      1.291     2.77    -3.622402     19.73314     74.77979         8     0.879     0.585 -80.51   0
       142    419.2464    600.6042 300.1355506 +22.6709723     836.8879     69.92551      1.211     2.27    -3.979738     19.73314     119.4537        11     0.819     0.772  79.37   0
       143    173.2560    599.9205 300.0592929 +22.5969573     460.2909     69.97895      1.409     2.95     -4.13445     19.73314     52.84754         7     0.817     0.598  53.82   0
       144    860.4240    597.5359 300.2739196 +22.8023927     948.7588     69.92551      1.273     2.77    -3.544528     19.73314     125.2833        14     0.972     0.895  53.08   0
       145    557.3899    589.6580 300.1820951 +22.7092707     119192.8     69.90769      1.286     2.34     -3.40677     19.73314      16742.6       136     1.302     1.272 -68.43   0
       146    741.0192    594.3307 300.2377559 +22.7656771      488.837     69.94333      1.254     2.53     -3.78896     19.73314      68.4417         7     0.713     0.655   1.93   0
       147    945.3873    590.8208 300.3025888 +22.8259292     199.0422     69.92551      1.417     4.50    -4.039092     19.73314     33.71568         5     1.132     0.509  31.78   0
       148    243.5634    589.7534 300.0844486 +22.6151438     2026.355     69.97895      1.266     2.34    -4.085157     19.73314     311.6004        21     1.057     0.901  55.46   0
       149    809.3064    585.7953 300.2618064 +22.7836986     306.3815     69.83636      1.064     3.47    -3.555571     19.73314     55.13032         5     0.776     0.449 -80.46   0
       150    448.0367    570.3136 300.1543541 +22.6709193     1702.213     69.92551      1.521     3.14    -3.625911     19.73314     201.7665        23     1.553     0.937 -88.43   0
       151    765.5997    558.3194 300.2571205 +22.7627075      255.152     69.81851      1.171     2.96     -3.59817     19.73314     39.17211         5     0.707     0.470 -74.88   0
       152    844.8178    555.9449 300.2825769 +22.7857717      1008.02     69.92551      1.270     2.25    -3.583176     19.73314     168.9715        14     0.978     0.761  35.50   0
       153    716.0646    553.7066 300.2431890 +22.7465329     1441.349     70.05014      1.286     2.50    -3.622474     19.73314     212.5675        15     0.915     0.843  50.50   0
       154    960.4004    550.8818 300.3202539 +22.8189568      312.467     69.81851      0.960     2.44    -3.659866     19.73314        60.23         5     0.701     0.594  21.36   0
       155    621.1372    550.1192 300.2147932 +22.7170406     236.2613     70.05014      1.081     3.30    -3.506222     19.73314     40.44976         6     0.793     0.653  85.17   0
       156    503.1494    549.5977 300.1782364 +22.6815066     426.7986     69.94333      1.278     3.62    -3.407458     19.73314     61.22533         7     0.858     0.571 -25.55   0
       157    973.3035    547.6591 300.3253249 +22.8218975     790.2174     70.01456      1.083     1.71    -3.623867     19.73314     127.1883        12     0.895     0.692  27.47   0
       158    958.9894    546.5203 300.3212317 +22.8172812     425.2322     69.92551      1.280     2.35    -3.607207     19.73314      68.9944         8     0.796     0.629  77.79   0
       159    845.1914    546.0380 300.2859137 +22.7830387     1302.854     69.96114      1.382     3.78    -3.592378     19.73314     155.4138        17     1.444     0.777  72.24   0
       160    598.5118    544.0104 300.2097346 +22.7085026     376.5073     69.88986      1.346     5.22    -3.443135     19.73314     40.37607         8     1.027     0.749  55.07   0
       161    437.3968    543.1744 300.1598654 +22.6599410     291.5701     69.90769      1.404     3.03    -3.520754     19.73314     38.54626         5     0.726     0.457  72.08   0
       162    883.2910    541.1398 300.2993809 +22.7930508     2445.197     70.03235      1.160     2.05    -3.579171     19.73314     402.5382        19     0.987     0.842 -88.30   0
       163    543.9975    537.3497 300.1949301 +22.6902428     108.7791     69.94333      0.916     2.60    -3.328422     19.73314      43.6079         5     0.804     0.496 -59.43   0
       164    974.9353    531.4741 300.3310948 +22.8177372     431.8513     69.97895      1.128     3.31     -3.46011     19.73314     71.33757         9     0.961     0.679 -39.97   0
       165    115.4720    531.8254 300.0634729 +22.5600888     559.0886     69.96114      1.148     2.53    -4.076635     19.73314     85.46551         9     0.804     0.732  57.73   0
       166    715.5311    515.2582 300.2555199 +22.7353344     331.6876     69.96114      1.037     4.45    -3.553611     19.73314     43.55848         7     1.132     0.497 -87.20   0
       167    656.7139    511.9655 300.2382718 +22.7167557     536.4207     69.90769      1.692     3.67     -3.49799     19.73314      51.4821        10     0.990     0.794 -60.33   0
       168    717.5676    503.9541 300.2598280 +22.7326993     450.4028     69.97895      1.264     3.06    -3.542328     19.73314      65.0701         9     0.927     0.687  58.49   0
       169    971.5060    503.7543 300.3390350 +22.8087465     234.3381     69.96114      1.050     2.85    -3.244986     19.73314     53.35031         8     0.882     0.624  71.79   0
       170    874.9214    499.8943 300.3101778 +22.7786964       539.54     70.06792      1.326     4.34    -3.455732     19.73314     85.78111        11     1.162     0.827 -22.45   0
       171    859.0643    496.1318 300.3064580 +22.7728637     349.9132     69.99676      1.120     3.12    -3.479678     19.73314     59.50869         8     0.875     0.655  88.48   0
       172    603.3336    494.4905 300.2273300 +22.6957343     1807.603     70.05014      1.268     2.40    -3.065364     19.73314     233.6218        20     1.036     0.926  72.61   0
       173    963.8890    493.0133 300.3401506 +22.8033786     242.6138     69.88986      1.287     3.48    -3.176883     19.73314     50.69057         5     0.660     0.570   0.76   0
       174   1014.6196    473.2587 300.3623910 +22.8129016     582.9693     69.90769      1.134     2.51    -2.934783     19.73314      107.492        13     0.955     0.761  74.85   0
       175    973.0095    472.1446 300.3497764 +22.8001158     524.9498     69.94333      1.130     2.20    -3.047007     19.73314     98.31544        10     0.817     0.672  89.45   0
       176    886.3785    473.2020 300.3224234 +22.7744627     304.7902     69.88986      1.147     2.24     -3.30957     19.73314     59.19836         5     0.708     0.443  69.15   0
       177    713.8829    468.4389 300.2702215 +22.7213972      668.413     69.90769      1.367     2.76     -3.47407     19.73314     85.73725        10     0.841     0.788 -14.30   0
       178    509.5989    468.9606 300.2064494 +22.6602992     267.8888     69.96114      1.306     2.84    -3.084476     19.73314     42.00758         6     0.783     0.490 -89.26   0
       179    217.9384    466.9215 300.1164036 +22.5722261     276.9457     70.01456      1.265     2.71    -3.551339     19.73314     55.98905         7     0.820     0.652 -75.62   0
       180    280.3618    462.5603 300.1372249 +22.5897041     1959.046     70.01456      1.265     2.40    -3.231674     19.73314      284.186        21     1.004     0.983  84.23   0
       181   1013.2218    460.6583 300.3660496 +22.8088624      2460.11     69.94333      1.148     1.88    -2.952304     19.73314     470.0737        23     1.013     0.914  88.91   0
       182    227.5511    457.3410 300.1225041 +22.5723623     4374.848     69.99676      1.347     2.41    -3.440665     19.73314     562.5485        26     1.103     1.009  76.70   0
       183    368.3463    451.4291 300.1682006 +22.6129042     2720.404     69.94333      1.373     2.61    -3.055105     19.73314     354.4779        23     1.131     0.956  84.57   0
       184    993.1281    451.7126 300.3626897 +22.8002726     997.9896     70.08571      1.143     2.03    -2.994096     19.73314     176.2152        14     0.879     0.811  -1.66   0
       185    612.4478    448.1185 300.2452358 +22.6851548     10774.04     69.96114      1.368     2.59    -2.974003     19.73314       1282.1        43     1.193     1.118  53.15   0
       186    629.8304    448.3387 300.2505765 +22.6904292     436.6474     69.96114      1.645     6.58    -3.092328     19.73314     39.04877        12     1.786     0.680 -27.44   0
       187    809.1799    438.2411 300.3097232 +22.7412870     304.1479     69.97895      1.060     3.44    -3.349391     19.73314        49.36         6     0.758     0.563  55.54   0
       188    945.6692    430.4211 300.3548085 +22.7799373      357.301     69.94333      1.109     2.94    -3.018676     19.73314     65.82156         7     0.820     0.655  24.04   0
       189    167.2825    428.4457 300.1131611 +22.5459907     1155.956     69.90769      1.241     2.38    -3.172755     19.73314     156.4521        16     0.966     0.868 -87.53   0
       190    966.7055    417.8462 300.3654535 +22.7826263     677.1968     69.96114      1.264     2.82    -2.991926     19.73314     94.38551        13     0.960     0.865  73.70   0
       191    553.0303    417.5197 300.2366799 +22.6585563     3776.216     69.94333      1.398     2.73    -2.960431     19.73314      422.722        27     1.127     1.047  66.94   0
       192    267.6689    417.1328 300.1480373 +22.5728637     387.9319     69.99676      1.439     4.98    -3.035086     19.73314     39.60499         7     0.987     0.712 -80.31   0
       193    125.6117    409.8349 300.1062590 +22.5281489     138.5079     69.94333      1.036     3.40    -3.169582     19.73314     29.48515         5     0.755     0.442  70.39   0
       194    666.9065    407.7860 300.2752967 +22.6898997      285.515     69.87203      1.206     2.90    -3.161883     19.73314     47.46879         8     0.824     0.647 -46.20   0
       195    757.1088    406.4682 300.3038214 +22.7165565     760.8607     70.06792      1.446     2.97    -3.256814     19.73314     84.79221         9     0.876     0.661 -87.72   0
       196    459.6809    403.8282 300.2120768 +22.6266358      3680.76     69.96114      1.419     2.69     -3.00402     19.73314     487.4685        28     1.127     1.062  79.90   0
       197    851.6475    397.9836 300.3360368 +22.7424486     863.2057     69.97895      1.380     2.93    -3.034471     19.73314     102.0004        15     1.093     0.917  73.30   0
       198    949.0350    398.3251 300.3662854 +22.7717237     297.8474     69.90769      0.983     2.09      -2.9882     19.73314     62.87103         5     0.733     0.459 -55.46   0
       199    824.5377    385.6314 300.3316004 +22.7307773     -609.537     69.96114      1.055     3.14    -3.105152     19.73314     48.77671         8     0.882     0.685 -49.49   0
       200    347.3361    383.1284 300.1838540 +22.5870034     1556.615     69.97895      1.402     2.69    -2.739308     19.73314     194.2449        18     1.013     0.959  85.27   0
       201     65.9468    380.6075 300.0972175 +22.5018624     558.3456     69.94333      1.255     2.54    -3.290809     19.73314     93.98199        12     0.909     0.813  86.66   0
       202    694.5703    377.5259 300.2937420 +22.6895015     287.5442     69.96114      1.695     3.73    -3.088681     19.73314      26.0179         6     1.761     0.227  14.76   0
       203    316.6376    372.5892 300.1777309 +22.5747718      17247.1     69.94333      1.429     2.56    -2.884493     19.73314     2395.563        46     1.237     1.092  84.88   0
       204    851.0722    369.8095 300.3450094 +22.7341823     900.2083     69.92551      1.421     3.13    -3.012932     19.73314     100.0225        13     1.091     0.735  89.57   0
       205     13.0553    360.5779 300.0872960 +22.4802458     2861.487     69.96114      1.320     2.33    -3.506364     19.73314     422.6483        23     1.061     0.939  78.76   0
       206    766.8700    358.7558 300.3223608 +22.7057773     302.9332     69.90769      1.421     4.42    -3.054219     19.73314     31.61427         8     0.959     0.729 -63.72   0
       207    191.0092    359.0245 300.1430831 +22.5331955     292.4014     69.94333      1.436     3.72     -3.05485     19.73314     40.13117         5     0.651     0.611 -89.74   0
       208    415.1977    357.6811 300.2132265 +22.6000514     400.7754     69.85419      1.486     2.69    -3.102004     19.73314     40.03765         6     0.720     0.603  53.80   0
       209    726.9812    352.2089 300.3120605 +22.6919435      1081.52     69.90769      1.381     2.89    -3.009458     19.73314     126.8133        17     1.105     0.879  77.80   0
       210    535.0223    347.1751 300.2539238 +22.6329620      228.178     69.90769      1.408     3.81    -2.909106     19.73314     29.26547         5     0.816     0.511 -61.52   0
       211    388.8305    336.8634 300.2117853 +22.5861695     1219.313     69.96114      1.623     4.23    -2.855275     19.73314     102.6381        21     1.421     0.922  60.59   0
       212    827.8439    329.4499 300.3508783 +22.7156277     286.2073     69.97895      1.255     4.24    -3.009338     19.73314      44.0744         9     0.879     0.787 -82.42   0
       213    710.1641    327.2229 300.3149367 +22.6797272     180.7763     69.96114      1.400     4.53    -2.984606     19.73314     31.85715         6     0.906     0.645 -16.05   0
       214    464.6902    316.2047 300.2420939 +22.6029851       645.64     69.85419      1.426     3.26    -2.670945     19.73314     77.71881        11     0.959     0.812 -74.21   0
       215     36.8111    316.9648 300.1088356 +22.4748666     279.8154     69.94333      1.598     4.34    -3.197279     19.73314     23.58927         5     1.049     0.512 -52.37   0
       216    709.4713    308.1092 300.3209278 +22.6740294      1281.91     70.10349      1.358     2.90    -2.974686     19.73314     149.1501        17     1.028     0.918  68.57   0
       217    970.5407    302.1997 300.4042122 +22.7505414     1831.019     69.88986      1.214     2.24    -2.619912     19.73314      239.839        17     0.922     0.874  76.11   0
       218    417.8256    291.9922 300.2353752 +22.5819834     382.2329     69.94333      1.410     4.31    -2.564697     19.73314     44.83234         6     0.878     0.604  -0.19   0
       219     92.6029    286.4130 300.1360846 +22.4828426     839.5347     69.78281      1.481     3.20    -3.031459     19.73314     91.22147        13     0.995     0.861 -34.52   0
       220    123.2744    286.3304 300.1456402 +22.4920204     262.3381     70.01456      1.181     4.05    -3.012359     19.73314     54.60857         6     0.760     0.617  17.84   0
       221    176.8069    278.2287 300.1649045 +22.5057543     272.6394     69.94333      1.372     3.63    -2.934577     19.73314     49.69137         6     1.041     0.565 -70.27   0
       222    780.9099    269.3168 300.3557792 +22.6842898     339.1176     70.05014      1.336     4.11    -2.825247     19.73314     47.67709         8     0.939     0.761   3.68   0
       223    879.0148    258.5288 300.3898562 +22.7105778     1103.769     69.94333      1.230     2.40     -2.78371     19.73314     170.4066        15     0.943     0.871  11.92   0
       224    297.8781    255.9600 300.2097684 +22.5356747     1295.088     69.92551      1.421     2.52     -2.77404     19.73314     164.6464        19     1.058     0.974  29.31   0
       225    375.7771    250.9547 300.2356185 +22.5575957      478.693     69.97895      1.563     4.39    -2.667166     19.73314     78.92787        11     1.355     0.839 -43.38   0
       226    777.7597    250.3219 300.3609646 +22.6778885     396.1537     69.92551      1.691     4.43    -2.677116     19.73314     30.57812         7     1.209     0.462  -3.50   0
       227    192.4361    243.6009 300.1810029 +22.5005059     456.8762     69.92551      1.622     2.85    -2.859078     19.73314      65.0864         7     0.896     0.584 -52.72   0
       228    730.2982    239.7603 300.3496067 +22.6606350    -122.2923     69.94333      1.337     2.94    -2.602694     19.73314     109.5219        13     0.993     0.847  40.41   0
       229    794.9874    239.3062 300.3699087 +22.6798842     321.8025     69.87203      1.278     4.18    -2.592494     19.73314     44.77641         6     0.818     0.650   1.43   0
       230    214.2465    236.4053 300.1901173 +22.5049823     400.1823     69.92551      1.233     3.43    -2.809307     19.73314     38.64233         5     0.742     0.459  17.29   0
       231   1001.6522    232.1891 300.4366457 +22.7397339     616.0867     69.94333      1.326     2.99    -2.242251     19.73314     76.11932        11     0.968     0.778  73.22   0
       232    734.1651    231.0934 300.3536248 +22.6593034     395.2123     69.90769      1.298     3.51    -2.531477     19.73314     52.65857         8     0.942     0.685 -77.28   0
       233    654.8333    230.6830 300.3290486 +22.6354163      630.184     69.90769      1.346     2.82    -2.565433     19.73314     88.17731        13     0.935     0.873 -20.39   0
       234    581.0213    222.4375 300.3087427 +22.6109293     561.8258     69.96114      1.579     2.43     -2.44217     19.73314     63.32029         8     0.754     0.679  75.56   0
       235    862.1943    221.3048 300.3966974 +22.6948420     522.6565     69.83636      1.295     3.52    -2.528302     19.73314     65.93756        11     1.010     0.798 -10.35   0
       236    850.1207    221.9651 300.3927199 +22.6914155     794.8402     69.88986      1.338     3.21    -2.519743     19.73314     91.17303        10     0.873     0.756 -89.99   0
       237   1022.9503    211.9416 300.4498613 +22.7402900     890.5615     58.36741      1.138     2.27    -2.247627     19.73314     156.5505        11     0.882     0.677  85.16  24
       238    978.7535    211.2506 300.4363013 +22.7268580     677.0948     69.97895      1.307     2.38    -2.384519     19.73314     97.22724        12     0.880     0.809 -18.77   0
       239      2.3859    208.0865 300.1334891 +22.4333072     374.9616     59.92639      1.576     5.52    -2.749165     19.73314     46.78602         8     1.097     0.784  47.00  24
       240    213.3142    204.6517 300.2001340 +22.4955898     327.0637     69.96114      1.269     2.45    -2.759364     19.73314     62.74286         7     0.786     0.606 -81.83   0
       241     75.2139    199.7350 300.1588186 +22.4527589     1257.583     69.90769      1.368     2.68    -2.671755     19.73314     159.5381        16     0.991     0.890  69.80   0
       242     24.5831    196.6350 300.1440988 +22.4366813     350.5385     69.94333      1.522     5.11     -2.70857     19.73314     38.75499         8     1.188     0.622  44.06   0
       243    897.9523    195.9565 300.4160719 +22.6982657      384.991     69.97895      1.284     4.47    -2.524278     19.73314     61.31005         8     0.879     0.648  50.80   0
       244    232.4758    193.0442 300.2098572 +22.4980045     3286.186     69.92551      1.380     2.50    -2.712539     19.73314     459.2818        26     1.132     1.007  88.56   0
       245     16.6272    187.4931 300.1445949 +22.4316719     715.2438     69.88986      1.283     2.38    -2.694866     19.73314     105.1051        12     0.870     0.814  62.58   0
       246    215.9147    183.6386 300.2077619 +22.4903387     405.8206     69.92551      1.476     4.37    -2.710168     19.73314     41.31974         7     0.873     0.621  73.74   0
       247    876.1036    174.1908 300.4163253 +22.6854664     2073.692     69.85419      1.318     2.66    -2.506621     19.73314     258.5882        23     1.117     1.025 -68.02   0
       248    979.9704    172.8026 300.4491602 +22.7161690     1681.802     69.88986      1.294     2.44    -2.508546     19.73314     229.0011        18     0.977     0.890  17.75   0
       249    426.2315    169.4869 300.2777558 +22.5493304     408.6662     69.92551      1.504     2.35    -2.536637     19.73314     57.73108         5     0.878     0.396 -79.24   0
       250    350.5960    161.1388 300.2569379 +22.5242609     406.8797     69.92551      1.664     4.35    -2.571228     19.73314     50.33273         6     0.884     0.611 -57.96   0
       251    477.3092    156.8402 300.2977523 +22.5610077     831.4177     69.94333      1.358     3.10    -2.388839     19.73314     103.8073        14     0.977     0.928 -87.98   0
       252    116.2665    158.3695 300.1849956 +22.4532028     490.2561     69.94333      1.482     2.32    -2.525297     19.73314     58.19407         6     0.719     0.575  45.59   0
       253     14.2978    158.1628 300.1533892 +22.4225584     297.8884     69.94333      1.595     4.16    -2.623288     19.73314      27.5905         6     0.768     0.642 -16.46   0
       254    405.4816    156.8058 300.2754158 +22.5394694     256.7898     69.87203      1.219     4.30    -2.547712     19.73314     30.85044         6     1.063     0.496 -86.43   0
       255    251.4005    136.8117 300.2339878 +22.4875379     3424.171     69.76495      1.391     2.62    -2.580042     19.73314     469.0968        25     1.135     0.983  78.52   0
       256    102.3487    136.3016 300.1878320 +22.4426959     413.9517     70.03235      1.284     3.45    -2.361324     19.73314     52.73569         8     0.900     0.643  28.18   0
       257     12.5196    127.2334 300.1628723 +22.4131510     278.6157     69.90769      1.555     2.19    -2.394497     19.73314     48.57014         5     0.701     0.479  73.84   0
       258    497.2972    122.1313 300.3152349 +22.5570289     3685.631     70.06792      1.405     2.83    -2.132962     19.73314     404.7703        25     1.154     1.013  62.73   0
       259    382.8451    121.7152 300.2797604 +22.5226079     449.4959     69.92551      1.424     4.47    -2.588879     19.73314     56.55256        10     0.992     0.958  81.84   0
       260    749.8980    111.4040 300.3973699 +22.6296231     507.5323     69.85419      1.618     2.98    -2.221272     19.73314     55.52132         9     0.918     0.767  58.76   0
       261    842.2437    110.4087 300.4264688 +22.6569928     207.0352     69.96114      1.103     3.46    -2.359799     19.73314     29.22165         5     0.729     0.474  13.63   0
       262    190.1532    105.6850 300.2250489 +22.4602390     292.0773     69.92551      1.326     3.40     -2.39598     19.73314     37.79461         5     0.792     0.423 -16.73   0
       263    625.6187    102.0953 300.3616813 +22.5897211     3653.131     69.85419      1.422     2.76    -2.130775     19.73314     399.1926        27     1.143     1.085  63.25   0
       264    400.4980    101.1308 300.2919299 +22.5219877     906.1425     70.06792      1.430     2.70     -2.58698     19.73314     103.1364        15     1.027     0.842  80.44   0
       265    666.8500     99.6396 300.3753179 +22.6013670     571.3635     69.97895      1.461     4.29    -2.165098     19.73314     56.26517        11     1.164     0.658 -54.03   0
       266    682.6332     95.2300 300.3816641 +22.6048276     350.0652     69.96114      1.220     3.80    -2.165637     19.73314     39.60041         8     0.959     0.606  24.28   0
       267    149.8147     93.5757 300.2164415 +22.4446677     404.0824     69.96114      1.380     3.10    -2.301158     19.73314     62.93483         8     0.868     0.760  29.91   0
       268    952.7014     92.5535 300.4666970 +22.6849318     320.9056     69.97895      1.133     3.00    -2.471765     19.73314     59.81202         8     0.938     0.562  74.37   0
       269    721.0983     90.9937 300.3950198 +22.6151315     375.0829     69.83636      1.384     3.21    -2.174846     19.73314     54.96552         9     0.953     0.834  28.95   0
       270    669.8605     87.0581 300.3803373 +22.5986534     1582.256     70.01456      1.403     2.78    -2.145621     19.73314     196.7963        20     1.069     0.981 -73.69   0
       271    684.9329     85.7072 300.3854698 +22.6027799     565.4919     70.08571      1.819     5.88    -2.152616     19.73314     50.72838        15     1.484     0.909  34.14   0
       272    756.4036     78.4304 300.4100945 +22.6220946     1027.996     69.90769      1.411     3.12     -2.12296     19.73314     106.0114        13     0.992     0.841  70.18   0
       273    694.3934     71.3039 300.3930890 +22.6014744     485.4927     69.83636      1.252     2.92    -2.131853     19.73314      56.2122        10     0.903     0.726 -56.21   0
       274    500.0032     71.0945 300.3326345 +22.5431796     488.9065     69.85419      1.332     3.27    -1.933599     19.73314     78.25556        10     0.905     0.806 -62.67   0
       275     72.6266     71.0317 300.1997730 +22.4150509      256.347     69.94333      1.304     3.55    -2.170928     19.73314     41.52294         6     0.807     0.484 -89.99   0
       276    403.8613     69.1433 300.3033531 +22.5138090     433.1712     70.01456      1.459     3.75    -2.323723     19.73314     62.19554         8     1.032     0.656  43.40   0
       277    175.3137     59.4414 300.2354379 +22.4425151     2288.313     69.92551      1.368     2.52    -2.114577     19.73314      256.756        23     1.131     0.949  78.84   0
       278    743.2647     59.5216 300.4121350 +22.6127249     275.6472     70.03235      1.168     3.34    -2.112439     19.73314     52.47723         5     0.749     0.433  24.11   0
       279    736.3234     51.4506 300.4125906 +22.6083263     395.4271     69.94333      1.318     3.41    -2.105004     19.73314      60.5658        12     1.039     0.864  70.44   0
       280    291.4922     51.3243 300.2741852 +22.4750128     705.5355     70.08571      1.376     3.11    -2.105233     19.73314     77.41417        13     1.051     0.804 -88.64   0
       281    774.3298     46.6020 300.4260046 +22.6183143     397.9311     69.88986      1.569     3.65    -2.040367     19.73314     38.18894         6     0.834     0.545  46.36   0
       282    697.8134     46.9931 300.4020403 +22.5955118     301.9316     69.83636      1.266     2.87    -2.093717     19.73314     48.47734         5     0.668     0.566  -0.59   0
       283    794.1868     42.8791 300.4333996 +22.6231902     1412.188     69.92551      1.432     2.64    -2.003501     19.73314      171.281        16     0.999     0.910  75.09   0
       284    177.7141     38.3176 300.2430352 +22.4371707      627.801     70.06792      1.404     3.16    -1.983405     19.73314     81.95026        13     1.021     0.847 -87.96   0
       285    968.7263     36.1525 300.4899906 +22.6735103     450.9298     69.94333      1.348     2.68    -1.851396     19.73314     60.76986         7     0.812     0.586  58.37   0
       286    742.5499     35.5819 300.4196776 +22.6056298     608.4565     69.94333      1.549     3.33    -2.067774     19.73314     77.01529        10     0.985     0.706  34.70   0
       287    595.2825     20.3635 300.3787480 +22.5571487     379.9459     69.92551      1.215     2.89    -1.842051     19.73314     59.10772        10     0.897     0.729 -40.36   0
       288    205.0173     18.3100 300.2580098 +22.4396117      208.045     69.87203      1.500     4.44    -1.818402     19.73314     40.39563         5     1.178     0.477  66.45   0
       289    758.4417     15.0572 300.4312857 +22.6044888     529.6047     69.92551      1.663     3.90    -2.008979     19.73314     50.27303        10     1.027     0.663  19.89   0
       290    201.4225   1020.3411 299.9312520 +22.7259020      765.295     68.52146      3.829     3.95     8.689207     19.73314     38.77613         5     0.985     0.731 -79.76  17
       291    137.2673   1018.9036 299.9117870 +22.7062163     776.1724     70.05014      4.521     4.74     15.11206     19.73314     35.03883         5     1.109     0.574  20.93  16
       292    129.7837   1006.8096 299.9134005 +22.7005040     866.9971     69.87203     11.544    10.71     12.77939     19.73314      32.1475        13     2.347     1.363  36.09   3
       293    149.8028   1011.7245 299.9180192 +22.7079262     1267.505     69.85419      9.612    11.92     13.59775     19.73314     40.27197        30     2.495     1.585  21.52  16
       294    656.5477   1009.0433 300.0765022 +22.8593240     4099.644     69.97895      1.105     1.86    -5.348091     19.73314      727.649        25     0.946     0.912  14.68   0
