#   1 NUMBER                 Running object number                                     
#   2 X_IMAGE                Object position along x                                    [pixel]
#   3 Y_IMAGE                Object position along y                                    [pixel]
#   4 ALPHA_J2000            Right ascension of barycenter (J2000)                      [deg]
#   5 DELTA_J2000            Declination of barycenter (J2000)                          [deg]
#   6 FLUX_APER              Flux vector within fixed circular aperture(s)              [count]
#   7 FLUXERR_APER           RMS error vector for aperture flux(es)                     [count]
#   8 FLUX_RADIUS            Fraction-of-light radii                                    [pixel]
#   9 FWHM_IMAGE             FWHM assuming a gaussian core                              [pixel]
#  10 BACKGROUND             Background at centroid position                            [count]
#  11 THRESHOLD              Detection threshold above background                       [count]
#  12 FLUX_MAX               Peak flux above background                                 [count]
#  13 ISOAREA_IMAGE          Isophotal area above Analysis threshold                    [pixel**2]
#  14 A_IMAGE                Profile RMS along major axis                               [pixel]
#  15 B_IMAGE                Profile RMS along minor axis                               [pixel]
#  16 THETA_IMAGE            Position angle (CCW/x)                                     [deg]
#  17 FLAGS                  Extraction flags                                          
         1    162.9973      6.0293 300.2567692 +22.4137559     558.0751     70.14879      1.319     3.03     -1.81243     19.80624     74.41396        12     0.992     0.779 -67.51  16
         2    109.9719   1012.2847 299.9132171 +22.6864295     1049.333     70.20245      9.412    10.10     5.654252     19.80624     34.43661        16     1.920     1.481 -38.52  19
         3    394.4496   1022.9227 299.9981633 +22.7749493     3528.064     58.62648      1.064     2.03    -4.587271     19.80624     639.6414        17     0.865     0.794 -25.54  24
         4    113.9170   1021.9467 299.9112952 +22.6903828     1271.239     63.26104     15.314    24.81     6.776595     19.80624     55.12239       115     8.039     2.126  -1.16  27
         5     86.2694    994.5646 299.9116272 +22.6742303     2090.611     70.20245     11.375    27.70     2.601536     19.80624     54.06821       178     6.768     3.147 -29.65  19
         6     71.2460   1017.0283 299.8996451 +22.6761494     1891.513      70.2382      7.799    23.86       2.6666     19.80624     50.76861       108     5.037     3.140 -70.67  27
         7     80.3446   1007.2635 299.9056512 +22.6760871     1956.465     70.25607     13.056    17.34     3.030527     19.80624     51.32726        78     3.640     2.295 -27.12  19
         8     90.3920   1005.4454 299.9093637 +22.6785860     2163.457     70.22033     15.231    20.21     4.042721     19.80624     51.03051       102     4.435     2.557 -42.74  19
         9    100.7995   1010.1945 299.9110491 +22.6830742     1396.643     70.02341      9.206     8.06     5.438176     19.80624     75.74765        25     1.893     1.677 -83.11  19
        10    104.6112   1010.9315 299.9119929 +22.6844309     749.3547     70.22033      3.638     3.51     5.547087     19.80624     36.49856         5     1.477     0.241  62.06   3
        11    426.7451   1010.0135 300.0124124 +22.7809491     338.5306     70.20245      1.242     2.22    -4.722787     19.80624     50.10323         7     0.705     0.635  88.22   0
        12    120.6128   1010.4583 299.9171170 +22.6891042     484.0705     70.16668      5.316     5.36      5.41619     19.80624     34.37219         5     1.119     0.724 -17.58   1
        13    940.4861   1001.3896 300.1751893 +22.9326923     1167.402     70.14879      0.943     1.68    -4.738812     19.80624     238.6396        11     0.734     0.675 -60.87   0
        14    729.8694    990.3486 300.1131607 +22.8663216     469.1469     70.18457      1.814     4.98    -4.730689     19.80624     62.14989         9     1.489     0.595  52.34   0
        15     86.8037   1019.8179 299.9035679 +22.6816244     2856.723     69.77198     14.658    31.23     5.159845     19.80624     63.72645       232     7.019     3.857 -15.24  27
        16    764.2559    984.5516 300.1257592 +22.8749792     610.9442      70.2382      1.089     2.23    -4.747176     19.80624     114.7863        11     0.883     0.763 -25.94   0
        17    786.4243    978.2798 300.1347077 +22.8798329     6424.706     70.18457      1.032     1.71    -4.754186     19.80624     1178.162        31     0.998     0.864 -35.12   0
        18    831.9299    978.2266 300.1489023 +22.8934734     204.5728     70.20245      0.850     1.95    -4.759941     19.80624     74.42157         5     0.827     0.323  46.02   0
        19    977.3242    977.5087 300.1944530 +22.9368901     287.2875     70.34536      0.929     2.37    -4.710366     19.80624     51.53819         5     0.681     0.471  19.88   0
        20    919.0641    971.7830 300.1781559 +22.9177687     283.5343     70.18457      1.708     4.69    -4.677389     19.80624     31.25805         6     1.395     0.447 -70.99   0
        21    541.7107    985.7112 300.0560949 +22.8085061     179.7152      70.3632      1.568     3.47    -4.698889     19.80624     32.06779         5     1.157     0.301 -35.89   0
        22    491.7776    966.4404 300.0468347 +22.7879873     400.2124      70.2382      1.418     2.07    -4.687032     19.80624     52.56891         5     0.697     0.427 -27.34   0
        23    795.1458    960.1968 300.1433146 +22.8772621     930.3204     70.16668      1.235     2.06    -4.746151     19.80624     170.2955        11     0.856     0.744 -54.47   0
        24    977.8624    959.3378 300.2005395 +22.9318362     270.6513      70.2382      1.126     1.71    -4.698799     19.80624     68.39024         5     0.687     0.421 -23.43   0
        25    647.4050    957.6674 300.0981271 +22.8321949     362.9947     70.18457      1.051     3.20    -4.691846     19.80624     50.12803         5     0.714     0.475 -76.74   0
        26    833.0931    953.8008 300.1572206 +22.8868140       506.41     70.07717      1.044     1.80    -4.741816     19.80624     106.4635         8     0.717     0.632  44.57   0
        27    832.5280    949.1429 300.1585615 +22.8853078     243.4232      70.2382      1.793     4.25    -4.738043     19.80624     28.12721         5     0.933     0.552  43.07   0
        28    626.2071    946.6201 300.0951257 +22.8226631     116.9335     70.16668      1.030     3.40    -4.674721     19.80624     28.34729         5     0.775     0.433 -19.99   0
        29    881.5835    944.9673 300.1752081 +22.8988283     240.0191     70.18457      0.905     1.76     -4.69509     19.80624     76.12366         6     0.677     0.491 -84.69   0
        30    732.7987    944.2565 300.1290855 +22.8539785     538.0748     70.13089      1.249     2.23    -4.731963     19.80624     97.00787         9     0.826     0.671 -76.68   0
        31    744.0286    941.3651 300.1335248 +22.8565192     283.6208     70.22033      1.113     3.64    -4.733814     19.80624     56.67648         6     0.974     0.483 -53.85   0
        32    445.4889    940.6782 300.0408249 +22.7667013     2394.809     70.32751      1.149     2.19    -4.667578     19.80624     347.6689        20     0.976     0.882  56.61   0
        33    224.0068    929.8284 299.9754981 +22.6970691     213.6956     70.20245      1.244     5.02    -3.949363     19.80624     35.55109         7     1.104     0.645   3.05   0
        34    170.5508    926.4034 299.9600037 +22.6800280     557.8158     70.20245      1.075     2.25    -3.605337     19.80624     89.05165         7     0.762     0.619  76.50   0
        35    147.9499    923.5141 299.9539232 +22.6724097     973.6215     70.20245      1.223     2.18    -3.590199     19.80624      170.141        14     0.946     0.779 -87.05   0
        36    678.8828    911.7128 300.1228933 +22.8284610     285.0998     70.30966      1.376     3.94    -4.647836     19.80624     35.97294         6     1.644     0.271 -52.70   0
        37     22.8631    913.1802 299.9184404 +22.6318621     232.3285     70.18457      1.469     4.08    -3.814963     19.80624     45.29222         6     0.936     0.509 -33.75   0
        38   1019.4650    912.0344 300.2289176 +22.9307360     1193.494     70.20245      0.965     1.66    -4.593566     19.80624     265.7892        11     0.791     0.655 -15.15  16
        39    973.6861    910.5337 300.2151318 +22.9165746     1274.626     70.30966      1.038     1.81     -4.49895     19.80624     224.7978        14     0.871     0.761 -71.93   0
        40    179.9445    905.1637 299.9698378 +22.6767638     296.9877     70.22033      1.190     3.06    -3.754431     19.80624     47.81497         6     0.913     0.568  26.98   0
        41    757.5594    904.3093 300.1498065 +22.8499480     296.4111     70.20245      0.926     3.24    -4.675745     19.80624     54.93123         6     0.813     0.525  50.72   0
        42    115.3371    899.8655 299.9514925 +22.6558349     280.0236      70.2382      1.179     4.33    -3.796122     19.80624     41.06229         6     0.869     0.614 -54.51   0
        43    625.4769    898.5690 300.1105457 +22.8086613     2743.205     70.18457      1.122     2.08    -4.471933     19.80624     394.5258        18     0.904     0.880 -67.29   0
        44    427.6515    895.8156 300.0498848 +22.7484823     470.5115     70.20245      1.240     2.45    -4.652723     19.80624     68.33681         5     0.718     0.446  72.69   0
        45    175.6983    892.7637 299.9725557 +22.6719347     736.7859     70.20245      1.199     2.50    -3.780714     19.80624     113.4347        13     0.900     0.801  64.10   0
        46    646.1555    890.8733 300.1194891 +22.8126603     432.5527     70.18457      1.227     2.67    -4.483747     19.80624     75.07479         7     0.819     0.577 -80.92   0
        47    194.9783    890.0449 299.9794312 +22.6769475     265.8221     70.25607      1.273     2.99     -3.88088     19.80624     39.92041         7     0.873     0.516 -50.63   0
        48    801.3276    878.2579 300.1719235 +22.8556054     2487.891      70.2382      1.146     1.96    -4.520883     19.80624     391.3867        21     1.008     0.849  67.42   0
        49   1018.4361    878.1556 300.2396285 +22.9207009     691.3928     70.25607      1.076     2.06    -4.196635     19.80624     127.8596        10     0.794     0.702  31.77  16
        50    210.3167    873.0576 299.9897275 +22.6766866     172.0337      70.2918      1.215     3.37    -3.971734     19.80624     41.19682         5     0.799     0.412  71.67   0
        51    518.5964    870.9418 300.0862759 +22.7686542     435.7337     70.16668      1.254     1.83    -4.600704     19.80624     80.16171         6     0.723     0.485  82.15   0
        52    164.9574    869.1922 299.9768924 +22.6619530     614.3159     70.22033      1.322     2.38    -3.849179     19.80624     92.94717        10     0.895     0.692  19.41   0
        53    314.5819    861.2336 300.0259834 +22.7046135     30729.18     70.18457      1.232     2.16    -4.385881     19.80624     4719.057        65     1.161     1.093 -88.37   0
        54    572.3806    860.2041 300.1065092 +22.7817194     974.0939     70.16668      1.319     2.45    -4.387855     19.80624       140.35        15     0.961     0.916 -73.68   0
        55    985.2292    858.9785 300.2355178 +22.9052363     519.6093     70.20245      1.126     1.76    -4.059968     19.80624     124.3102         8     0.800     0.591 -77.49   0
        56    242.8682    858.8792 300.0044589 +22.6824003     505.5102     70.30966      1.527     3.17    -4.070401     19.80624     65.23368         8     0.944     0.603 -64.15   0
        57    601.2480    855.9734 300.1168716 +22.7891704     628.9814     70.22033      1.330     2.63    -4.214231     19.80624     76.06705        10     0.876     0.719  -9.05   0
        58      1.4085    855.6485 299.9305085 +22.6089335      322.744     55.09412      0.950     3.05    -3.927213     19.80624     78.01794         6     0.935     0.459 -57.48  24
        59    611.7880    854.4300 300.1206550 +22.7918911     216.2258     70.20245      0.992     3.04    -4.180965     19.80624     49.41552         5     0.898     0.444 -16.30   0
        60    932.1739    851.5886 300.2213830 +22.8872024     270.6284     70.20245      1.324     4.20    -4.075148     19.80624     31.82584         6     0.760     0.661  38.27   0
        61    717.3616    850.6064 300.1547714 +22.8224767     232.6996      70.2382      1.097     3.46    -4.552925     19.80624     41.69212         5     0.751     0.459 -16.24   0
        62    755.1758    840.8305 300.1697314 +22.8310177     341.6628     70.20245      1.103     1.90    -4.546634     19.80624     75.60672         7     0.682     0.606   8.04   0
        63    364.2695    838.4451 300.0488503 +22.7130008        18433     70.18457      1.255     2.31    -4.636559     19.80624     2308.509        49     1.126     1.078  76.17   0
        64    378.5893    838.9583 300.0531362 +22.7174478     1151.709     70.20245      1.408     2.31    -4.636445     19.80624      178.794        15     0.932     0.914 -67.21   0
        65    887.1967    833.8375 300.2131426 +22.8686161     1538.885      70.2382      1.142     1.87    -4.064383     19.80624      322.158        17     1.088     0.735 -83.14   0
        66    375.4149    832.7426 300.0541723 +22.7147124     426.9788     70.18457      1.374     2.72    -4.631316     19.80624     44.17405         5     0.693     0.484 -79.20   0
        67    246.8269    830.4088 300.0149565 +22.6754284     444.6059     70.20245      1.228     3.21    -4.082788     19.80624     74.27073        10     1.028     0.668  85.60   0
        68    645.3141    830.1132 300.1390080 +22.7949766     617.6517     70.32751      1.450     3.05    -4.174801     19.80624     75.18983         8     0.890     0.658 -78.84   0
        69    492.5784    825.2939 300.0930403 +22.7477516     433.1983     70.13089      1.199     3.25    -4.267949     19.80624     59.66361        10     0.973     0.738 -64.15   0
        70     51.7794    826.1181 299.9557599 +22.6156078     227.6987     70.16668      1.023     2.87    -3.930261     19.80624     47.96284         6     0.858     0.475 -56.08   0
        71    350.2573    821.0081 300.0501690 +22.7037938      201.481     70.18457      1.249     3.80     -4.60245     19.80624     28.54657         5     0.825     0.503 -38.89   0
        72    244.7067    819.1921 300.0179484 +22.6715762     963.1612     70.11299      0.648     0.91    -4.077658     19.80624     476.2316         6     0.548     0.420  60.16   0
        73    636.7425    817.0640 300.1405869 +22.7886603     1865.804     70.25607      0.547     0.85    -4.114197     19.80624     1219.819         7     0.469     0.346 -13.47   0
        74    870.9401    816.0309 300.2138725 +22.8586285     330.8912      70.2382      1.444     3.81    -4.043355     19.80624     31.61597         5     0.653     0.639   5.71   0
        75    244.5763    814.7473 300.0193545 +22.6702629     277.2233     70.22033      1.192     3.36     -4.07782     19.80624     39.92506         5     0.786     0.417  66.52   0
        76    537.2195    803.0768 300.1141622 +22.7547788     378.9317     70.20245      1.222     3.06     -3.97277     19.80624     60.11102         8     0.863     0.606 -41.00   0
        77    559.1909    800.4268 300.1218623 +22.7606130     657.5196     70.20245      1.214     2.46    -3.968429     19.80624     101.9088        10     0.856     0.736 -66.57   0
        78    953.5582    799.2234 300.2450957 +22.8785821     2628.836      70.2382      1.072     1.81    -4.044346     19.80624     449.1162        19     0.883     0.856   0.96   0
        79    941.9764    790.6014 300.2442913 +22.8726332     1013.689     70.14879      1.181     1.95    -4.037935     19.80624     176.6432        13     0.839     0.773  84.22   0
        80    305.3798    784.8894 300.0479714 +22.6799621     636.4078     70.14879      1.784     3.93    -4.296871     19.80624     62.10842        11     1.115     0.726 -22.10   0
        81    768.2767    781.9927 300.1929638 +22.8180622     1388.171     70.14879      1.243     2.47    -4.246175     19.80624     182.7454        16     0.981     0.846  66.96   0
        82    973.1238    780.5036 300.2572886 +22.8790742      947.699     70.34536      1.074     1.99    -4.044422     19.80624     179.9914        10     0.835     0.692 -87.77   0
        83    154.2858    768.6428 300.0063024 +22.6299290     216.0185     70.16668      1.169     2.90    -4.052928     19.80624     54.79344         8     0.913     0.648 -89.92   0
        84    850.3018    767.4247 300.2232611 +22.8384850     242.7431     70.13089      1.115     2.80    -3.960602     19.80624     37.66849         5     0.699     0.471  16.80   0
        85    886.7821    758.8828 300.2374099 +22.8469738     85316.56     70.14879      1.251     2.18    -3.955254     19.80624     13249.76        93     1.166     1.128  87.40   0
        86    739.1857    759.4780 300.1912296 +22.8028730      408.977     70.22033      1.288     3.65    -4.201756     19.80624     52.95379         8     0.859     0.691 -46.78   0
        87    919.6548    751.5869 300.2500304 +22.8547373     137.6936     70.20245      1.047     3.70     -4.00366     19.80624      48.7768         5     0.987     0.400  73.43   0
        88    573.0996    747.8798 300.1432917 +22.7497117     939.6965     70.32751      1.327     2.92     -3.96849     19.80624     117.9713        16     1.052     0.879  82.77   0
        89    754.3157    745.1644 300.2006001 +22.8033035     5370.215     70.18457      1.301     2.52    -4.052477     19.80624     632.2981        28     1.049     1.018   4.71   0
        90    255.9978    740.5790 300.0470399 +22.6524292     2800.549     70.13089      1.363     2.53    -4.173222     19.80624     344.7901        25     1.114     1.000  68.38   0
        91    337.9642    738.8473 300.0730840 +22.6765430     675.4572     70.22033      1.290     3.21    -4.504615     19.80624     104.9818        12     1.048     0.777  50.65   0
        92    213.8770    736.7374 300.0351994 +22.6386795     224.9574     70.27394      1.125     2.63      -4.1625     19.80624     42.68719         5     0.685     0.672 -62.10   0
        93    546.2555    734.2595 300.1393690 +22.7377481     401.8086     70.27394      1.450     4.33    -3.912519     19.80624     42.89877         8     0.924     0.653 -80.00   0
        94    537.8746    726.1473 300.1394003 +22.7329056     1926.133     70.20245      1.440     2.90    -3.887621     19.80624     202.8584        24     1.145     1.097  78.82   0
        95    527.9921    719.7327 300.1384121 +22.7280995     784.9637     70.20245      1.371     2.99    -3.893309     19.80624     97.11359        13     0.982     0.840  55.48   0
        96    921.7441    717.0578 300.2619175 +22.8454490     243.9221     70.27394      1.119     2.82    -3.998586     19.80624     43.72261         6     0.856     0.474 -51.81   0
        97    191.2616    716.5023 300.0347554 +22.6260867     342.8228      70.2918      1.342     3.15    -4.138705     19.80624     50.61833         7     0.821     0.641 -82.56   0
        98    205.5333    714.8250 300.0397357 +22.6298915     380.9389     70.18457      1.299     3.88    -4.156254     19.80624     46.41762         7     0.963     0.496  86.05   0
        99    231.4488    711.3495 300.0489199 +22.6366770     342.4105      70.2382      1.362     3.49    -4.165902     19.80624     38.51333         5     0.756     0.465  72.72   0
       100    452.8387    709.6750 300.1183016 +22.7026591     1064.965     70.16668      1.514     3.06     -4.15996     19.80624     103.4973        16     1.085     0.901  27.58   0
       101    106.9679    704.8383 300.0123626 +22.5974280     11489.65      70.2382      1.307     2.30    -4.162421     19.80624     1701.968        42     1.141     1.056  80.18   0
       102     27.9258    706.0034 299.9874367 +22.5740205     369.9788     70.11299      1.539     3.04    -4.038017     19.80624     59.92744         7     0.972     0.521 -32.63   0
       103    537.7477    704.9373 300.1462616 +22.7267821     619.1768     70.25607      1.366     3.21    -3.751043     19.80624     72.53393        10     0.900     0.790  61.91   0
       104    572.8546    703.9603 300.1575055 +22.7370364     191.5836     70.20245      1.404     4.68    -3.801883     19.80624     30.64219         5     0.926     0.673 -62.69   0
       105    955.7696    690.8400 300.2810549 +22.8481221     587.4186     70.22033      1.227     2.62    -4.097683     19.80624     91.33876        11     0.903     0.757 -74.57   0
       106     52.8595    688.7099 300.0008045 +22.5765534     820.2882      70.2918      1.636     3.93    -4.132409     19.80624     92.14146        17     1.365     0.841  80.42   0
       107    822.4588    688.7011 300.2402008 +22.8075333     128.8242      70.2918      1.351     3.48    -3.857781     19.80624     30.44701         5     0.746     0.469 -73.08   0
       108    501.4525    685.7910 300.1411962 +22.7103968     116.1747     70.20245      1.056     3.46    -3.830328     19.80624      31.3798         5     0.785     0.441 -69.10   0
       109    895.5739    683.5092 300.2646753 +22.8279680     439.3115     70.14879      1.318     3.72    -3.937871     19.80624     47.42531         6     0.945     0.421  72.11   0
       110    457.7805    677.8150 300.1302036 +22.6950023     461.9393     70.18457      1.653     4.39    -3.913128     19.80624     35.52892         9     1.053     0.675  44.69   0
       111    653.1312    675.0497 300.1919010 +22.7528250     259.1843     70.20245      1.328     4.77    -3.940434     19.80624     34.17986         9     0.940     0.725  80.23   0
       112    623.4550    674.5545 300.1828228 +22.7437798     313.4769      70.2382      1.457     4.15    -3.879759     19.80624     40.28425         7     1.019     0.482   7.87   0
       113    502.3954    673.7264 300.1454142 +22.7072183      416.136     70.14879      1.437     4.42    -3.759654     19.80624     59.50642         8     0.930     0.765 -63.48   0
       114    467.6754    669.2752 300.1360598 +22.6955218     1089.312      70.2918      1.543     3.39    -3.845091     19.80624     114.8808        19     1.337     0.936 -85.74   0
       115    935.6735    668.9079 300.2819250 +22.8357982      2000.14     70.34536      1.299     2.41    -4.033914     19.80624     270.5068        18     0.979     0.887 -73.27   0
       116     29.7280    663.1790 300.0019260 +22.5622877     2929.221     70.22033      1.303     2.29    -4.159844     19.80624     437.4951        26     1.144     0.961 -86.24   0
       117    331.0381    656.0149 300.0978771 +22.6507075      5216.31     70.22033      1.426     2.86    -3.902067     19.80624     547.3463        31     1.172     1.073  77.30   0
       118    453.4613    653.0001 300.1369317 +22.6865868     5147.967     70.14879      1.480     2.76    -3.722594     19.80624       615.95        33     1.195     1.144  87.01   0
       119    865.1308    646.4907 300.2672294 +22.8082093      1061.13     70.34536      1.338     2.81    -3.843182     19.80624     148.0173        17     1.129     0.913 -68.72   0
       120    949.6243    643.9492 300.2943932 +22.8328123      7333.42     70.22033      1.286     2.28    -4.003596     19.80624     987.4662        30     1.067     0.996 -85.80   0
       121    514.0309    642.5688 300.1591694 +22.7017695     6651.066     70.22033      1.454     2.88    -3.506918     19.80624     661.7195        36     1.203     1.138  54.64   0
       122    683.6287    638.2362 300.2133720 +22.7514066     216.7984     70.22033      1.173     5.66    -3.756151     19.80624     37.12527        10     1.098     0.870  -7.76   0
       123    241.5215    638.1826 300.0758500 +22.6187204     755.4947     70.20245      1.425     2.79    -4.051579     19.80624     104.1513        15     1.014     0.910  64.83   0
       124    445.8102    630.7857 300.1417767 +22.6779171     2420.406     70.11299      1.443     2.96    -3.559132     19.80624     273.0109        22     1.118     0.993  73.48   0
       125    788.4117    630.3013 300.2485899 +22.7805551     485.6859     70.11299      1.432     3.57    -3.605033     19.80624     49.50828        10     1.020     0.704  58.35   0
       126    423.7985    629.3167 300.1354075 +22.6708900     736.4588     70.11299      1.755     5.55    -3.566726     19.80624     64.69603        13     1.187     0.965  50.54   0
       127    178.0979    628.7762 300.0591999 +22.5969810     414.6112     70.13089      1.646     3.24    -4.123963     19.80624     71.87926         8     0.992     0.672  39.09   0
       128    865.3178    625.9974 300.2739534 +22.8023803       911.08     70.11299      1.427     2.89    -3.826664     19.80624     94.11842        13     0.981     0.809 -50.46   0
       129    562.2784    618.2266 300.1821012 +22.7092600     116685.3     70.20245      1.525     2.99    -3.369194     19.80624     11322.33       151     1.438     1.405 -41.19   0
       130    746.2213    623.0858 300.2377937 +22.7658306     358.3114     70.13089      1.323     2.78       -3.659     19.80624      63.7371         9     0.869     0.689 -20.75   0
       131    248.5564    618.4417 300.0844565 +22.6151708     1964.291      70.2918      1.389     2.46    -4.008126     19.80624     263.0403        23     1.107     1.060  59.08   0
       132    814.1233    614.9879 300.2615812 +22.7838681     261.6755     70.22033      1.340     4.65    -3.557959     19.80624     36.51106         5     1.231     0.498 -67.02   0
       133    452.9355    598.7111 300.1544243 +22.6708522     1489.215     70.32751      1.540     3.48    -3.368268     19.80624     154.8134        25     1.421     0.997  89.14   0
       134    297.5868    601.0961 300.1053379 +22.6249139     226.0548     70.13089      1.085     3.17    -3.899946     19.80624     40.81049         5     0.804     0.668 -52.73   0
       135    849.8435    584.5306 300.2826169 +22.7858319     967.5402     70.16668      1.396     2.69    -3.584948     19.80624     110.5744        15     0.975     0.898 -25.89   0
       136    721.0927    582.3615 300.2432109 +22.7466020      1375.37     70.20245      1.448     3.04    -3.573197     19.80624     140.5757        19     1.108     0.971  47.23   0
       137    508.3795    578.1641 300.1783559 +22.6815917     316.3157     70.22033      1.335     3.56    -3.195376     19.80624     49.86593         7     0.756     0.642  63.66   0
       138    978.3702    575.9999 300.3254550 +22.8219108     722.6179     70.14879      1.218     2.40    -3.834375     19.80624     98.76769         9     0.784     0.708  81.37   0
       139    964.0049    575.1903 300.3212393 +22.8173724     459.7951     70.05926      1.365     2.68    -3.783056     19.80624     69.43491        10     0.918     0.704 -53.48   0
       140    850.1692    574.9543 300.2858324 +22.7831792     983.6161      70.2382      1.375     2.94    -3.524656     19.80624     121.1253        17     1.025     0.986   3.75   0
       141    603.1492    571.9504 300.2098716 +22.7082385     400.1732      70.2382      1.880     5.97    -3.293583     19.80624     33.39705        10     1.698     0.591  77.95   0
       142    888.2254    569.6520 300.2994171 +22.7930655     2557.776     70.22033      1.358     2.68    -3.562271     19.80624     300.1086        22     1.087     0.975 -19.27   0
       143    442.5297    570.9807 300.1602043 +22.6597727     340.3888     70.22033      1.974     4.22    -3.359619     19.80624     32.67168         6     1.023     0.497 -87.28   0
       144    120.3327    560.3728 300.0634959 +22.5600224     578.4279     70.18457      1.343     3.28    -3.827892     19.80624     72.93888        11     1.026     0.719 -89.15   0
       145    980.0879    559.9352 300.3312145 +22.8178104     387.6939      70.2918      1.310     2.44    -3.819922     19.80624     55.52347         8     0.786     0.651  40.06   0
       146    564.0677    558.3198 300.2021387 +22.6926027     3740.054     70.30966      0.593     0.87    -3.065602     19.80624     2160.525         8     0.500     0.375 -89.20   0
       147    113.6933    550.6481 300.0645951 +22.5552403      242.174     70.22033      1.669     6.16    -3.763599     19.80624     35.73388         7     1.273     0.836  15.13   0
       148    976.0193    548.8351 300.3335552 +22.8134019     218.7798     70.22033      1.391     3.97    -3.780144     19.80624      26.3413         5     0.862     0.524 -56.40   0
       149    661.7794    540.5201 300.2383445 +22.7168006     496.8013     70.18457      1.618     2.70    -3.474672     19.80624     57.88265         9     0.907     0.676  36.68   0
       150    976.0336    532.6298 300.3388286 +22.8087503     276.5187     70.22033      1.382     4.74    -3.687167     19.80624     41.43084         7     1.037     0.615 -16.59   0
       151    722.8614    532.6351 300.2599302 +22.7328542     373.1236     70.22033      1.329     3.12    -3.512945     19.80624     66.32349         9     1.058     0.634  84.87   0
       152    524.9128    531.8184 300.1985692 +22.6732502     1001.294     70.14879      0.673     1.50    -2.980609     19.80624     495.0259         6     0.646     0.385  -3.14   0
       153    879.5283    528.7094 300.3100188 +22.7786979     469.5571      70.3632      1.258     2.83    -3.250295     19.80624     78.87404        11     0.904     0.790 -12.20   0
       154    863.9821    525.2023 300.3063138 +22.7730302     337.0902     70.11299      1.420     3.88    -3.192782     19.80624     40.47248         6     0.893     0.484 -30.74   0
       155    608.2487    523.2146 300.2273044 +22.6957775      1775.25      70.2382      1.497     3.17    -3.109031     19.80624     164.5831        20     1.088     1.021 -55.02   0
       156    968.4700    521.9858 300.3399308 +22.8034253     285.6732     70.22033      1.553     4.78     -3.55452     19.80624     30.49585         5     0.978     0.661   0.73   0
       157   1019.4891    501.8209 300.3623958 +22.8129208      751.534     70.13089      1.374     2.82     -3.75593     19.80624     93.56291        12     1.031     0.753  72.43  16
       158    891.3256    501.8310 300.3224339 +22.7745129     282.2174     70.22033      1.243     3.09    -3.069591     19.80624     46.88459         9     0.846     0.754  -0.99   0
       159    977.7808    500.7060 300.3497520 +22.8001016     573.7701     70.13089      1.463     3.89    -3.471455     19.80624     58.69089        11     0.954     0.818  40.59   0
       160    718.9641    497.0205 300.2702943 +22.7214584     452.6545     70.22033      1.301     3.39    -3.365395     19.80624     57.47525        10     0.899     0.745 -83.36   0
       161    223.1690    495.6497 300.1164880 +22.5723297     407.3741      70.2382      1.506     4.23    -3.395541     19.80624     41.34446         7     0.900     0.568 -78.29   0
       162    285.2351    491.2029 300.1372251 +22.5896813     2049.597     70.20245      1.540     3.08    -3.331728     19.80624     202.9495        24     1.236     1.086 -85.63   0
       163   1018.0434    489.2190 300.3660415 +22.8088663     2480.344     70.22033      1.278     2.33    -3.656942     19.80624     331.5817        21     1.005     0.960 -25.98  16
       164    232.4246    485.9947 300.1225027 +22.5723379     4433.338     70.18457      1.529     2.89     -3.28695     19.80624     491.5378        31     1.245     1.119  88.78   0
       165    373.2381    480.2366 300.1681520 +22.6129419     2849.394     70.27394      1.611     3.22    -3.305233     19.80624     258.4658        27     1.269     1.117  70.91   0
       166    998.1252    480.2605 300.3627421 +22.8003233     1151.223     70.25607      1.384     2.69    -3.457009     19.80624     119.1908        17     1.011     0.943  80.81   0
       167    617.3427    476.7427 300.2452418 +22.6851625     10359.78     70.27394      1.609     3.29    -2.992789     19.80624     983.7142        44     1.295     1.255 -77.81   0
       168    635.1304    476.5362 300.2508468 +22.6904376     471.3838      70.2382      1.983     6.36    -3.053999     19.80624     36.53754        10     1.391     0.818 -34.87   0
       169    951.0451    459.2054 300.3549061 +22.7801646     451.7227     70.20245      1.259     3.36    -3.070825     19.80624      62.9869         9     0.960     0.688 -73.92   0
       170    172.3242    457.1323 300.1132064 +22.5460199     1072.654     70.27394      1.382     2.71    -3.154364     19.80624     159.0532        18     1.072     0.940 -73.46   0
       171    557.9511    446.2232 300.2366735 +22.6585883     3780.038     70.20245      1.609     3.33    -2.954451     19.80624     327.9814        31     1.249     1.209 -62.79   0
       172    971.5456    446.3485 300.3654766 +22.7826135     779.1767      70.2382      1.383     3.03    -3.109727     19.80624     81.30061        14     1.031     0.808 -57.63   0
       173    273.1810    445.7635 300.1482458 +22.5730267     275.2692     70.20245      1.453     5.55    -3.136696     19.80624     34.11137         9     1.056     0.823 -40.73   0
       174    130.6846    438.6197 300.1062854 +22.5282114     268.1859     70.13089      1.215     2.58    -3.070424     19.80624     64.27747         8     0.947     0.748  89.64   0
       175    762.3394    434.9911 300.3039663 +22.7166475     688.1389     70.16668      1.596     5.23    -3.064228     19.80624     57.36937        13     1.205     0.860 -58.45   0
       176    671.1889    435.8256 300.2753056 +22.6895596     416.7416     70.20245      1.718     4.80    -3.106946     19.80624     34.68645         8     1.053     0.620  58.51   0
       177    464.6935    432.5516 300.2120967 +22.6266924     3533.717      70.2382      1.654     3.26    -2.987908     19.80624     360.7408        31     1.275     1.181 -81.82   0
       178    856.5507    426.7780 300.3359901 +22.7425277     728.7604     70.20245      1.525     4.11    -2.788756     19.80624     67.71129        13     1.041     0.880  74.84   0
       179    953.6088    426.7648 300.3662486 +22.7716109      209.141     70.20245      1.170     3.25     -2.97052     19.80624     33.46431         5     0.720     0.467  75.09   0
       180    449.7999    421.8518 300.2109402 +22.6191535      247.562     70.14879      1.290     3.55    -3.057647     19.80624     43.50433         5     0.790     0.514 -41.86   0
       181    829.0053    414.2210 300.3314867 +22.7306641     250.3757     70.18457      1.417     5.91    -2.826276     19.80624     34.16236         7     1.136     0.865  43.11   0
       182    352.2301    411.8227 300.1838519 +22.5870053      1401.62     70.18457      1.610     3.31    -3.212352     19.80624     156.5558        24     1.258     1.151 -80.19   0
       183     70.8963    409.3521 300.0972238 +22.5018700     560.3573      70.2382      1.574     3.78    -2.994804     19.80624     62.29803         9     1.048     0.755  65.78   0
       184    321.5294    401.2968 300.1777258 +22.5747737     17160.14     70.32751      1.631     3.15    -3.169157     19.80624     1727.032        59     1.383     1.304 -89.19   0
       185    856.0507    398.2348 300.3451095 +22.7341769     856.2335     70.22033      1.470     3.45    -2.867611     19.80624     86.29707        16     1.130     0.913  41.06   0
       186     18.0161    389.3486 300.0873011 +22.4802589     2732.616     70.20245      1.377     2.53    -2.994804     19.80624     357.7928        24     1.105     0.999  79.27   0
       187    771.0883    387.3667 300.3221674 +22.7055895     202.3156     70.16668      1.492     5.15    -3.017603     19.80624     31.98216         5     1.006     0.744  67.92   0
       188    420.5915    386.9371 300.2131987 +22.6003697     297.6328     70.14879      1.367     4.93    -3.172812     19.80624     40.32606         6     1.043     0.710  -5.92   0
       189    732.0557    380.6099 300.3122038 +22.6919484     1057.427     70.20245      1.560     4.32    -3.082198     19.80624     94.28307        20     1.330     1.012  -6.88   0
       190    947.0063    372.8040 300.3817244 +22.7541251     253.7729     70.04134      1.377     4.32    -2.972767     19.80624     35.93362         6     1.044     0.508 -80.45   0
       191    393.7061    365.5939 300.2117703 +22.5861786     1376.529     70.09509      1.837     4.82    -3.168845     19.80624     99.66385        24     1.475     1.127  77.47   0
       192    833.0328    358.2697 300.3509215 +22.7157955     448.8598     70.18457      1.509     3.43    -3.065186     19.80624     43.33614         7     0.850     0.595 -27.96   0
       193    469.4805    345.0576 300.2420132 +22.6030098     667.5018      70.2382      1.660     4.15    -2.963376     19.80624     61.25044        13     1.039     0.900  13.71   0
       194    714.2349    336.6381 300.3209386 +22.6739748     1365.593     70.27394      1.655     3.58    -3.077722     19.80624     102.0654        20     1.225     1.020 -61.55   0
       195    975.4797    330.7871 300.4042527 +22.7505794     1773.914     70.18457      1.424     3.12    -3.085094     19.80624     198.9059        17     1.087     0.905  10.34   0
       196    128.0668    315.7174 300.1453992 +22.4921674     353.4331     70.30966      1.529     3.89    -3.001359     19.80624     41.31094         5     0.868     0.498 -48.86   0
       197     97.7681    315.1049 300.1361860 +22.4828993     925.1536     70.18457      1.698     2.96    -3.029832     19.80624     105.6452        19     1.119     1.041  -0.87   0
       198    991.1673    310.7699 300.4156468 +22.7495249     279.0402     70.22033      1.537     3.93    -3.167724     19.80624     32.23674         6     0.768     0.577 -51.57   0
       199    181.1504    307.0907 300.1646941 +22.5056206     493.1718     70.20245      1.706     4.58    -2.954359     19.80624     48.42645         8     1.010     0.620 -57.33   0
       200    785.7118    297.7307 300.3558422 +22.6842188     310.3121      70.3632      1.540     4.57    -3.094693     19.80624     33.05646         6     1.081     0.700  82.73   0
       201    376.9405    297.5652 300.2286532 +22.5616207     263.9319     70.22033      1.373     3.48    -2.954751     19.80624     35.02565         5     0.769     0.586  82.12   0
       202    883.8935    286.9468 300.3899406 +22.7105395     1323.058     70.25607      1.519     3.07     -3.15934     19.80624     141.9792        17     1.074     0.942 -31.78   0
       203    302.6570    284.7045 300.2097311 +22.5356480     1167.996     70.27394      1.585     3.84    -2.814623     19.80624     122.3975        23     1.289     1.115  69.26   0
       204    380.6597    280.2195 300.2354431 +22.5577563     606.2404     70.14879      1.772     4.97    -2.842921     19.80624     57.98078        15     1.399     1.017  52.58   0
       205    782.8455    279.1757 300.3609756 +22.6780281     203.9016     70.22033      1.252     4.00    -3.097103     19.80624     31.59949         6     0.775     0.590 -55.97   0
       206    197.5613    272.0905 300.1811602 +22.5005001     409.0218     70.20245      1.453     4.26    -2.898126     19.80624     46.53646        10     1.163     0.711  14.27   0
       207    735.1219    268.7253 300.3495025 +22.6607235     1017.574     70.30966      1.607     3.50    -3.089999     19.80624     106.0311        18     1.134     1.076 -71.17   0
       208    799.8394    267.7549 300.3699794 +22.6798386     297.9286     70.27394      1.422     6.26    -3.097103     19.80624     41.63924         8     1.239     0.889 -80.35   0
       209    218.7978    265.4260 300.1899241 +22.5049585     413.5361     70.14879      1.594     4.20    -2.835748     19.80624     44.98425         6     1.006     0.709  60.84   0
       210   1006.6768    260.9683 300.4366584 +22.7398533     485.2134     70.20245      1.464     3.75    -3.259683     19.80624     47.92315        10     0.938     0.730 -15.16   0
       211    739.3822    260.2437 300.3535839 +22.6595632     472.8709     70.22033      1.651     3.66    -3.097103     19.80624     38.46555         5     0.932     0.414  -7.74   0
       212    659.5951    259.4876 300.3289803 +22.6354331     769.2678     70.13089      1.793     3.90    -2.692136     19.80624     82.99892        14     1.272     0.879  42.01   0
       213    586.2634    251.2033 300.3088394 +22.6110720     472.6878     70.18457      1.656     4.63    -2.470258     19.80624     40.67074        12     1.081     0.863 -29.89   0
       214    855.1165    250.6090 300.3927727 +22.6914735     821.6577     70.14879      1.455     3.46    -3.105108     19.80624     90.14796        14     1.010     0.928  38.46   0
       215    867.3271    250.0193 300.3967698 +22.6949624     540.2114     70.20245      1.757     4.32    -3.110764     19.80624     48.31429        12     1.118     0.838 -22.36   0
       216    983.9205    239.8402 300.4364232 +22.7269629     660.7934     70.18457      1.419     3.59    -3.257273     19.80624     78.56942        13     1.099     0.836 -28.05   0
       217    217.9833    233.3606 300.2000826 +22.4955108     309.5975     70.22033      1.490     4.07    -2.784972     19.80624     56.33673         9     1.105     0.886  73.42   0
       218     80.0566    228.4240 300.1588317 +22.4527137     1206.832     70.20245      1.511     3.65    -2.681595     19.80624     127.3609        19     1.190     1.006 -87.52   0
       219    902.3715    225.2924 300.4157222 +22.6983533      322.897     70.14879      1.429     3.37     -3.18568     19.80624     51.10276         6     0.880     0.700 -66.77   0
       220     29.4271    224.8530 300.1442671 +22.4364967     369.6456     70.22033      1.500     4.10    -2.604142     19.80624     45.05624         6     0.979     0.491  47.45   0
       221    237.3595    221.6702 300.2099004 +22.4979674     3206.081     70.16668      1.644     3.32    -2.747418     19.80624     337.3248        30     1.239     1.226 -22.35   0
       222     21.5592    215.9068 300.1447282 +22.4315689     749.4816     70.22033      1.423     2.92    -2.583214     19.80624     96.02493        11     0.986     0.718 -45.87   0
       223    881.2234    202.6584 300.4164792 +22.6855117     2071.184     70.20245      1.565     3.24    -2.924343     19.80624     177.8479        25     1.203     1.099  68.62   0
       224    984.8543    201.4632 300.4491754 +22.7162084     1549.082      70.2382      1.471     2.86    -3.221644     19.80624      175.408        19     1.090     1.005  86.26   0
       225    430.9878    198.7676 300.2775447 +22.5494599     205.2353     70.18457      1.381     3.74    -2.383308     19.80624     29.13857         5     0.814     0.495  53.13   0
       226    482.1941    185.6087 300.2977477 +22.5610328     953.2761     70.05926      1.608     3.66    -2.416734     19.80624     95.41532        18     1.130     1.084  69.71   0
       227    256.2425    165.5765 300.2339793 +22.4875281     3507.641     70.25607      1.680     3.30    -2.683215     19.80624     358.8218        29     1.229     1.183 -76.55   0
       228    107.6239    164.8855 300.1880208 +22.4427507     587.7874     70.16668      1.561     2.97    -2.625872     19.80624     64.96035         8     0.948     0.584  74.09   0
       229    502.2347    150.7820 300.3152886 +22.5570366     3507.931     70.20245      1.652     3.27     -2.41171     19.80624     322.7816        32     1.318     1.199 -89.95   0
       230    754.8303    140.3207 300.3973306 +22.6297281     376.0437     70.20245      1.396     5.48    -2.588997     19.80624     33.17318        10     1.012     0.837   7.26   0
       231    846.8883    139.6191 300.4262423 +22.6571042     362.7035     70.14879      1.583     4.44    -2.539792     19.80624     43.65156         6     0.816     0.687 -30.11   0
       232    554.4256    133.1857 300.3372426 +22.5676250     327.0735     70.22033      2.101     4.53    -2.410672     19.80624     23.66166         5     0.828     0.705 -34.80   0
       233    630.5848    130.6593 300.3617713 +22.5897234     3729.004     70.16668      1.690     3.46    -2.408925     19.80624     331.1797        32     1.322     1.208  87.03   0
       234    405.7014    129.9522 300.2920161 +22.5221148      853.694      70.2382      1.511     3.33     -2.37798     19.80624     84.07701        15     1.052     0.912 -44.47   0
       235    671.9204    128.1644 300.3754523 +22.6013928     534.4352     70.14879      1.656     4.21    -2.408415     19.80624     54.05854        11     1.034     0.891 -85.02   0
       236    687.4810    124.7916 300.3813929 +22.6050860     444.1082     70.14879      2.212     4.52    -2.447116     19.80624     28.50046         6     0.976     0.596 -25.91   0
       237    154.3561    122.5448 300.2162813 +22.4446159     380.7263     70.20245      1.515     4.97    -2.549803     19.80624     46.59754         8     1.087     0.874 -25.29   0
       238    957.4594    121.6436 300.4665442 +22.6850521     299.3828     70.20245      1.434     2.82    -2.665953     19.80624     51.77943         7     0.961     0.695  -8.43   0
       239    674.7510    115.4261 300.3804680 +22.5985801      1547.84     70.22033      1.693     3.78    -2.411662     19.80624     140.2947        25     1.282     1.213   6.65   0
       240    315.7556    116.9538 300.2682622 +22.4914138     280.9568      70.2382      1.798     3.70    -2.456019     19.80624     31.38841         5     1.010     0.518 -52.92   0
       241    689.5960    114.1397 300.3855086 +22.6026584     556.1865     70.18457      1.788     5.05    -2.452293     19.80624     38.38354         9     1.008     0.717 -37.64   0
       242    761.2483    107.0930 300.4101142 +22.6220998     802.7887      70.2382      1.570     3.79     -2.57337     19.80624     72.89967        17     1.169     1.041 -41.94   0
       243    698.9011    100.5393 300.3928204 +22.6015374     517.2944     70.27394      1.742     4.46    -2.472123     19.80624     53.80793        10     1.082     0.729 -88.66   0
       244    504.7287     99.7700 300.3326205 +22.5431295     590.0612     70.20245      1.685     4.04    -2.386365     19.80624     70.69012        13     1.141     0.926  78.33   0
       245     77.7801     99.7904 300.1998760 +22.4151146     356.7929     70.18457      1.434     3.82    -2.460752     19.80624     40.07606         5     1.016     0.411 -86.93   0
       246    408.6133     97.8939 300.3033256 +22.5137798     626.0649     70.13089      1.628     4.17    -2.388573     19.80624      61.6922        12     1.087     0.852 -10.64   0
       247    180.1624     88.2127 300.2354409 +22.4424999     2155.217     70.18457      1.582     3.14    -2.404185     19.80624     203.1083        27     1.256     1.150 -61.58   0
       248    747.8444     88.4606 300.4119852 +22.6127284     432.3937      70.2382      1.630     3.87     -2.52182     19.80624      37.4987         9     1.017     0.665  71.23   0
       249    296.1581     80.4541 300.2740131 +22.4750560     732.2747     70.20245      1.557     3.83    -2.351204     19.80624     67.83077        14     1.181     0.859 -77.46   0
       250    740.9114     80.3948 300.4124428 +22.6083329     471.6848     70.11299      1.442     5.31    -2.463345     19.80624     46.87572        12     1.174     0.805   3.09   0
       251    779.2527     75.3362 300.4260290 +22.6183641     352.0522      70.2382      1.676     5.06    -2.545766     19.80624     33.29033         7     0.942     0.770  61.38   0
       252    799.1652     71.4788 300.4334848 +22.6232196     1336.918     70.14879      1.620     3.84    -2.612137     19.80624     147.8166        22     1.318     1.058 -69.56   0
       253    182.5787     66.8904 300.2431101 +22.4371028     515.9491     70.13089      1.502     6.19    -2.252638     19.80624     51.75972        14     1.274     0.917  60.84   0
       254    747.2822     63.7341 300.4198336 +22.6054520     576.6822     70.30966      1.825     6.28    -2.390429     19.80624     48.06554        13     1.320     0.841  84.32   0
       255    973.3406     64.5578 300.4900218 +22.6733902     419.9007     70.18457      1.503     3.02    -2.286923     19.80624     41.52402         7     0.910     0.492   5.19   0
       256    600.1442     49.1405 300.3787472 +22.5571756     406.4759     70.27394      1.469     4.70    -1.906739     19.80624     56.85666         7     1.033     0.608  89.62   0
       257    762.6838     43.7382 300.4311195 +22.6043170     436.1206      70.2918      1.669     3.99    -2.397203     19.80624     39.48708         8     0.847     0.779   8.52   0
       258    571.8984     42.0512 300.3722543 +22.5466746     1137.232     70.27394      1.635     3.97    -1.884006     19.80624     104.3982        20     1.277     1.069  73.14   0
       259    294.5518     39.5914 300.2867714 +22.4628391     380.3905     70.22033      1.381     4.83    -2.107049     19.80624     31.76722         7     1.324     0.498  55.21   0
       260      9.4584     38.5871 300.1985148 +22.3770530     301.2587     70.16668      1.358     3.85    -2.239372     19.80624     51.51966         5     0.944     0.500  48.88   0
       261    529.1539     36.0924 300.3608832 +22.5321536      728.475     70.22033      1.643     4.22    -1.853474     19.80624      64.4896        13     1.152     0.952   7.23   0
       262    634.7169     32.6001 300.3948775 +22.5627804     684.2615     70.07717      1.555     3.33    -1.776354     19.80624     98.23059        15     1.106     0.947  58.83   0
       263    230.0209     31.6246 300.2692957 +22.4412030     261.3432     70.18457      1.231     4.14    -2.005833     19.80624     33.40458         6     0.959     0.511  76.93   0
       264    454.9879     26.3407 300.3409683 +22.5071249     1118.192     70.18457      1.559     3.66    -2.155652     19.80624     110.4052        17     1.199     0.890 -82.93   0
       265    102.0794     24.5161 300.2318460 +22.4007950     859.4352     70.34536      1.525     3.55      -1.9512     19.80624     83.64039        15     1.089     0.922 -44.96   0
       266    586.1012     20.8929 300.3835398 +22.5448497     328.2655     70.38104      1.532     4.65    -1.651479     19.80624     29.75106         7     1.004     0.611  74.81   0
