#   1 NUMBER                 Running object number                                     
#   2 X_IMAGE                Object position along x                                    [pixel]
#   3 Y_IMAGE                Object position along y                                    [pixel]
#   4 ALPHA_J2000            Right ascension of barycenter (J2000)                      [deg]
#   5 DELTA_J2000            Declination of barycenter (J2000)                          [deg]
#   6 FLUX_APER              Flux vector within fixed circular aperture(s)              [count]
#   7 FLUXERR_APER           RMS error vector for aperture flux(es)                     [count]
#   8 FLUX_RADIUS            Fraction-of-light radii                                    [pixel]
#   9 FWHM_IMAGE             FWHM assuming a gaussian core                              [pixel]
#  10 BACKGROUND             Background at centroid position                            [count]
#  11 THRESHOLD              Detection threshold above background                       [count]
#  12 FLUX_MAX               Peak flux above background                                 [count]
#  13 ISOAREA_IMAGE          Isophotal area above Analysis threshold                    [pixel**2]
#  14 A_IMAGE                Profile RMS along major axis                               [pixel]
#  15 B_IMAGE                Profile RMS along minor axis                               [pixel]
#  16 THETA_IMAGE            Position angle (CCW/x)                                     [deg]
#  17 FLAGS                  Extraction flags                                          
         1    296.4035      6.9109 300.2966569 +22.4555086     279.9833     69.87066      1.382     4.34    -2.822243     19.73779     35.34669         5     1.094     0.489  87.81  16
         2     91.3638      4.3922 300.2337867 +22.3933034     346.0449     67.82452      1.836     3.81    -2.661359     19.73779     28.90336         5     1.008     0.414  74.50  16
         3    162.1795      1.9244 300.2565758 +22.4138321     575.8256      57.6073      1.254     3.71    -3.029515     19.73779     83.21167         8     0.916     0.671   0.58  24
         4    393.7078   1018.7947 299.9982576 +22.7749701      3665.79     69.87066      1.105     1.84    -5.184721     19.73779     681.7331        21     0.936     0.836 -85.98  16
         5    569.3353   1023.7365 300.0512574 +22.8291312     573.6561     54.10315      0.843     1.71    -5.189435     19.73779     188.2672         7     0.798     0.437   4.67  24
         6    120.7423   1018.5410 299.9135502 +22.6928839     1533.333     70.03106     10.126    16.52     8.193112     19.73779     46.15594        47     3.489     2.174  40.93  27
         7     96.1492    997.4335 299.9127850 +22.6794480     1648.953     69.97763     14.221    15.59     5.048145     19.73779      50.2982        56     2.888     2.340 -45.55   3
         8    110.2060   1021.6088 299.9092810 +22.6905958     1239.098     64.17908     12.410    16.49     8.602725     19.73779     45.55151        39     3.826     1.976  18.24  27
         9     85.4679   1017.8797 299.9028158 +22.6820930     2931.818     70.06665     13.823    32.68     5.916487     19.73779     62.39475       292     7.009     4.229 -11.00  27
        10     68.1859   1015.7546 299.8981434 +22.6762902     1600.566     69.97763      7.484    16.18     2.714367     19.73779     46.53148        47     2.852     2.552  27.27  19
        11     71.4748   1007.2991 299.9019159 +22.6748574     1710.606     70.08444      8.375    16.00     2.424447     19.73779      44.7754        59     3.070     2.316  70.87  19
        12     84.4030    997.1726 299.9092239 +22.6758431     1999.769     69.90633     12.126    33.16      3.35447     19.73779     66.04948       229     6.739     4.530 -84.09  19
        13    704.0898   1008.3232 300.0982025 +22.8651688      188.077     70.10223      1.309     4.07     -5.30494     19.73779     36.30969         5     1.028     0.461 -61.15   0
        14    426.3502   1005.6242 300.0126904 +22.7810004     300.9543     69.95982      1.152     3.10    -5.008173     19.73779     52.09774         8     0.814     0.762 -86.77   0
        15   1020.4377   1000.3836 300.1993149 +22.9578206      1072.69     68.26423      0.811     2.76    -4.993334     19.73779     484.0455         5     0.689     0.328 -36.35  16
        16    939.7558    997.0345 300.1752631 +22.9326549     1282.292     70.01325      1.118     1.60    -5.201717     19.73779     291.5135        14     0.799     0.778 -75.74   0
        17     90.4494    989.3143 299.9136579 +22.6754099     1568.793     69.94199      9.352    11.17     3.208209     19.73779     49.04805        33     2.815     1.236 -14.39   3
        18    590.2138    994.5959 300.0672364 +22.8270463     325.7312     69.81712      1.439     2.07    -5.191102     19.73779     48.53212         5     0.680     0.461 -19.73   0
        19    438.5254    993.7692 300.0203335 +22.7812595     71.97743     69.97764      1.040     3.49    -5.020573     19.73779     37.25098         5     0.777     0.451  70.24   0
        20    728.4956    986.0353 300.1130528 +22.8661032      486.187     69.95982      1.697     5.24    -5.261468     19.73779     62.10188         9     1.312     0.650  48.97   0
        21    104.3305   1002.9523 299.9135286 +22.6834873     607.8402     69.94199      3.563     3.83      6.00851     19.73779     29.73118         5     1.963     0.215  63.59   3
        22     99.9708   1020.7715 299.9063763 +22.6872799     1315.218     67.32641      8.902    13.49     8.466187     19.73779      40.5705        32     3.012     1.682  60.79  27
        23    763.4869    980.1341 300.1258660 +22.8749129      603.002     70.04886      1.031     1.84    -5.251157     19.73779      113.948         8     0.707     0.634   2.88   0
        24    785.7278    973.9962 300.1347880 +22.8798274     6447.313     69.90633      1.115     1.81    -5.238941     19.73779      1272.74        23     0.915     0.875 -10.17   0
        25    831.2542    973.7752 300.1490360 +22.8934261     195.1254     69.97764      1.001     1.93    -5.240564     19.73779     55.91564         6     0.689     0.534 -42.01   0
        26    976.6407    973.0367 300.1945663 +22.9368352     294.1679     70.03106      1.156     3.18     -5.09226     19.73779     57.30538         6     0.938     0.435 -75.86   0
        27    101.1749   1006.8336 299.9112860 +22.6836504     1250.669     69.95982      8.002     9.40     6.554661     19.73779     86.18417        20     2.512     1.015  -8.09   3
        28    838.2444    961.8504 300.1550936 +22.8921030     254.9079     69.99545      1.679     3.85    -5.213751     19.73779     35.40135         5     1.280     0.332  40.52   0
        29    491.1008    962.4333 300.0468771 +22.7880667     310.3248     69.94199      1.546     4.00    -5.111986     19.73779     56.54341         6     1.003     0.473   9.65   0
        30    794.1562    956.1938 300.1432055 +22.8772504     740.4302     69.97763      1.100     1.76     -5.19887     19.73779     182.9209        11     0.831     0.784  85.52   0
        31    646.3096    953.4352 300.0980838 +22.8320852     261.6924     69.94199      1.217     3.54     -5.18118     19.73779     39.21099         5     0.770     0.469  15.28   0
        32    832.3547    949.6563 300.1572275 +22.8868376     421.3033     69.99545      0.936     1.85    -5.186939     19.73779     76.29655         6     0.647     0.535 -44.90   0
        33    732.0908    939.8745 300.1291933 +22.8539434     421.7314     70.12001      1.156     2.69    -5.144919     19.73779     81.11048         8     0.866     0.610 -87.40   0
        34    880.7619    940.4471 300.1753007 +22.8987200     223.9789     69.99545      0.975     2.24    -5.146512     19.73779     59.06832         5     0.675     0.480 -15.86   0
        35    444.8228    936.4215 300.0409521 +22.7667140     2443.343     69.95982      1.140     2.02    -5.109369     19.73779     407.4748        21     0.981     0.915  41.57   0
        36    743.4196    936.7529 300.1337356 +22.8564480      272.674     69.99545      0.981     1.84    -5.139396     19.73779      59.7061         5     0.651     0.469 -70.00   0
        37     86.8163    924.3824 299.9336564 +22.6557216     226.1427     69.94199      1.150     3.38    -4.334704     19.73779     35.40007         5     0.782     0.423 -21.33   0
        38    169.9468    922.1755 299.9601827 +22.6800677     433.2624     69.97763      1.311     2.13    -4.165664     19.73779     77.27695         7     0.805     0.561 -68.92   0
        39    147.2024    919.4532 299.9540063 +22.6724542     866.9807     69.94199      1.050     2.25    -4.172637     19.73779     146.8139        10     0.769     0.699  61.97   0
        40     21.5991    909.8878 299.9181312 +22.6319718      377.896     69.87066      1.285     3.66    -5.620956     19.73779     39.07895         6     1.117     0.345 -40.84   0
        41   1018.7090    907.7820 300.2289107 +22.9307271     1229.374      69.8885      1.041     1.74    -4.955752     19.73779     256.6996        12     0.786     0.713  19.37  16
        42    972.9981    906.2519 300.2151630 +22.9165776     1156.926     69.92417      1.068     1.78    -4.945282     19.73779     274.4809        13     0.839     0.732  38.53   0
        43    756.6022    900.5873 300.1496061 +22.8500303     277.9688     69.79926      1.027     2.38    -4.963409     19.73779     67.65306         6     0.675     0.624 -59.99   0
        44    179.3850    900.6455 299.9701173 +22.6767352     291.5773     69.97764      1.206     3.42    -4.343333     19.73779     38.63209         6     0.828     0.530  44.50   0
        45    624.6748    894.4226 300.1105522 +22.8086685     2735.793     69.99545      1.149     2.12    -4.920193     19.73779     456.2074        20     0.963     0.893  27.18   0
        46    427.0015    891.6500 300.0499773 +22.7485290     271.1768     69.94199      1.151     3.45    -4.930259     19.73779     56.51039         8     0.964     0.587 -71.35   0
        47    175.0361    888.4531 299.9727329 +22.6719356     952.8347     69.97763      1.344     2.30    -4.436424     19.73779      124.958        12     0.874     0.750 -38.36   0
        48    645.2520    886.9877 300.1193735 +22.8127124     436.6174     69.99545      1.283     2.21    -4.858993     19.73779     82.10053         8     0.773     0.680  86.97   0
        49    194.2499    885.8492 299.9795464 +22.6769617     230.2124     69.99545      1.022     1.95    -4.484228     19.73779     59.14014         5     0.718     0.406 -75.40   0
        50    800.6437    874.0169 300.1719622 +22.8556229     2373.785     69.97763      1.168     1.98    -4.810827     19.73779     426.7379        18     0.920     0.837 -87.96   0
        51   1017.4301    873.9261 300.2395266 +22.9206260     678.1907     69.97763      1.064     1.93     -4.77776     19.73779      121.243         7     0.695     0.592 -80.98   0
        52    209.2145    868.4529 299.9898522 +22.6764726     264.2547     69.97763      1.252     2.39    -4.646711     19.73779     39.53479         5     0.706     0.443  24.43   0
        53    517.7623    866.5941 300.0863479 +22.7685956     466.6865     69.99545      1.411     3.06     -5.07891     19.73779     61.96862        10     0.908     0.789  52.40   0
        54    164.1968    864.9935 299.9769976 +22.6619580     626.7306     69.78139      1.234     2.12    -4.595352     19.73779     109.7981         9     0.808     0.664  74.04   0
        55    313.8724    856.9738 300.0260970 +22.7046174     30844.41     69.95982      1.257     2.07    -4.706806     19.73779     5170.351        61     1.149     1.078  69.97   0
        56    579.2535    860.0004 300.1076185 +22.7851634     261.4535     69.92417      1.091     2.74    -4.855072     19.73779     52.80953         6     0.858     0.458 -54.73   0
        57    571.5938    855.6830 300.1066401 +22.7816261     957.9873      69.8885      1.227     2.50    -4.871977     19.73779     140.9736        13     0.917     0.772  39.22   0
        58    984.5659    854.8605 300.2354863 +22.9052974     558.1422     69.97763      1.101     2.36    -4.709389     19.73779     87.20949         9     0.825     0.647  29.02   0
        59    242.2646    854.7711 300.0045673 +22.6824795     346.9818     69.97764      1.687     4.37    -4.715158     19.73779     38.97573         8     0.910     0.677  80.35   0
        60    600.4719    851.7907 300.1168897 +22.7891778     577.7298     69.94199      1.250     2.49    -4.717728     19.73779     78.42641         9     0.837     0.696  26.05   0
        61    611.3765    850.0484 300.1208490 +22.7919510     305.4484     69.95982      1.243     2.21      -4.6703     19.73779     57.46667         7     0.686     0.663  54.56   0
        62    717.0256    846.4285 300.1549038 +22.8226184     259.9235     69.94199      1.275     2.75    -4.686531     19.73779     43.86933         6     0.791     0.493   3.56   0
        63    754.5019    836.6108 300.1697632 +22.8310468     538.8499     69.85282      1.197     2.61    -4.648948     19.73779     68.92961         8     0.764     0.751  -0.95   0
        64    377.8837    834.6108 300.0532622 +22.7174296     1151.421     69.92417      1.237     2.21    -4.563122     19.73779     175.0314        15     1.001     0.807  65.62   0
        65    363.5570    834.1387 300.0489631 +22.7129923     18071.47     69.95982      1.264     2.11    -4.545541     19.73779     2804.004        51     1.141     1.086  54.20   0
        66    886.4315    829.6447 300.2131128 +22.8686266     1446.479     70.01325      1.066     1.99    -4.586711     19.73779     258.0073        13     0.812     0.774 -33.23   0
        67    644.3859    825.8687 300.1389840 +22.7949226     487.9024     69.97763      1.237     2.67    -4.615563     19.73779     78.54798         9     0.871     0.665  12.67   0
        68    246.0471    825.9986 300.0150995 +22.6753700     453.3771     69.95982      1.129     2.34     -4.72242     19.73779     73.98533         7     0.816     0.534 -46.63   0
        69     50.5279    821.9368 299.9557135 +22.6154730     429.6788     69.99545      1.251     3.50    -4.788047     19.73779     50.20506         8     0.949     0.601  52.11   0
        70    491.7668    820.9009 300.0931251 +22.7476899     447.6473     69.94199      1.188     2.59    -4.634671     19.73779     67.42284        10     0.865     0.711  10.99   0
        71    374.4814    828.7314 300.0541168 +22.7147225     400.7976     70.06665      1.685     4.53    -4.534076     19.73779     43.04557         7     0.877     0.664  19.56   0
        72    437.5943    815.8704 300.0779175 +22.7299846     287.9499     69.92417      1.145     3.32    -4.517662     19.73779     48.99763         6     0.807     0.483 -82.02   0
        73     79.1469    815.2792 299.9667610 +22.6221641     297.9259     69.99545      1.105     2.00    -4.692575     19.73779     57.26374         6     0.693     0.542  59.49   0
        74    536.4966    798.9135 300.1141859 +22.7548113     520.6943     70.13779      1.897     2.89    -4.565564     19.73779      56.5607         9     0.857     0.766  -0.62   0
        75    558.5800    796.2165 300.1219317 +22.7606659      845.902     69.94199      1.195     2.12    -4.572432     19.73779     126.9742        10     0.825     0.676  42.83   0
        76    952.7778    794.9093 300.2450795 +22.8785559     2691.892      69.8885      1.150     1.88    -4.554878     19.73779     515.5143        19     0.912     0.837 -62.02   0
        77    941.2084    786.1536 300.2443219 +22.8725730     860.9922     69.97763      1.056     1.99    -4.471765     19.73779     184.2069        12     0.952     0.635  24.81   0
        78    304.5452    780.6334 300.0480242 +22.6799350     453.0533     69.97764      1.125     2.41    -4.645308     19.73779     68.17923         9     0.903     0.591   4.14   0
        79    767.7676    777.7506 300.1930348 +22.8181386     1521.896     69.99545      1.382     2.45    -4.483676     19.73779     209.3075        17     1.225     0.852  -5.67   0
        80    972.2902    776.5104 300.2571428 +22.8791257     1033.129     70.12001      1.116     2.00    -4.515344     19.73779     166.6147        13     0.850     0.775 -52.52   0
        81    153.4246    764.9124 300.0061966 +22.6300451     388.2458     69.92417      1.243     3.77    -4.766042     19.73779     44.91276         6     0.826     0.494  89.75   0
        82    886.0626    754.6354 300.2373904 +22.8469877     84992.27     69.95982      1.227     2.12    -4.165052     19.73779      12911.3       102     1.182     1.162  41.37   0
        83    844.1281    755.5034 300.2240467 +22.8346597     1443.444     70.08444      0.708     2.62    -4.223577     19.73779     596.6902         6     0.530     0.385  83.66   0
        84    738.6733    755.0815 300.1913480 +22.8029056     418.8126     70.06665      1.105     2.25    -4.652414     19.73779     73.07887         7     0.801     0.559  66.30   0
        85    918.5125    747.1363 300.2499376 +22.8545667     181.2461     70.06665      1.279     4.49    -4.076684     19.73779     39.54652         6     1.001     0.572  21.00   0
        86    572.3978    743.6650 300.1433166 +22.7497398     927.3056     69.97764      1.289     2.92    -4.347071     19.73779     100.6738        14     0.963     0.877  77.45   0
        87    753.5651    740.8206 300.2006206 +22.8032808     5457.178     69.97763      1.279     2.37    -4.586879     19.73779     715.9282        31     1.071     1.028  67.01   0
        88    255.2140    736.2567 300.0471254 +22.6524012     2941.606     69.94199      1.297     2.46    -4.764399     19.73779      341.152        21     1.024     0.953 -58.55   0
        89    337.1977    734.3362 300.0732220 +22.6764666      664.906     69.97763      1.262     3.01    -4.189175     19.73779     83.75816        12     0.988     0.858  86.10   0
        90    212.8241    731.5315 300.0354945 +22.6383175     221.3456     69.95982      1.181     2.24    -4.765751     19.73779     50.97438         5     0.722     0.461 -20.15   0
        91    545.8065    729.8593 300.1395334 +22.7377998     489.0308     69.92417      1.423     2.58    -4.265814     19.73779     58.31841         9     0.889     0.655  78.06   0
        92    537.1343    721.9239 300.1394157 +22.7329211     1770.334     70.04886      1.357     2.68    -4.176857     19.73779     216.5311        20     1.028     0.995   0.50   0
        93    527.4038    715.5624 300.1384572 +22.7281763     939.2729     69.99545      1.452     2.99    -4.107963     19.73779     94.05299        14     1.065     0.801  66.54   0
        94    190.8277    711.9097 300.0350412 +22.6260878     304.2455     69.94199      1.239     2.35    -4.741884     19.73779     52.09517         6     0.719     0.551  54.34   0
        95    204.8609    710.2571 300.0399366 +22.6298283     407.0383     70.03106      1.562     4.34    -4.713318     19.73779     39.14651         9     1.009     0.720  38.82   0
        96    230.6038    707.3172 300.0488877 +22.6367157     400.1475      69.8885      1.703     4.21    -4.644057     19.73779     42.27578         9     1.072     0.788  33.72   0
        97    452.0264    705.5894 300.1182593 +22.7026934     978.8497     69.95982      1.442     3.26    -3.985125     19.73779     103.9413        18     1.158     0.951  50.97   0
        98    974.1553    706.2874 300.2805554 +22.8595241     243.1186     69.94199      1.004     2.11    -4.272079     19.73779     57.78502         6     0.712     0.534  50.49   0
        99    551.0797    705.9819 300.1489354 +22.7325331     218.1283     69.95982      1.164     2.46     -4.08731     19.73779     39.28856         5     0.643     0.548   0.73   0
       100    106.1856    700.5809 300.0124420 +22.5974210     11394.28     69.90633      1.289     2.35     -4.37756     19.73779     1459.996        38     1.129     1.035  61.62   0
       101     27.0878    702.2499 299.9873486 +22.5741409     378.2274     69.95982      1.203     2.31    -3.971791     19.73779     66.51743         7     0.772     0.648  50.29   0
       102    537.0135    700.5571 300.1463237 +22.7267559     650.0018     69.97764      1.338     3.37     -4.04019     19.73779     71.93098        12     1.004     0.861 -14.07   0
       103    954.8610    686.4144 300.2810031 +22.8480333     558.0945     69.92417      1.295     2.83    -4.078756     19.73779     89.93547         9     0.904     0.653  69.62   0
       104    118.6106    685.3817 300.0212393 +22.5967967     275.3535     69.92417      1.010     3.55    -4.399261     19.73779     39.18118         5     1.019     0.356  69.58   0
       105     52.1118    684.4928 300.0008859 +22.5765694     765.6594     70.12001      1.451     4.19    -4.056256     19.73779     90.58427        16     1.385     0.776  79.90   0
       106    821.8441    684.2316 300.2402766 +22.8075196     178.7798     70.01325      1.023     2.54    -3.973045     19.73779     48.38688         5     0.880     0.344  45.31   0
       107    895.0637    679.1940 300.2647197 +22.8280306     605.7888     69.92417      1.765     3.86    -3.932563     19.73779     55.51025         8     0.946     0.721   6.85   0
       108    457.3344    673.3182 300.1303986 +22.6950308     361.3407     70.06665      1.389     3.77    -3.980172     19.73779     51.74252         6     0.777     0.553  50.54   0
       109    605.3787    672.1365 300.1768281 +22.7391161     206.3629     69.92417      1.308     3.43    -3.837657     19.73779     34.48949         5     0.752     0.452  72.91   0
       110    622.8807    670.1050 300.1829339 +22.7437843     340.4119     70.08444      1.484     3.68    -3.906691     19.73779     48.28675         5     0.945     0.412 -44.56   0
       111    501.2831    669.5381 300.1452932 +22.7071358     488.7118     70.04886      1.352     2.53    -3.912379     19.73779     61.48745         8     0.883     0.577  69.75   0
       112    467.1239    665.1766 300.1360885 +22.6956336     964.7875     69.99545      1.454     2.94    -3.937983     19.73779     113.8848        17     1.123     0.945 -60.81   0
       113    934.9918    664.5903 300.2819058 +22.8358098     1987.927     69.83497      1.277     2.32    -3.945194     19.73779     274.6198        19     1.010     0.884  68.24   0
       114     28.9100    658.7030 300.0020662 +22.5622101     2876.344     70.13779      1.314     2.35    -4.008747     19.73779     406.0297        26     1.096     0.996  81.42   0
       115    330.3687    651.7400 300.0979455 +22.6507337     5178.904     69.99545      1.397     2.53    -4.022053     19.73779     647.3397        31     1.138     1.092  74.92   0
       116    452.7514    648.7111 300.1369707 +22.6865975     5260.871     69.94199      1.472     2.74    -3.899181     19.73779     579.0591        32     1.226     1.118  80.33   0
       117     94.9735    645.1774 300.0269664 +22.5781753     254.3331     69.94199      1.497     4.35    -4.146589     19.73779     27.08312         5     1.494     0.361   4.99   0
       118    864.3889    642.3327 300.2671449 +22.8082501     1160.155     69.97764      1.370     2.76    -4.003857     19.73779     131.2967        17     1.087     0.943  54.57   0
       119    948.8782    639.7112 300.2943184 +22.8328294     7175.519     70.08444      1.274     2.26    -3.950984     19.73779     1033.691        34     1.073     1.037  56.73   0
       120    513.3152    638.3117 300.1591831 +22.7017886     6522.421     70.08444      1.443     2.77    -3.697994     19.73779     700.8591        35     1.173     1.145  43.94   0
       121    683.1036    634.4454 300.2132637 +22.7516176     290.2817     69.97763      1.359     3.48    -3.873369     19.73779     43.37683         7     0.928     0.765 -31.03   0
       122    240.8986    633.6422 300.0760289 +22.6186854      658.188     69.94199      1.419     2.76    -4.210584     19.73779     93.73544         9     0.867     0.657 -82.66   0
       123    487.5922    631.1995 300.1534948 +22.6920296     223.3123     69.78139      1.044     3.58    -3.701207     19.73779     34.06599         5     0.953     0.388   6.20   0
       124    445.0120    626.4517 300.1417977 +22.6778900     2477.007     69.97764      1.436     3.00     -3.85915     19.73779     249.3009        23     1.129     1.001  65.51   0
       125    788.0300    626.1852 300.2486121 +22.7807167      486.106     69.95982      1.314     2.91    -3.916849     19.73779     57.64149        10     0.868     0.749  80.28   0
       126    423.3636    625.0916 300.1355093 +22.6710031     683.9345     69.92417      1.540     3.97     -3.96611     19.73779     68.93472        13     1.057     0.887 -78.67   0
       127    177.3550    624.3531 300.0593113 +22.5969440     475.9485     69.99545      1.288     3.11    -4.325671     19.73779     69.74471         8     0.980     0.604 -52.00   0
       128    864.6954    621.5991 300.2739782 +22.8023893      1063.23     69.85282      1.579     3.74    -4.058813     19.73779     90.06144        19     1.142     1.076 -32.22   0
       129    561.5950    613.9235 300.1821247 +22.7092775     117268.2     69.87066      1.491     2.82    -3.526907     19.73779     13152.73       142     1.397     1.386 -35.03   0
       130    745.1867    618.6719 300.2377144 +22.7657113     506.3614     69.97763      1.653     3.99    -3.859133     19.73779     39.96869         9     0.888     0.757 -74.82   0
       131    247.5954    614.1406 300.0844457 +22.6151044     2085.147     69.92417      1.458     2.77    -4.095296     19.73779     260.2504        23     1.121     1.049  40.78   0
       132    427.3665    610.1319 300.1416146 +22.6679134     187.9337     69.95982      1.753     5.40     -3.93184     19.73779     28.52051         5     1.385     0.593 -52.10   0
       133    813.2369    609.9936 300.2617229 +22.7836275     352.8542     69.97763      1.397     3.83     -3.95368     19.73779     35.93764         6     0.899     0.494  53.77   0
       134    452.3366    594.3455 300.1545070 +22.6708781     1580.323     69.99545      1.698     3.24    -3.728146     19.73779     139.1356        23     1.336     1.048 -81.99   0
       135    296.1415    596.7712 300.1051711 +22.6246966     363.7397     69.95982      1.587     3.98    -4.028009     19.73779     32.83953         6     0.821     0.553 -39.19   0
       136    848.9625    580.3974 300.2824655 +22.7858424     813.6571     69.97763      1.306     2.81    -3.812262     19.73779      116.935        14     0.989     0.850  12.10   0
       137    720.2177    577.9230 300.2431816 +22.7465263     1510.926     69.95982      1.538     3.02    -3.635047     19.73779     150.1773        21     1.201     1.021  89.21   0
       138    964.5600    575.1992 300.3201678 +22.8190041     219.7549     69.97763      1.166     3.26    -3.825368     19.73779     33.09739         5     0.733     0.454 -69.70   0
       139    624.9377    574.8417 300.2145294 +22.7170648     388.6977     69.94199      1.987     5.14    -3.468541     19.73779     27.84911         8     1.092     0.684  25.59   0
       140    507.2949    574.0593 300.1781875 +22.6815484     429.0717     70.03106      1.547     6.01    -3.465425     19.73779     39.05124        11     1.109     0.916 -63.41   0
       141    977.3770    571.6688 300.3253089 +22.8218320     721.1451     69.97764      1.207     2.45    -3.865184     19.73779     103.2796        13     0.940     0.792  74.39   0
       142    849.3917    570.4348 300.2858360 +22.7831105     1267.253     69.95982      1.617     4.34     -3.73002     19.73779     125.4012        23     1.509     1.031  80.43   0
       143    963.1387    570.7466 300.3211715 +22.8172993     437.4365     70.01325      1.389     2.51    -3.813041     19.73779     61.67194         7     0.814     0.578  31.74   0
       144    603.0267    568.9354 300.2096307 +22.7087973     513.9738     69.94199      2.555     4.05    -3.409291     19.73779     47.12772        10     1.106     0.673 -67.53   2
       145    441.3882    566.8232 300.1600444 +22.6596975     255.0879     69.95982      1.575     4.66    -3.712292     19.73779     27.08481         5     0.844     0.731  32.20   0
       146    887.4635    565.3713 300.2993400 +22.7930706     2345.587     69.95982      1.377     2.64    -3.683093     19.73779     239.2295        24     1.127     1.000 -18.54   0
       147    119.7129    556.2178 300.0635482 +22.5601039     590.3928     69.90634      1.357     3.27     -4.11343     19.73779     75.00494        11     0.983     0.784 -83.90   0
       148    979.0919    555.5494 300.3310803 +22.8177162     479.6165     69.99545      1.239     2.66    -3.884464     19.73779     59.15577        10     0.932     0.654 -59.64   0
       149    111.7769    546.4649 300.0642523 +22.5549252      286.985     69.94199      1.615     5.72    -4.093541     19.73779     31.87851         7     1.090     0.847 -29.45   0
       150    661.1515    535.6628 300.2385260 +22.7166816     341.2296     69.99545      1.381     4.64    -3.460976     19.73779     43.31917        11     1.140     0.767  33.59   0
       151    975.3299    528.2653 300.3387713 +22.8087518     331.4251     69.99545      1.147     2.63    -3.766469     19.73779     55.56787         7     0.795     0.615  15.56   0
       152    721.9866    527.8712 300.2599919 +22.7326887      525.301     69.95982      1.508     3.96    -3.522817     19.73779     55.87093        10     0.956     0.711 -86.69   0
       153    878.7686    524.2678 300.3099842 +22.7786603     553.8968     69.95982      1.359     3.14    -3.527259     19.73779     83.84348        12     1.081     0.756 -22.13   0
       154    863.2836    520.5816 300.3063580 +22.7729597     345.6012     69.90634      1.256     3.29    -3.530377     19.73779     40.84854         7     0.886     0.562 -55.34   0
       155    607.6245    518.8784 300.2273217 +22.6958101     1835.251     69.94199      1.531     2.96    -3.319469     19.73779     203.6113        24     1.131     1.125  36.47   0
       156    967.8127    517.3976 300.3399589 +22.8033772     383.4946     69.79926      1.461     4.12    -3.675648     19.73779     33.71311         6     0.727     0.668  61.56   0
       157   1018.8110    497.4871 300.3623202 +22.8129412     692.3059     69.90633      1.209     2.52     -3.66215     19.73779     100.5705        10     0.819     0.777   2.80  16
       158    976.9678    496.2468 300.3496819 +22.8000454     586.0989     69.99545      1.284     2.78    -3.587447     19.73779     74.41307        10     0.893     0.714  83.23   0
       159    890.6259    497.2498 300.3224536 +22.7744552      274.471     69.97764      1.236     3.32    -3.528145     19.73779     45.85204         5     0.769     0.416 -67.61   0
       160    718.1071    492.5744 300.2702486 +22.7213920     647.7277     69.90633      1.605     3.69    -3.525931     19.73779     65.09618        11     0.912     0.875  53.95   0
       161    514.2081    493.2601 300.2065826 +22.6604374     189.0645     69.92417      1.170     3.14    -2.988096     19.73779     31.30943         5     0.821     0.636  45.63   0
       162    222.1622    491.4034 300.1164138 +22.5722739     422.5355     69.99545      1.469     4.26    -3.688871     19.73779     43.94344         9     1.087     0.569 -64.96   0
       163    284.4882    486.8067 300.1372686 +22.5896611     2162.857     69.87066      1.527     2.82    -3.658858     19.73779     272.9602        25     1.161     1.082  80.19   0
       164   1017.3658    484.8017 300.3659898 +22.8088637     2559.995     69.92417      1.309     2.46    -3.530212     19.73779     330.0316        25     1.118     1.004  85.58  16
       165    231.7274    481.7662 300.1225145 +22.5723808     4328.812     69.95982      1.486     2.76    -3.630047     19.73779     518.5062        28     1.156     1.104  85.54   0
       166    997.3904    475.8709 300.3626643 +22.8003121     1093.456     69.94199      1.387     2.75    -3.526812     19.73779     130.9138        16     0.976     0.928 -57.68   0
       167    372.4272    475.8542 300.1681532 +22.6129075     2672.307     69.95982      1.554     3.05     -3.58391     19.73779     292.5315        29     1.266     1.098  61.05   0
       168    616.7050    472.3579 300.2452556 +22.6851806     10514.93     69.97764      1.590     3.12    -3.285425     19.73779     1031.636        46     1.315     1.241  71.49   0
       169    949.8865    454.8124 300.3546991 +22.7800267     378.4417     69.90634      1.314     3.28    -3.530025     19.73779      49.4649         8     0.877     0.720 -19.03   0
       170    171.3714    452.8159 300.1131691 +22.5459627     1236.809     69.97763      1.526     2.95    -3.585626     19.73779     137.7059        17     1.095     0.931  64.37   0
       171    557.2991    441.9319 300.2366536 +22.6586308       3770.7     70.04886      1.581     3.11    -2.808561     19.73779     380.6777        33     1.271     1.196  67.67   0
       172    970.7465    441.9461 300.3653775 +22.7825816     719.6855     69.99545      1.391     3.11    -3.638197     19.73779     84.80998        14     0.987     0.953  40.08   0
       173    272.6926    441.6189 300.1482767 +22.5731594     263.3107      69.8885      1.038     3.41    -3.335947     19.73779     43.27339         5     0.731     0.459  16.15   0
       174    129.7599    435.0064 300.1060302 +22.5283654     387.3432     69.99545      1.613     3.24    -3.592698     19.73779     50.75236         7     0.936     0.763  67.92   0
       175    761.4412    431.1427 300.3036884 +22.7167450     655.8471     69.94199      1.760     5.34     -3.54196     19.73779     53.83591        14     1.170     0.970 -81.24   0
       176    670.9633    432.6567 300.2750319 +22.6900534     407.5267     69.95982      1.836     5.03     -3.42947     19.73779     47.87041         7     1.250     0.573 -47.91   0
       177    463.8876    428.0473 300.2121098 +22.6266282     3526.348     69.94199      1.617     3.34    -3.027643     19.73779     304.8142        34     1.307     1.242 -84.08   0
       178    953.3171    422.3450 300.3663107 +22.7717275     381.0331     70.01325      1.663     5.72    -3.581655     19.73779     31.69447         9     1.145     0.806 -36.68   0
       179    855.7509    422.0067 300.3360242 +22.7423907      655.238     69.95982      1.484     3.78    -3.432208     19.73779     72.82036        16     1.101     1.002 -16.84   0
       180    531.2383    414.4850 300.2374586 +22.6429367     279.8016     69.94199      1.734     4.35    -2.825809     19.73779     30.70695         5     0.897     0.601 -46.43   0
       181    351.5400    407.6862 300.1837944 +22.5870825     1507.687     70.06665      1.621     2.98    -3.027586     19.73779     184.3974        23     1.225     1.112 -86.23   0
       182     69.8969    405.0717 300.0971635 +22.5018122     572.4979     70.08444      1.332     3.17    -3.675063     19.73779     77.20955        13     1.049     0.799 -73.89   0
       183    320.7997    396.9731 300.1777189 +22.5747860     17135.22     69.92417      1.584     3.16    -3.018445     19.73779     1682.902        57     1.360     1.267  81.93   0
       184    855.4980    394.1605 300.3449862 +22.7343162      828.028     69.95982      1.578     3.33    -3.305069     19.73779     81.87567        16     1.062     0.987  22.23   0
       185     17.2317    384.9778 300.0873399 +22.4802409     2763.694     69.95982      1.391     2.67    -3.723782     19.73779     311.0833        25     1.184     0.968  85.65   0
       186    195.3595    383.7231 300.1430494 +22.5333452     196.0626     69.94199      1.069     3.26    -3.303298     19.73779     34.92328         5     0.735     0.452 -73.98   0
       187    731.0757    376.4882 300.3119785 +22.6919466     1084.472     70.08444      1.586     3.52    -3.449088     19.73779     102.8694        18     1.153     0.995  32.13   0
       188    946.3179    369.2107 300.3813800 +22.7543641     323.9784     69.92417      1.221     2.31    -3.136618     19.73779     51.94785         6     0.695     0.596 -22.83   0
       189    393.0076    361.2443 300.2117590 +22.5861955     1185.359     69.97763      1.818     4.65    -3.020011     19.73779      101.494        21     1.396     1.034  74.56   0
       190    832.0958    352.9502 300.3510748 +22.7154646     295.0975     70.01325      1.585     4.96    -3.235594     19.73779     35.29373         7     1.054     0.660  55.96   0
       191    468.6214    340.6105 300.2419649 +22.6029524     666.5166     69.94199      1.756     3.85    -3.007723     19.73779     56.49165        11     0.971     0.915 -15.84   0
       192    713.6918    332.2438 300.3209280 +22.6740289     1298.688     69.95982      1.670     4.03    -3.260279     19.73779     111.7124        20     1.200     1.131  46.83   0
       193    974.6817    326.4637 300.4040941 +22.7505789     1713.461     70.06665      1.361     2.58    -3.050121     19.73779     204.5891        18     0.995     0.968  53.45   0
       194    422.3086    316.4727 300.2353985 +22.5821343     316.9128     70.12001      1.432     3.93    -3.026617     19.73779     36.60445         6     0.961     0.460  87.16   0
       195    127.9970    310.9266 300.1457563 +22.4922490     315.2033     69.87066      1.157     2.22    -3.180547     19.73779     59.51995         5     0.883     0.360  63.10   0
       196     96.8242    310.6946 300.1361531 +22.4828277     805.7737     69.87066      1.547     2.75    -3.268451     19.73779     101.2073        11     0.978     0.718 -58.10   0
       197    785.2757    293.6299 300.3557464 +22.6843924     316.0308     69.95982      1.487     5.37     -2.96613     19.73779     32.55006         8     1.017     0.801 -13.48   0
       198    883.1297    282.7151 300.3897656 +22.7105783     1167.203     70.06665      1.507     3.24    -2.878001     19.73779     112.5178        19     1.123     0.986  53.77   0
       199    302.0868    280.2372 300.2097896 +22.5356752     1198.452     69.94199      1.567     3.13    -2.962999     19.73779     115.3337        19     1.126     0.999 -87.33   0
       200    379.7914    275.3644 300.2355204 +22.5575833     629.5719     69.95982      1.684     5.94    -2.941444     19.73779     42.00994        14     1.134     0.909 -20.21   0
       201    781.7067    274.8632 300.3607247 +22.6779316     228.8577     70.06665      1.365     5.05    -2.894291     19.73779     30.38759         6     1.078     0.669 -13.53   0
       202    196.6617    267.2310 300.1812576 +22.5003164     394.8084     69.97764      1.352     3.82    -3.049118     19.73779     62.31383         8     1.075     0.747 -73.28   0
       203    734.4803    264.2947 300.3494497 +22.6607425     972.9032     70.08444      1.670     4.22    -2.984679     19.73779     78.79085        17     1.151     1.037 -59.17   0
       204    799.3137    264.0086 300.3697295 +22.6800893     252.4603      69.8885      1.498     4.52    -2.812606     19.73779     28.43644         6     0.905     0.641  50.49   0
       205   1005.8607    256.4381 300.4365357 +22.7397931     622.5283     69.97763      1.540     3.55    -3.230424     19.73779     62.54661        13     1.161     0.777  -4.37   0
       206    738.5080    255.8136 300.3534554 +22.6595132     407.6538      69.8885      1.458     5.10    -2.924635     19.73779      37.3146        11     1.090     0.808 -17.98   0
       207    659.2900    254.9323 300.3290828 +22.6355176     623.5696     70.10223      1.593     3.68    -3.065375     19.73779     66.17727        14     1.107     0.943  18.29   0
       208    585.5985    246.8155 300.3087854 +22.6110970     536.2022     69.81712      1.667     5.35    -2.997677     19.73779     52.47972        12     1.201     0.913  25.25   0
       209    854.4043    246.2508 300.3926491 +22.6914940     799.8628     69.95982      1.485     3.33     -2.82707     19.73779     92.35763        16     1.136     0.942 -73.92   0
       210    866.3955    245.3229 300.3966853 +22.6948200     546.5785     69.87066      1.647     4.61    -2.840298     19.73779     46.47643        11     1.087     0.870  42.22   0
       211    982.9910    235.4580 300.4362148 +22.7269127     625.3325     69.92417      1.362     3.24    -3.155651     19.73779     94.01688        14     1.128     0.783  79.12   0
       212    217.4398    229.0164 300.2001088 +22.4955846     375.2628     69.97764      1.549     4.09    -2.993048     19.73779     51.15654         7     1.021     0.641 -81.28   0
       213     79.3023    223.8530 300.1588876 +22.4526590     1375.101     70.04886      1.708     3.58    -3.029627     19.73779     122.1381        23     1.265     1.140 -56.99   0
       214    902.0215    220.5210 300.4158302 +22.6983656     493.8135     69.95982      1.617     3.74    -2.903999     19.73779     45.68187         6     0.941     0.499  -2.00   0
       215    236.5696    217.2123 300.2098802 +22.4979356     3049.281     69.95982      1.565     2.89    -2.910658     19.73779      317.028        32     1.311     1.180 -85.72   0
       216     20.7408    211.7386 300.1446397 +22.4316111     758.6168     70.01325      1.539     2.81    -3.065133     19.73779     94.79288        16     1.048     0.928 -82.32   0
       217    220.0740    207.8539 300.2077915 +22.4903018     287.6087     69.97763      1.273     3.86    -2.856065     19.73779     39.49223         8     0.959     0.624 -66.52   0
       218    880.5548    198.4662 300.4162970 +22.6855965     1945.795     69.95982      1.553     3.10    -2.720679     19.73779     199.2632        24     1.184     1.059  85.42   0
       219    984.0819    197.1528 300.4489814 +22.7162287     1595.201     69.97763      1.448     3.01    -3.130124     19.73779     157.1779        18     1.015     0.998 -13.37   0
       220    354.7560    185.9908 300.2567314 +22.5244205     505.9971     69.97763      2.093     5.38    -2.505328     19.73779     38.35571         8     1.158     0.706 -15.39   0
       221    120.3458    183.2742 300.1847919 +22.4533314     417.4024     69.97764      1.694     3.48    -2.704521     19.73779     48.27914         8     1.005     0.640  56.85   0
       222    481.4581    181.0435 300.2977276 +22.5609898     981.6823     69.95982      1.607     3.49    -2.453478     19.73779     89.81214        18     1.152     0.999  85.86   0
       223    255.4842    161.1648 300.2339345 +22.4875231     3252.366     69.92417      1.560     2.88    -2.537987     19.73779     377.1867        28     1.227     1.126 -85.74   0
       224    106.3755    160.6814 300.1877812 +22.4426577     411.5169     69.94199      1.410     3.75    -2.541788     19.73779     37.67775         7     1.033     0.466 -58.98   0
       225    501.4984    146.2274 300.3152515 +22.5569992     3349.692     69.90634      1.672     3.43    -2.533962     19.73779     315.1783        31     1.296     1.191  78.23   0
       226    387.1075    146.3604 300.2796400 +22.5227434     375.9544     69.95982      1.633     4.17    -2.447932     19.73779     48.71526         7     1.035     0.835 -64.00   0
       227     31.0814    140.4168 300.1709791 +22.4142538     8417.823     69.95982      0.606     0.61     -2.70735     19.73779     4897.729         8     0.525     0.282  76.76   0
       228    753.8362    136.1884 300.3970307 +22.6297365     444.0997     69.94199      1.456     4.28    -2.507863     19.73779     42.43808         7     0.895     0.582  33.07   0
       229    629.7917    126.3578 300.3616070 +22.5897436     3553.275     69.97764      1.659     3.45    -2.643421     19.73779     335.3772        32     1.338     1.194 -85.01   0
       230    404.7368    125.7266 300.2918114 +22.5221045     915.8259     69.99545      1.693     4.12    -2.448411     19.73779     90.24669        16     1.170     0.989  83.44   0
       231    670.5045    123.5413 300.3751908 +22.6011343     532.4556     70.03106      1.539     4.54    -2.563228     19.73779     48.92815        12     0.997     0.915  46.08   0
       232    153.4472    118.4136 300.2161033 +22.4446489      427.263     69.95982      1.567     5.80    -2.569553     19.73779     39.70652        10     1.207     0.901 -41.23   0
       233    956.9844    116.6563 300.4666438 +22.6849725     281.1808     69.94199      1.381     4.85    -2.523745     19.73779     34.19442         7     0.883     0.755  80.19   0
       234    725.7823    115.5721 300.3949818 +22.6154072     254.7182     69.95982      1.429     3.43    -2.482236     19.73779     30.04697         5     0.739     0.461  18.02   0
       235    674.0832    111.1964 300.3803076 +22.5986598      1568.53      69.8885      1.557     3.27    -2.535495     19.73779     144.1613        24     1.248     1.095  56.98   0
       236    689.3018    110.0392 300.3854197 +22.6028872     579.9953     69.95982      2.473     5.97    -2.513407     19.73779     39.70322         9     1.205     0.833  35.49   0
       237    760.5767    102.7647 300.4099676 +22.6221510     920.2825     69.97764      1.526     3.29    -2.417717     19.73779     90.92944        16     1.089     0.933  71.41   0
       238    504.0291     95.6753 300.3324304 +22.5432388     679.4786     69.97763      1.869     4.11    -2.490707     19.73779     63.01662        11     1.106     0.873 -31.19   0
       239    698.5110     96.1601 300.3927865 +22.6016585     346.8721     69.94199      1.416     3.27    -2.458431     19.73779     51.72305         8     1.003     0.606  32.04   0
       240     77.5343     95.4286 300.1999850 +22.4152817     258.6871     69.95982      1.041     2.99    -2.495464     19.73779     42.83809         5     0.900     0.484 -80.90   0
       241    407.8873     93.7391 300.3031624 +22.5138636     445.3907     70.04886      1.548     5.18    -2.462911     19.73779      45.9384        11     1.138     0.843  47.14   0
       242    179.3819     83.7463 300.2353972 +22.4424777     2139.235     69.94199      1.545     3.25    -2.615818     19.73779      232.725        26     1.202     1.102  87.82   0
       243    747.4296     83.8147 300.4120183 +22.6127665     424.9583     69.97763      1.802     5.40    -2.289464     19.73779     34.43755         9     0.988     0.833  19.90   0
       244    295.2701     75.9900 300.2739136 +22.4750033     673.5673     69.94199      1.582     3.18    -2.637592     19.73779     77.66866        13     1.054     0.821 -74.06   0
       245    740.5781     75.4829 300.4125864 +22.6083195     571.4453     69.92417      1.560     4.26    -2.210456     19.73779     50.15558        12     0.995     0.900  68.62   0
       246    778.2325     70.5713 300.4259031 +22.6181877     494.1789     69.95982      1.888     6.73    -2.175342     19.73779     30.46477        11     1.540     0.824  45.64   0
       247    701.6993     70.7870 300.4020054 +22.5953226     320.8744     69.87066      1.367     3.81    -2.212018     19.73779     37.88143         5     1.033     0.404  -4.07   0
       248    798.5044     66.9643 300.4333852 +22.6232232      1272.75     69.95982      1.516     3.43    -2.140228     19.73779     127.9435        17     1.061     1.011  63.94   0
       249    181.6869     62.7207 300.2429291 +22.4371339     574.9182     70.12001      1.518     2.98    -2.695173     19.73779     67.59167        10     0.897     0.771  40.23   0
       250    973.3338     60.1485 300.4900606 +22.6736212     485.2714     69.99545      1.388     3.01    -1.946252     19.73779     53.72536         9     0.857     0.699 -25.25   0
       251    746.8129     59.9897 300.4195504 +22.6057346     448.1934     69.85281      1.373     4.09    -2.078777     19.73779      52.3815        10     1.040     0.714  10.65   0
       252    331.7736     49.3437 300.2938954 +22.4782969     305.9528     69.95982      1.650     4.67    -2.596071     19.73779     30.02955         6     0.934     0.663  27.44   0
       253    599.5043     44.3797 300.3787609 +22.5571154     536.4182     69.87066      1.560     3.64    -2.642116     19.73779      56.6714        11     1.010     0.869  -5.43   0
       254    762.6693     39.4623 300.4311419 +22.6045846     314.9022     69.99545      1.274     4.60    -1.894426     19.73779     39.78795         9     0.971     0.702 -37.78   0
       255    571.2303     37.5162 300.3721888 +22.5466714      1020.66     69.97764      1.576     3.13    -2.677779     19.73779     110.2218        16     1.036     0.974 -47.36   0
       256    294.3456     34.9651 300.2869248 +22.4629471     436.4864     69.97763      1.516     3.39    -2.753608     19.73779     41.99448         5     0.762     0.437 -72.48   0
       257      8.5184     34.3401 300.1983647 +22.3770488     370.3518     70.04886      1.647     3.35    -1.947196     19.73779     44.57902         7     0.841     0.680 -23.42   0
       258    528.4777     31.2220 300.3609293 +22.5320517     757.5714     69.94199      1.678     4.70    -2.727665     19.73779     82.89432        18     1.289     1.116  57.45   0
       259    633.8207     28.3735 300.3946276 +22.5627983     751.5015     69.94199      1.563     4.08    -2.313121     19.73779     78.55682        13     1.080     0.975  59.70   0
       260    229.5001     26.7287 300.2694471 +22.4411396      316.056     70.12001      1.802     4.28    -2.694158     19.73779     34.05167         6     1.053     0.496  85.99   0
       261    454.2787     22.0025 300.3408412 +22.5071665     1353.612     69.87066      1.757     3.22    -2.765485     19.73779      105.213        23     1.252     1.068  64.77   0
       262    101.0613     19.9380 300.2317594 +22.4006738     886.5746     69.99545      1.506     3.46    -2.710861     19.73779     100.8456        14     1.059     0.908  76.11   0
       263    746.5661   1021.2958 300.1072016 +22.8816389     75.91299     65.54373      0.882     3.06    -5.354189     19.73779     36.84244         5     0.731     0.438 -66.57  16
       264    463.1341   1020.6984 300.0192198 +22.7963680     623.5263     67.62202      1.166     2.49    -4.966465     19.73779     99.52226        10     0.921     0.673  38.27  16
