#   1 NUMBER                 Running object number                                     
#   2 X_IMAGE                Object position along x                                    [pixel]
#   3 Y_IMAGE                Object position along y                                    [pixel]
#   4 ALPHA_J2000            Right ascension of barycenter (J2000)                      [deg]
#   5 DELTA_J2000            Declination of barycenter (J2000)                          [deg]
#   6 FLUX_APER              Flux vector within fixed circular aperture(s)              [count]
#   7 FLUXERR_APER           RMS error vector for aperture flux(es)                     [count]
#   8 FLUX_RADIUS            Fraction-of-light radii                                    [pixel]
#   9 FWHM_IMAGE             FWHM assuming a gaussian core                              [pixel]
#  10 BACKGROUND             Background at centroid position                            [count]
#  11 THRESHOLD              Detection threshold above background                       [count]
#  12 FLUX_MAX               Peak flux above background                                 [count]
#  13 ISOAREA_IMAGE          Isophotal area above Analysis threshold                    [pixel**2]
#  14 A_IMAGE                Profile RMS along major axis                               [pixel]
#  15 B_IMAGE                Profile RMS along minor axis                               [pixel]
#  16 THETA_IMAGE            Position angle (CCW/x)                                     [deg]
#  17 FLAGS                  Extraction flags                                          
         1    646.4928     20.6115 300.4126632 +22.5514687      1538.34     70.28133      2.110     4.98    -1.141551     19.84367     100.3476        32     1.530     1.471 -42.15   0
         2    580.2928     10.5003 300.3953356 +22.5287277     845.7344     70.49615      2.125     6.90    -1.514629     19.84367     51.49102        21     1.596     1.157  -9.74  16
         3    370.0038      2.4825 300.3325147 +22.4634017     3903.485     60.69957      1.774     4.27    -1.728365     19.84367     314.4548        33     1.596     1.100  -2.14  24
         4    981.4695   1012.7523 300.1945176 +22.9368820      322.826     70.31718      1.418     3.40    -5.742715     19.84367     38.80898         5     0.740     0.452 -68.76   0
         5    100.9726   1022.5125 299.9173884 +22.6752797     879.4988     60.76182      7.954    11.29    -1.222954     19.84367     41.60582        22     2.793     1.272  12.93  26
         6    836.2056   1013.3122 300.1490659 +22.8934549     279.5573     70.24546      1.243     4.37    -4.853324     19.84367     42.05492         8     1.050     0.628  -4.51   0
         7    102.3430   1005.6434 299.9233079 +22.6708592     540.4778      70.3351      2.123     5.62     -1.72419     19.84367     38.99031        11     1.350     0.735  20.78   8
         8    841.9672   1001.1821 300.1548119 +22.8917035     260.8003     70.31718      0.995     2.31    -4.857858     19.84367     56.52274         5     0.771     0.458 -63.26   0
         9    799.1068    995.7161 300.1432406 +22.8772725     738.4417     70.51402      1.333     2.89     -4.76725     19.84367     81.14787        11     0.950     0.725 -67.76   0
        10    982.2008    994.1931 300.2007908 +22.9317745     283.9612     70.15572      1.250     3.97    -5.431235     19.84367     41.83427         6     0.753     0.598  46.44   0
        11    836.9869    989.2631 300.1571425 +22.8867889      490.059     70.29926      1.483     2.88    -4.837785     19.84367     65.11671         9     0.950     0.613 -49.14   0
        12    885.6432    979.9046 300.1753505 +22.8987037     361.2814     70.35301      1.349     3.46    -4.876049     19.84367     43.25606         5     0.790     0.439  72.95   0
        13    736.5545    979.7952 300.1289445 +22.8539309     387.3226      70.3351      1.545     3.52    -4.743123     19.84367     44.49901         7     0.860     0.595 -12.64   0
        14    449.6113    976.0846 300.0408547 +22.7667174      2428.54     70.28133      1.444     2.75    -4.571244     19.84367     277.7301        23     1.102     1.035 -43.71   0
        15    748.6010    976.2766 300.1338418 +22.8565371     336.7537     70.22752      1.232     2.42    -4.741626     19.84367     50.74117         5     0.717     0.434 -66.59   0
        16    174.9143    962.0359 299.9600478 +22.6801733     465.0723     70.31718      1.574     3.44    -2.972657     19.84367     52.26332         7     0.883     0.616 -31.38   0
        17    152.1842    958.9551 299.9539906 +22.6724606     948.5619     70.35301      1.394     2.99    -3.096733     19.84367     110.0975        13     1.016     0.803 -30.94   0
        18   1023.3080    947.4751 300.2288221 +22.9306948     994.3777     56.84025      1.132     2.76     -4.49687     19.84367     162.0934        13     1.061     0.703 -87.01  24
        19    681.6059    948.8113 300.1219256 +22.8285493     275.5401     70.20958      1.188     3.65    -4.603725     19.84367     27.89394         5     1.459     0.262  49.54   0
        20    977.8046    945.8733 300.2151575 +22.9165857     1349.797     70.28133      1.407     2.54    -4.619084     19.84367     173.8915        18     1.103     0.893  -6.23   0
        21    761.3386    939.8763 300.1496626 +22.8499162     462.7933     70.38882      1.487     3.96    -4.706039     19.84367     46.21655        11     1.231     0.849 -35.86   0
        22    629.4967    934.0435 300.1105132 +22.8086713     2717.885     70.35301      1.522     3.10    -4.555672     19.84367     261.9102        26     1.166     1.037 -16.39   0
        23    432.0165    931.7449 300.0498209 +22.7487205     331.7822     70.31718      1.414     3.72    -4.516417     19.84367     38.39603         5     0.825     0.481 -47.06   0
        24    179.6894    928.0340 299.9726020 +22.6718644     849.0577     70.31718      1.506     3.25    -3.913132     19.84367     85.25863        17     1.043     1.023 -39.65   0
        25    649.8549    926.4367 300.1193269 +22.8126002     377.0084     70.35301      1.522     4.82    -4.534347     19.84367     37.47562         9     1.150     0.812 -58.65   0
        26    805.4488    913.6407 300.1719443 +22.8556245     2519.692     70.37092      1.570     2.97    -4.690471     19.84367     221.6033        28     1.256     1.084  -2.65   0
        27   1022.2319    913.5541 300.2395325 +22.9206334      699.109     62.07485      1.258     2.66    -3.971762     19.84367     101.6249        16     1.081     0.847 -31.26  24
        28    214.3640    907.9224 299.9899218 +22.6765179     359.6569     70.29926      1.670     5.13    -3.761892     19.84367     35.40391         7     1.356     0.548  57.32   0
        29    522.7991    906.0054 300.0864393 +22.7685980      350.282     70.15572      1.598     5.33    -4.298344     19.84367     30.63262         7     1.136     0.707  14.69   0
        30    169.4598    904.9095 299.9769527 +22.6621640     591.1847     70.42461      1.483     3.42      -3.9633     19.84367     57.66087        12     1.001     0.830  51.23   0
        31    318.7147    896.7036 300.0260025 +22.7046469     30718.13     70.51402      1.573     3.03    -4.157333     19.84367     2929.314        78     1.391     1.337 -11.20   0
        32    583.9460    899.0370 300.1077343 +22.7849562     323.4556     70.35301      1.463     3.53    -4.307467     19.84367     34.54693         5     0.982     0.366 -57.25   0
        33    576.3850    895.3958 300.1065668 +22.7816419     951.9619     70.19163      1.631     4.05    -4.285228     19.84367     85.72699        17     1.288     0.928   2.00   0
        34    247.3214    894.7036 300.0044655 +22.6826294     427.7648      70.4425      1.678     5.37    -3.896122     19.84367     40.90665        10     1.351     0.603 -80.74   0
        35    989.1484    894.2384 300.2355070 +22.9051650     501.4693      70.3351      1.296     3.07    -4.128994     19.84367      73.4638        11     1.011     0.819 -37.73   0
        36      4.8807    891.3695 299.9302556 +22.6088311     529.8572     69.43356      1.436     3.09    -4.462701     19.84367     63.27358        11     0.946     0.801 -39.64  16
        37    605.4572    891.1342 300.1170017 +22.7891464     437.3258     70.37092      1.696     5.52     -4.21435     19.84367      42.5406         9     1.181     0.727   0.81   0
        38    616.5630    889.6544 300.1209399 +22.7920554     418.3915     70.35301      1.665     5.31    -4.216403     19.84367     37.41853        10     0.909     0.876 -36.28   0
        39    368.4060    873.8585 300.0488867 +22.7130205     18033.41     70.29926      1.605     3.16    -4.131229     19.84367     1708.672        61     1.379     1.322 -19.81   0
        40    759.1702    876.0602 300.1697650 +22.8309534     533.8226     70.37092      1.916     4.37    -4.243996     19.84367     49.24697        10     1.132     0.650 -30.12   0
        41    382.6411    874.3875 300.0531404 +22.7174469     1023.649      70.3351      1.537     3.81    -4.201777     19.84367     101.0053        18     1.149     0.999 -76.44   0
        42    891.2067    869.2142 300.2131269 +22.8686026     1534.529     70.22752      1.456     2.92    -4.374297     19.84367     175.7345        19     1.087     0.958 -36.25   0
        43    379.9923    868.3862 300.0542704 +22.7149308     247.1944     70.22752      1.372     3.23    -4.175239     19.84367     36.23412         5     0.764     0.590 -88.86   0
        44    649.1634    865.5699 300.1389277 +22.7949307     541.0688     70.35301      1.448     3.57    -4.112911     19.84367     52.11022        11     0.988     0.770 -67.98   0
        45    250.6920    865.7238 300.0149462 +22.6753349     366.6576     70.47827      1.454     5.24    -3.931709     19.84367      40.7953        10     0.950     0.818 -20.93   0
        46    517.6408    864.0530 300.0984917 +22.7550168     840.6716     70.31718      0.621     0.80    -4.089321     19.84367     458.4568         6     0.481     0.426  10.21   0
        47    496.3582    860.2939 300.0930944 +22.7475494     465.3203     70.35301      1.722     3.99    -4.039322     19.84367     52.39478         8     1.252     0.488 -58.94   0
        48     55.1812    861.5414 299.9555798 +22.6154003     214.6831     70.29926      1.502     4.10     -4.17435     19.84367     32.09606         7     1.011     0.475   9.77   0
        49    897.7837    857.2863 300.2190594 +22.8671515     294.2344     70.29926      1.394     3.63    -4.248084     19.84367     40.30265         5     0.834     0.495 -47.22   0
        50     84.6104    854.6880 299.9669480 +22.6222790     251.3522     70.28133      1.447     5.00    -3.993649     19.84367     39.32948         6     1.128     0.626 -44.50   0
        51    541.2731    838.7410 300.1140833 +22.7548504     488.2048     70.37092      1.857     4.19     -3.84784     19.84367     39.45941         8     0.927     0.760 -70.18   0
        52    563.4235    835.9802 300.1218742 +22.7607073      809.324      70.3351      1.664     4.17    -3.798455     19.84367     70.59185        16     1.166     1.052  71.88   0
        53    957.5760    834.4956 300.2451136 +22.8785427     2599.878     70.22752      1.499     2.81    -3.881028     19.84367     252.6605        24     1.210     0.982 -17.42   0
        54    945.9898    825.9540 300.2442824 +22.8726153     924.9467     70.35301      1.473     3.21    -3.833236     19.84367     89.29829        17     1.174     0.867 -14.58   0
        55    309.1551    820.3788 300.0478740 +22.6798932     524.4348     70.38882      1.625     6.35    -3.782053     19.84367     43.86555        12     1.316     0.860 -82.48   0
        56    772.4443    817.3757 300.1930013 +22.8180941      1595.82     70.37092      1.810     3.57    -3.914422     19.84367     112.9224        23     1.231     1.107  23.50   0
        57    977.1833    815.9420 300.2572647 +22.8790957     919.2205     70.29926      1.459     3.29    -3.723203     19.84367     97.96127        15     1.059     0.939 -11.13   0
        58    158.1770    803.9631 300.0063033 +22.6298419     305.0976     70.35301      1.340     3.09    -3.732256     19.84367     46.33861         6     0.859     0.667 -33.30   0
        59    890.7853    794.2223 300.2374048 +22.8469473     84065.65      70.3351      1.573     3.09    -3.660775     19.84367      7082.34       122     1.463     1.407 -10.23   0
        60    743.7018    794.6138 300.1914574 +22.8029376      354.294     70.22752      1.568     4.08    -3.779721     19.84367      31.7242         7     0.998     0.477  -6.32   0
        61    923.5297    786.8723 300.2500014 +22.8546578     311.9337     70.40672      1.498     4.63    -3.524215     19.84367     27.98363         6     1.037     0.587 -22.39   0
        62    577.2032    783.4710 300.1432509 +22.7497784     989.5108     70.28133      1.857     4.09    -3.429646     19.84367     73.34274        21     1.260     1.160 -22.65   0
        63    758.2742    780.4974 300.2005896 +22.8032578     5356.172      70.4604      1.720     3.54    -3.682159     19.84367     369.0628        39     1.364     1.271  -5.94   0
        64    259.8948    775.9518 300.0470209 +22.6523618      2868.31     70.35301      1.723     3.45    -3.446923     19.84367     233.7531        31     1.336     1.262 -10.29   0
        65    342.3614    773.8381 300.0733410 +22.6765187     549.7214     70.40672      1.609     5.41    -3.332657     19.84367     47.83271        14     1.194     0.908 -71.73   0
        66    217.8156    771.3302 300.0354492 +22.6383997     258.5435     70.35301      1.525     4.99    -3.623224     19.84367     44.79573         6     0.961     0.877  26.32   0
        67    550.1095    769.4474 300.1393831 +22.7376233     381.5582      70.3351      1.564     5.51    -3.412795     19.84367     48.53552        10     1.253     0.791  55.71   0
        68    542.0472    761.4365 300.1394811 +22.7329052     1867.595     70.37092      1.763     3.94    -3.402321     19.84367     128.8521        28     1.317     1.231 -29.93   0
        69    532.2350    754.9047 300.1385533 +22.7280862     852.5852      70.3351      1.822     5.40    -3.393162     19.84367     62.31128        19     1.408     1.005  79.73   0
        70    460.9936    754.1810 300.1166264 +22.7064955     250.0015     70.29926      1.468     5.00    -3.406669     19.84367      26.8802         6     0.978     0.723 -55.52   0
        71    195.6716    751.7099 300.0349527 +22.6261240     289.7874     70.49615      1.499     4.73    -3.659403     19.84367     35.39628         8     0.949     0.668  73.25   0
        72    235.6364    746.8383 300.0489549 +22.6367293     308.5724     70.40672      1.502     5.73    -3.499807     19.84367     29.49975         7     1.157     0.800  39.08   0
        73    978.7812    745.8925 300.2805588 +22.8594586     221.5397      70.2634      1.255     4.92    -3.529474     19.84367     35.12051         6     1.070     0.640 -72.41   0
        74    456.9633    745.1423 300.1183136 +22.7026928     1016.013      70.3351      1.708     4.08    -3.365009     19.84367     79.55503        21     1.213     1.164 -64.96   0
        75    110.9997    740.2472 300.0123810 +22.5974069     11226.84      70.3351      1.620     3.19    -3.716598     19.84367     1004.879        54     1.391     1.340 -38.09   0
        76     32.3794    741.9586 299.9874120 +22.5742804     312.7247     70.37092      1.220     4.11    -3.279461     19.84367     33.26885         7     1.293     0.373 -75.49   0
        77    542.0018    739.9811 300.1464477 +22.7267356     537.2601      70.2634      2.258     6.21    -3.370263     19.84367     36.22808        12     1.164     0.932  -8.65   0
        78    959.5920    726.3558 300.2809335 +22.8480939      556.246     70.35301      1.462     3.21    -3.380124     19.84367      60.7994        11     0.921     0.820  32.46   0
        79     56.9892    724.3336 300.0007861 +22.5766216     877.4072     70.31718      1.838     5.29    -3.470029     19.84367      56.4714        18     1.493     0.911 -82.90   0
        80    899.9478    719.0172 300.2647311 +22.8281011     497.7337     70.31718      1.970     4.14    -3.086678     19.84367     33.96758         7     0.921     0.531  42.16   0
        81    461.6642    712.6325 300.1303520 +22.6947773     566.3601      70.3351      2.761     7.02    -3.189956     19.84367     42.91881        12     1.599     0.863 -27.67   0
        82    506.2518    709.1838 300.1453439 +22.7071700     539.0635      70.3351      1.769     7.56    -3.215308     19.84367     33.00002        14     1.420     1.126 -54.35   0
        83    656.3544    709.8705 300.1918335 +22.7524084     335.6848     70.31718      2.067     6.47      -3.1468     19.84367     29.07709         7     1.350     0.871 -21.48   0
        84    626.6578    709.5182 300.1827039 +22.7433973     346.5493     70.38882      1.325     3.47    -3.117492     19.84367     29.52406         5     1.104     0.314  70.38   0
        85    939.6904    704.2517 300.2819212 +22.8357782     1894.547     70.35301      1.657     3.33    -3.257087     19.84367     152.8794        23     1.192     1.080   7.16   0
        86    471.7502    704.5217 300.1361277 +22.6954775     961.6544      70.3351      1.832     4.88    -3.150448     19.84367     80.35582        20     1.416     1.004  -0.63   0
        87     33.7785    698.4993 300.0019830 +22.5622444     2901.398      70.2634      1.690     3.24    -3.595767     19.84367     244.8163        31     1.316     1.202 -83.41   0
        88    335.1291    691.4890 300.0978825 +22.6507293     5181.647     70.49615      1.808     3.74    -2.872473     19.84367     386.9647        40     1.407     1.353 -78.45   0
        89    457.5608    688.3284 300.1369815 +22.6865729       5061.3     70.29926      1.864     3.98    -3.038628     19.84367     327.5546        40     1.424     1.375 -57.92   0
        90    869.1967    682.1539 300.2671404 +22.8082936     938.3343     70.31718      1.620     4.15    -3.006747     19.84367     84.54266        19     1.195     1.064   4.51   0
        91    953.6363    679.2982 300.2943857 +22.8327927     7048.983      70.3351      1.671     3.35    -3.370906     19.84367     564.2718        44     1.440     1.241 -38.94   0
        92    518.0955    677.9384 300.1591922 +22.7017588      6583.95     70.42461      1.863     4.10    -3.080512     19.84367     452.7287        45     1.467     1.396 -47.06   0
        93    687.5295    674.0001 300.2132075 +22.7514649     322.0521     70.24546      1.579     4.01    -2.955303     19.84367     32.78799         5     1.057     0.434 -25.68   0
        94    246.0869    673.4274 300.0760817 +22.6188162     726.9768      70.3351      1.720     4.66    -2.836056     19.84367      61.1947        12     1.257     0.710 -80.49   0
        95    449.6826    666.0832 300.1417664 +22.6778260     2421.428      70.4604      1.868     4.45    -2.951563     19.84367     163.8779        32     1.450     1.326   7.10   0
        96    792.1699    666.0101 300.2483940 +22.7805578     333.6109      70.3351      1.408     4.82    -3.008374     19.84367     35.11915         8     0.870     0.755  85.09   0
        97    428.1264    664.1191 300.1357009 +22.6707928     744.3616      70.4425      1.932     7.51    -2.953011     19.84367     42.04852        18     1.365     1.233 -88.21   0
        98    182.6823    664.2954 300.0593513 +22.5971593     346.5352     70.49615      1.371     5.16    -2.962179     19.84367     36.80383         8     1.089     0.690  85.45   0
        99    869.2888    661.2447 300.2739704 +22.8023166      851.897     70.35301      1.864     5.91    -3.044925     19.84367     60.42524        18     1.258     1.028 -68.57   0
       100    749.8657    658.6188 300.2376216 +22.7657475     451.1012     70.29926      1.598     5.31    -2.962715     19.84367     46.22462        10     1.136     0.937 -58.44   0
       101    566.3124    653.6190 300.1821049 +22.7092480     116475.4     70.28133      1.909     4.12    -2.934729     19.84367     7174.299       154     1.709     1.625 -25.85   0
       102    252.4852    653.8293 300.0844438 +22.6151166     1996.707      70.3351      1.809     3.92    -2.959626     19.84367     139.4238        31     1.335     1.274  23.03   0
       103    457.0592    634.0263 300.1544863 +22.6708417     1413.735      70.3351      1.926     4.69    -2.955567     19.84367      92.1507        23     1.371     1.155  81.97   0
       104    853.7214    619.8262 300.2825901 +22.7857535     850.9566      70.3351      1.728     4.85    -3.144439     19.84367     57.30485        18     1.249     1.080 -54.25   0
       105    725.1740    617.7621 300.2432194 +22.7466111      1360.69     70.35301      1.762     4.06    -2.897759     19.84367      101.692        23     1.295     1.139 -38.01   0
       106    512.8806    613.7815 300.1784345 +22.6817827     525.3568      70.3351      1.950     5.75     -2.87709     19.84367     39.95921        10     1.521     0.612 -53.56   0
       107    982.3524    611.5128 300.3253841 +22.8219299     624.5143      70.3351      1.580     5.08    -3.301699     19.84367     53.11969        15     1.276     0.863 -25.69   0
       108    967.9853    610.4559 300.3212489 +22.8173195     489.5944     70.31718      1.853     5.26    -3.270854     19.84367     43.06086         9     1.013     0.772  88.63   0
       109    854.2409    609.8511 300.2859958 +22.7830444     1299.766     70.35301      1.967     5.13    -3.172148     19.84367     72.88251        27     1.464     1.267  75.97   0
       110    892.1127    605.1352 300.2993306 +22.7930450     2360.859     70.42461      1.774     3.86    -3.195347     19.84367     161.8388        27     1.322     1.183 -33.25   0
       111    605.6482    604.8472 300.2102074 +22.7070506     472.9618     70.37092      2.406     5.68    -2.621181     19.84367     28.04214         8     1.512     0.602  57.67   0
       112    124.6588    596.1551 300.0634848 +22.5601966     539.3295     70.37092      1.745     5.77     -3.25117     19.84367     37.78088        12     1.170     0.883 -85.31   0
       113    984.1222    595.0491 300.3312896 +22.8177306     529.5567      70.3351      2.311     6.98    -3.143941     19.84367     37.75076        12     1.344     1.017  20.60   0
       114    666.0381    575.9727 300.2383946 +22.7168759     400.8229     70.35301      1.601     5.16    -2.553095     19.84367     39.25863         8     0.999     0.752 -66.60   0
       115    979.9537    568.2986 300.3386881 +22.8087955     251.5541     70.37092      1.428     5.08    -2.865916     19.84367     28.50438         7     1.052     0.693  17.70   0
       116    726.8311    567.7059 300.2600115 +22.7327350     482.4068      70.2634      1.868     6.28    -2.711497     19.84367     31.64622         8     1.328     0.835  30.93   0
       117    883.9208    563.8655 300.3101968 +22.7787345     519.1413      70.4425      1.507     4.59      -3.0968     19.84367     49.10416         8     1.032     0.580 -65.37   0
       118    868.5457    560.4165 300.3065270 +22.7731343     369.4152     70.31718      1.591     4.74    -3.139123     19.84367     32.99949         7     0.940     0.677  24.63   0
       119    612.2260    558.6201 300.2272848 +22.6957532     1850.899      70.3351      1.990     4.60    -2.490904     19.84367     111.2305        29     1.383     1.362  26.84   0
       120   1022.9232    537.0676 300.3622391 +22.8127003     571.9536     58.80158      1.489     4.10    -2.438742     19.84367     56.95822        13     1.158     0.789  86.90  24
       121    982.1059    536.4008 300.3497295 +22.8002755      629.946     70.20958      1.795     5.88    -2.593953     19.84367     39.80919        12     1.101     0.885 -75.88   0
       122    722.7750    532.3399 300.2702458 +22.7213627     598.2569     70.31718      1.865     6.49    -2.572193     19.84367     39.81838        13     1.315     0.924  76.78   0
       123    289.2245    526.6794 300.1372015 +22.5896714     2197.208     70.31718      2.017     4.42    -2.732385     19.84367     133.7711        31     1.452     1.339 -61.36   0
       124   1021.8908    524.5179 300.3659969 +22.8087845     2481.997     63.63849      1.650     3.78    -2.427829     19.84367     173.2141        29     1.310     1.187 -24.88  24
       125    236.4974    521.4969 300.1224993 +22.5723588      4270.36     70.51402      1.874     4.04    -2.843767     19.84367     290.2181        39     1.423     1.395 -16.17   0
       126    377.2563    515.6301 300.1681604 +22.6129194      2712.22     70.35301      2.034     4.40    -2.629415     19.84367     180.2565        38     1.553     1.459 -73.61   0
       127   1001.9551    515.5748 300.3626881 +22.8002400     1037.441     70.35301      1.728     4.06    -2.474643     19.84367     80.53883        18     1.160     1.043 -48.02   0
       128    621.2839    512.1276 300.2452176 +22.6851217      10596.1      70.4425      2.042     4.57    -2.364913     19.84367     626.5958        62     1.630     1.588 -67.04   0
       129    954.7347    494.5661 300.3547956 +22.7800512     398.0775      70.3351      1.999     4.25    -2.520127     19.84367     33.45586         7     0.955     0.538  56.95   0
       130    175.9283    492.7181 300.1130332 +22.5459222     1234.622      70.4604      2.197     5.09    -2.991038     19.84367     80.43382        22     1.470     1.177 -26.69   0
       131    562.0150    481.5479 300.2367100 +22.6585651     3733.178      70.3351      2.106     4.83    -2.161554     19.84367      213.866        43     1.602     1.461 -37.51   0
       132    975.3810    481.5213 300.3654718 +22.7824903     670.3751      70.3351      1.857     5.74    -2.437444     19.84367     52.89646        13     1.241     1.143  21.61   0
       133    766.2031    470.5305 300.3038612 +22.7166319     639.1166     70.28133      2.121     6.41    -2.524406     19.84367     52.95735        12     1.141     1.012  69.59   0
       134    468.7030    467.8962 300.2121143 +22.6266557     3403.675     70.51402      2.015     4.54    -2.153333     19.84367     184.3086        37     1.488     1.399 -34.27   0
       135    860.7166    462.1329 300.3360347 +22.7425525     947.5487      70.4425      2.161     6.83    -2.588562     19.84367     55.32047        20     1.537     1.214 -80.53   0
       136    453.8124    456.7576 300.2111021 +22.6189913     299.5307     70.31718      1.586     3.76    -2.112516     19.84367     26.20878         5     1.214     0.334 -80.01   0
       137    356.2115    447.3926 300.1837930 +22.5870215     1417.114     70.22752      1.954     4.70     -2.31733     19.84367     96.02348        26     1.415     1.225 -54.40   0
       138     75.0315    444.9931 300.0972028 +22.5019444     619.3319      70.3351      1.614     5.11    -2.753995     19.84367     67.13348        15     1.270     0.967 -38.47   0
       139    325.5559    436.6904 300.1777397 +22.5747519     16952.66      70.3351      2.006     4.30    -2.380893     19.84367      1070.29        75     1.651     1.625 -14.50   0
       140    859.9481    434.1764 300.3448801 +22.7342897     661.1467     70.35301      1.759     4.56    -2.528636     19.84367     52.99751        14     1.186     1.033   8.31   0
       141     22.1059    424.8969 300.0872987 +22.4802914     2635.052     70.51402      1.662     3.31    -2.507253     19.84367     242.8022        30     1.335     1.199 -77.06   0
       142    735.8123    416.3701 300.3119955 +22.6919630     1128.588      70.3351      2.127     5.81    -2.307368     19.84367     67.30612        24     1.471     1.227 -21.47   0
       143    397.7760    401.1600 300.2117386 +22.5862213     1225.518     70.37092      2.266     5.77    -1.960401     19.84367     63.57069        27     1.536     1.304 -79.42   0
       144    837.1584    394.0602 300.3508137 +22.7159324     380.0564     70.31718      1.519     5.09    -2.308706     19.84367     36.92539         8     1.068     0.686 -49.56   0
       145    473.7115    380.3767 300.2421084 +22.6030321     523.6751      70.2634      1.870     6.24    -2.026263     19.84367     34.86269        10     1.302     0.840  72.89   0
       146    718.2337    372.2843 300.3208439 +22.6740287     1201.491     70.29926      1.976     4.59    -2.008818     19.84367     77.01038        23     1.344     1.159 -12.40   0
       147    979.3782    366.1600 300.4042033 +22.7505324     1783.219     70.37092      1.781     3.90    -2.063061     19.84367     141.6021        26     1.302     1.219  75.69   0
       148    101.7018    350.8246 300.1360763 +22.4829362     846.6216      70.2634      2.035     6.10    -2.538263     19.84367     60.23948        19     1.456     1.101 -29.08   0
       149    186.2140    342.0779 300.1651695 +22.5057888     323.3883     70.35301      1.750     5.10    -2.518822     19.84367     37.37698         6     0.917     0.801  28.18   0
       150    790.1463    333.1310 300.3559601 +22.6843346     448.8147     70.35301      2.135     5.21    -1.985559     19.84367     29.11472         7     1.232     0.622  83.96   0
       151    887.7871    322.3621 300.3898806 +22.7105003     1137.737      70.3351      1.858     4.13    -1.957696     19.84367      90.8354        24     1.327     1.167 -47.26   0
       152    306.8722    320.1240 300.2097970 +22.5356892     1154.844     70.40672      1.954     4.76    -2.049745     19.84367     83.37975        24     1.342     1.286 -22.89   0
       153    385.0927    315.5336 300.2356074 +22.5578349     592.7973     70.47827      1.942     5.12    -1.901971     19.84367     36.45785         8     1.258     0.589 -57.37   0
       154    201.6477    307.9590 300.1810453 +22.5006284     444.7337     70.38882      1.819     4.15    -2.295317     19.84367     42.05114         5     1.073     0.457 -27.79   0
       155    739.1136    304.0145 300.3495211 +22.6606730     908.8721     70.28133      2.151     6.89    -1.982037     19.84367       51.778        20     1.390     1.179  59.23   0
       156   1010.8440    295.9007 300.4368350 +22.7397608     470.2728      70.3351      1.577     4.19    -1.950243     19.84367     58.21653        11     1.089     0.849  65.09   0
       157    743.8483    295.3752 300.3538014 +22.6596096     383.5764      70.3351      1.780     4.35    -1.983549     19.84367     31.92096         5     1.145     0.471 -57.27   0
       158    663.7122    295.1360 300.3289249 +22.6355212     629.3495      70.4425      1.922     7.19    -1.878601     19.84367     42.65909        15     1.607     0.901 -17.13   0
       159    859.1793    285.9694 300.3927849 +22.6914683     672.4644      70.3351      1.775     6.50    -1.968511     19.84367     52.35587        14     1.330     0.891 -77.03   0
       160    589.8742    286.4602 300.3087571 +22.6108936     603.9543     70.37092      2.182     7.39    -1.844886     19.84367     32.42225        12     1.397     1.094 -41.31   0
       161    871.2536    286.0714 300.3965143 +22.6951155     471.2928     70.35301      2.094     3.00    -1.954301     19.84367     49.91778         6     0.880     0.477 -48.87   0
       162    987.8618    275.7876 300.4362009 +22.7270938     506.0893     70.29926      1.480     5.39    -1.913633     19.84367     44.27078        10     1.092     0.752 -15.61   0
       163     84.1107    263.8640 300.1588518 +22.4527056     1353.982      70.4425      1.982     4.57    -2.167663     19.84367     85.76855        25     1.384     1.207 -37.89   0
       164    906.7141    260.6093 300.4158337 +22.6984207     349.3257      70.2634      1.567     3.90    -1.840472     19.84367     31.84562         5     1.002     0.435  14.14   0
       165    241.3020    257.1936 300.2098514 +22.4979545     3064.752     70.22752      1.989     4.10    -2.054728     19.84367      199.452        38     1.503     1.423 -64.01   0
       166     25.7713    251.8279 300.1446439 +22.4317445     724.6614     70.29926      1.710     4.09    -2.232336     19.84367     70.16933        19     1.206     1.146  85.01   0
       167    885.2080    238.1034 300.4164387 +22.6855079     1911.663     70.22752      1.939     4.46     -1.83068     19.84367     124.5167        31     1.465     1.341 -20.26   0
       168    988.7746    236.8144 300.4491405 +22.7161615     1618.439     70.35301      1.838     4.35    -1.912488     19.84367     109.8324        27     1.345     1.285 -42.17   0
       169    359.1757    225.5038 300.2567809 +22.5242119     381.8164     70.24546      1.803     4.98    -1.508408     19.84367     47.57035         6     1.565     0.449 -72.70   0
       170    126.4807    223.6630 300.1850625 +22.4538824     315.6997      70.4425      2.049     5.61     -2.08592     19.84367      30.7123         5     1.323     0.671  44.58   0
       171    486.0775    220.7732 300.2977857 +22.5609061     880.8067      70.3351      2.127     6.17    -1.503016     19.84367     62.02545        22     1.492     1.446 -82.71   0
       172    260.2628    200.9232 300.2340114 +22.4874881     3253.456     70.40672      1.977     4.49      -1.6913     19.84367     203.9631        40     1.509     1.462 -63.16   0
       173    112.1235    201.1009 300.1879267 +22.4430994      359.421     70.47827      1.482     3.96    -1.930062     19.84367     32.40749         6     0.976     0.460 -52.42   0
       174    506.1541    186.1808 300.3152611 +22.5569886     3491.511     70.37092      2.135     4.76     -1.50114     19.84367     201.8944        41     1.587     1.511 -29.33   0
       175    634.4116    166.0717 300.3617046 +22.5896552     3405.116     70.35301      2.031     4.68      -1.5513     19.84367     224.6816        40     1.566     1.438 -18.47   0
       176    409.6559    165.3773 300.2919956 +22.5220818     844.7536     70.37092      1.925     5.16    -1.417913     19.84367     62.14085        18     1.303     1.174  71.92   0
       177    159.4140    158.2580 300.2165218 +22.4449891     284.0208     70.29926      1.370     4.15    -1.531591     19.84367     40.60119         5     0.885     0.556 -36.04   0
       178    678.5618    150.7542 300.3804218 +22.5984843     1567.783     70.38882      2.129     4.93     -1.57839     19.84367     98.67849        29     1.445     1.366 -27.33   0
       179    765.3003    142.6684 300.4100588 +22.6221498     777.1208     70.42461      1.939     7.21    -1.642401     19.84367     53.37124        18     1.460     0.998 -40.64   0
       180    704.0375    136.0130 300.3931387 +22.6018812     427.7645     70.31718      2.277     5.55    -1.567384     19.84367     31.04926         6     1.277     0.681 -24.64   0
       181    509.3692    135.6964 300.3326464 +22.5434491     448.6372     70.28133      1.744     4.74    -1.508726     19.84367     45.26529         9     1.222     0.651 -36.76   0
       182    412.5418    134.3714 300.3029556 +22.5140413     329.3994      70.3351      1.277     4.21    -1.448393     19.84367     40.00809         7     1.158     0.436 -29.58   0
       183    183.9795    123.4016 300.2354652 +22.4423510     2135.589      70.2634      2.061     4.40    -1.608619     19.84367      145.377        38     1.629     1.463  54.12   0
       184    300.2176    115.4251 300.2741781 +22.4749207     725.0085      70.3351      2.175     7.06    -1.436332     19.84367     40.50663        15     1.334     1.048  10.13   0
       185    802.9841    106.9124 300.4334014 +22.6231600     1243.122     70.28133      2.100     4.60    -1.520022     19.84367     103.0903        25     1.539     1.152 -29.50   0
       186    186.6479    102.4017 300.2431082 +22.4371221     704.6008     70.31718      2.474     7.15    -1.649939     19.84367     38.71492        11     1.544     0.927  -3.87   0
       187    751.5249    100.1730 300.4195584 +22.6058068     521.1656     70.31718      2.221     4.40    -1.499258     19.84367      38.0078         6     0.945     0.584  19.35   0
       188    604.0820     85.1757 300.3785151 +22.5573185     538.7205     70.29926      1.938     4.44    -1.605037     19.84367     46.02602         8     1.088     0.647 -47.59   0
       189    575.9326     77.2628 300.3723208 +22.5466089     1017.432     70.38882      2.047     5.08    -1.547064     19.84367     69.32087        23     1.360     1.282 -49.54   0
       190    298.8181     76.3449 300.2864228 +22.4632775     389.5409     70.31718      1.806     4.85    -1.505747     19.84367     40.68279         6     1.028     0.649  -8.30   2
       191     13.5873     73.5138 300.1987293 +22.3769171     349.8642     70.28133      1.521     5.83    -1.307355     19.84367     34.48479         8     1.445     0.663 -83.33   0
       192    532.9897     71.4936 300.3608285 +22.5320815     742.6507     70.28133      2.032     7.25    -1.484241     19.84367     52.32497        15     1.439     1.075 -63.63   0
       193    638.6901     68.3168 300.3947583 +22.5628434     751.6585      70.4425      2.083     5.64     -1.40312     19.84367     52.61097        16     1.467     1.054 -31.01   0
       194    459.1154     61.6580 300.3410351 +22.5071139     1290.399      70.4425      2.196     5.01     -1.59419     19.84367     87.08119        24     1.492     1.226  85.92   0
       195    106.0524     60.1292 300.2317852 +22.4008121     838.3719     70.31718      1.873     4.99    -1.753085     19.84367      74.5939        15     1.265     1.016 -62.50   0
       196    167.2218     41.6968 300.2567662 +22.4138657     701.8916      70.2634      1.896     4.54    -1.776127     19.84367     59.62595        15     1.214     0.914 -21.97   0
       197    768.4312   1020.0886 300.1257476 +22.8750581     584.0863     69.45171      1.405     2.63    -4.792731     19.84367     79.78036        11     0.927     0.760 -29.10  16
       198    742.5240     21.1898 300.4423794 +22.5804030     522.2575     70.31718      1.898     4.13    -1.489271     19.84367     62.09791        11     1.255     0.661  -6.68   0
       199    790.5359   1013.6432 300.1347317 +22.8798436     6863.336      70.3351      1.404     2.52    -4.773124     19.84367     741.4573        38     1.193     1.105 -18.51   0
