#   1 NUMBER                 Running object number                                     
#   2 X_IMAGE                Object position along x                                    [pixel]
#   3 Y_IMAGE                Object position along y                                    [pixel]
#   4 ALPHA_J2000            Right ascension of barycenter (J2000)                      [deg]
#   5 DELTA_J2000            Declination of barycenter (J2000)                          [deg]
#   6 FLUX_APER              Flux vector within fixed circular aperture(s)              [count]
#   7 FLUXERR_APER           RMS error vector for aperture flux(es)                     [count]
#   8 FLUX_RADIUS            Fraction-of-light radii                                    [pixel]
#   9 FWHM_IMAGE             FWHM assuming a gaussian core                              [pixel]
#  10 BACKGROUND             Background at centroid position                            [count]
#  11 THRESHOLD              Detection threshold above background                       [count]
#  12 FLUX_MAX               Peak flux above background                                 [count]
#  13 ISOAREA_IMAGE          Isophotal area above Analysis threshold                    [pixel**2]
#  14 A_IMAGE                Profile RMS along major axis                               [pixel]
#  15 B_IMAGE                Profile RMS along minor axis                               [pixel]
#  16 THETA_IMAGE            Position angle (CCW/x)                                     [deg]
#  17 FLAGS                  Extraction flags                                          
         1    568.6032     19.4269 300.3722243 +22.5465553     1118.316     70.53004      1.515     3.61   -0.5886217     19.90881     107.4406        18     1.216     0.957 -64.10   0
         2    525.9662     13.3714 300.3609166 +22.5320436     823.0115     70.58398      1.529     3.00   -0.6791391     19.90881     86.91619        14     1.061     0.811  68.21   0
         3    631.3031     10.0071 300.3948004 +22.5626270     675.7134     70.45808      1.348     3.12   -0.1882009     19.90881     85.53628        14     0.992     0.925   9.95   0
         4    226.5259      9.2918 300.2691019 +22.4411480     297.4258     70.70965      1.656     4.26   -0.7673172     19.90881     32.37378         6     1.092     0.473 -35.33   0
         5    275.6676      6.8890 300.2851578 +22.4551862     159.1397     70.70965      1.185     3.39   -0.7511542     19.90881     35.88004         5     0.798     0.416  71.07   0
         6    451.6974      3.9108 300.3408729 +22.5070765     1401.192     66.98835      1.612     3.19   -0.7070462     19.90881     127.7402        21     1.190     1.025  60.95  24
         7     99.0840      2.1333 300.2318206 +22.4008906     677.7866     59.27346      1.254     3.27    0.6740942     19.90881     84.52436        11     0.948     0.752  75.72  24
         8    233.8155   1020.5369 299.9427330 +22.7334107     1548.474     68.57886      6.902    12.58     3.686381     19.90881     51.13612        35     2.691     1.637  89.56  27
         9    238.9668   1011.6152 299.9472394 +22.7324017     1197.234     70.54803      9.059    14.23     2.631706     19.90881     59.04588        31     3.595     1.567  57.61  19
        10    244.0946   1022.7839 299.9451959 +22.7371419     1427.882     59.61485      3.800    10.84     2.781256     19.90881     62.33617        30     2.112     1.551 -87.17  27
        11    239.8632   1022.6533 299.9439233 +22.7358336     1228.138     60.31286      3.930     7.55     3.195768     19.90881     57.84975        27     1.661     1.470  70.85  27
        12    132.2341   1020.3221 299.9112405 +22.7028355     1116.287     69.13148     16.333    16.02     13.75973     19.90881     32.11537        19     4.670     1.528  10.41  19
        13     68.6465    992.3690 299.9005928 +22.6757250     1754.986     70.60194     15.110    29.13      4.17546     19.90881     52.09309       144     8.321     2.831 -69.39  19
        14     82.5350    972.9607 299.9112254 +22.6743381     2026.302     70.53004     12.125    29.40     3.933235     19.90881     56.53471       187     7.436     3.226 -28.62   3
        15     87.5742    983.0805 299.9094955 +22.6787508     2227.052     70.54803     16.359    20.81     6.100442     19.90881     54.21155       111     4.463     2.696 -37.25   3
        16     86.2932   1012.0782 299.8996554 +22.6866722     3347.564     70.69171     18.999    61.51     10.11085     19.90881     71.17822       912    11.632     9.025  62.30  27
        17    810.3051   1008.7563 300.1259599 +22.9030841     228.0818     70.58398      0.911     1.96    -3.456298     19.90881     53.45164         5     0.713     0.419 -70.77   0
        18    566.7330   1006.1445 300.0509608 +22.8292451     804.8608      70.6199      1.067     2.14    -3.538959     19.90881     166.3705        11     0.800     0.722  78.19   0
        19    107.2026   1000.0661 299.9100613 +22.6895132     1386.788       70.566     11.849    13.17     10.44823     19.90881     38.86994        25     2.908     1.659 -10.42   3
        20    116.7388    999.6903 299.9131457 +22.6922703     1526.862     70.65582      8.535     9.33      10.4304     19.90881     51.14343        25     1.910     1.271 -61.26   3
        21    460.3738   1002.7092 300.0189842 +22.7963333      625.202     70.51206      1.182     2.49    -3.667964     19.90881     92.97019         7     0.736     0.686  47.12   0
        22    391.2890   1000.6808 299.9981562 +22.7750105     3856.722     70.69171      1.105     1.90    -3.738776     19.90881     684.1308        21     0.946     0.826 -73.96   0
        23    228.9302   1018.0706 299.9420180 +22.7312367     1397.876     70.65582      7.688    12.55     3.983397     19.90881     42.16352        31     2.885     1.519  86.68  19
        24    937.4549    979.1375 300.1752335 +22.9327244     1174.655     70.63786      1.029     1.88     -3.43636     19.90881     243.3102        13     0.894     0.718 -31.29   0
        25    726.0811    968.0261 300.1129869 +22.8661313     572.9242     70.54803      1.385     5.24    -3.504194     19.90881     78.89833         9     1.514     0.512  62.66   0
        26    761.0032    962.1815 300.1257677 +22.8749318     669.3214     70.47607      1.138     1.97    -3.488491     19.90881     126.5861         9     0.795     0.668  -6.73   0
        27    783.2882    955.9312 300.1347452 +22.8798240     6616.759     70.72758      1.117     1.78    -3.476673     19.90881     1343.859        28     0.976     0.873  76.06   0
        28    828.8033    955.9388 300.1489239 +22.8934794     340.0779     70.54803      1.163     1.62    -3.522887     19.90881     83.37939         5     0.681     0.442 -36.30   0
        29     94.6558    948.0250 299.9231083 +22.6708360     347.7874       70.566      1.203     3.00     1.152324     19.90881     54.52328         9     0.948     0.614  38.92   0
        30    488.1234    944.2578 300.0466503 +22.7879053     210.4962     70.60194      1.161     3.11    -3.563788     19.90881     46.50315         7     0.760     0.652 -13.31   0
        31    835.0042    943.4809 300.1549125 +22.8917647      318.541     70.49407      0.941     2.20    -3.560358     19.90881     54.14161         6     0.734     0.494  -7.58   0
        32    791.7277    938.0338 300.1432020 +22.8772206     631.7847       70.566      0.971     1.65    -3.472678     19.90881     184.8619         9     0.738     0.631 -14.09   0
        33    974.7150    936.8048 300.2006350 +22.9317480     156.8318     70.49407      0.805     1.60    -3.393057     19.90881      68.8163         5     0.661     0.432  74.70   0
        34    830.1376    931.6381 300.1572520 +22.8869067      468.104       70.566      1.325     4.59    -3.564252     19.90881     79.43101        10     1.222     0.610  52.13   0
        35    938.3876    928.2046 300.1921091 +22.9183862     267.7334     70.44007      1.389     4.03    -3.432176     19.90881     40.73198         5     0.916     0.507 -35.90   0
        36    878.2921    922.7361 300.1751570 +22.8987948     263.8408     70.67377      0.893     1.91    -3.612199     19.90881     69.23624         5     0.695     0.431 -74.51   0
        37    729.8829    921.7206 300.1292479 +22.8539879     459.4095     70.69171      1.126     2.38    -3.482849     19.90881      72.9558         7     0.688     0.657  75.81   0
        38    740.9681    918.7587 300.1336650 +22.8564636     402.3692      70.6199      1.029     1.88    -3.454907     19.90881     78.98555         7     0.706     0.589  15.59   0
        39    442.3406    918.3229 300.0408504 +22.7667268     2548.109      70.6199      1.150     2.14    -3.439766     19.90881     352.3332        20     0.932     0.904  55.00   0
        40    167.4418    903.9763 299.9600582 +22.6800772      471.699      70.6199      1.207     2.32     -1.95504     19.90881     74.44647         7     0.723     0.607  62.35   0
        41    144.6982    901.0508 299.9539444 +22.6724083     895.4355     70.63786      1.132     2.14    -2.130718     19.90881     157.8094        12     0.860     0.717  17.54   0
        42     19.4068    890.7869 299.9183718 +22.6318341     157.8879     70.45808      1.028     2.51    -3.125698     19.90881     43.33705         5     0.701     0.464 -72.07   0
        43   1016.3908    889.7096 300.2289636 +22.9307241     1120.421     70.49407      1.057     1.96      -3.1178     19.90881     247.0434        13     0.818     0.762  56.44   0
        44    970.4780    888.2623 300.2151177 +22.9165433     1272.552     70.63786      0.984     1.71     -3.22658     19.90881     237.2585        13     0.806     0.723  55.77   0
        45    176.7382    882.6492 299.9698883 +22.6767574     241.6193      70.6199      1.092     2.37    -2.685097     19.90881     48.79185         6     0.677     0.616 -62.02   0
        46    754.2346    882.0482 300.1497480 +22.8499102     380.8645     70.60194      1.187     1.99    -3.186269     19.90881     76.81608         7     0.687     0.636 -80.20   0
        47    622.2890    876.3290 300.1105200 +22.8086862     2595.849     70.72758      1.091     1.94    -3.493042     19.90881     457.3734        17     0.866     0.826  25.99   0
        48    112.1600    877.4681 299.9515122 +22.6558785     219.6287     70.53004      1.081     1.74    -2.930535     19.90881     57.29834         5     0.667     0.475 -19.11   0
        49    424.3911    873.4456 300.0498750 +22.7484716     305.7336     70.58398      1.202     3.52    -3.240441     19.90881     48.88734         8     0.873     0.854  53.05   0
        50    172.5067    870.3160 299.9725876 +22.6719523     882.4611     70.74551      1.155     2.23    -3.059247     19.90881     133.0093        10     0.837     0.695 -74.46   0
        51    642.8995    868.6870 300.1194242 +22.8126777     392.7471     70.72758      1.047     2.15    -3.383566     19.90881      73.9106         7     0.674     0.655  51.89   0
        52    441.1417    868.4301 300.0567179 +22.7520610     180.8813     70.58398      1.323     3.47    -3.222129     19.90881     30.33545         5     0.781     0.444  19.89   0
        53    191.4097    867.4209 299.9794034 +22.6767990     346.7626     70.54803      1.315     3.57    -3.164235     19.90881     47.01862         5     0.960     0.478 -40.01   0
        54   1015.2590    856.0928 300.2395534 +22.9207332      679.851      70.6199      1.128     1.98    -2.968642     19.90881     142.6529        12     0.968     0.700  43.78   0
        55    798.3330    855.9062 300.1719953 +22.8556352     2419.779     70.70965      1.119     1.94    -3.061147     19.90881     453.4604        18     0.904     0.785 -28.51   0
        56    207.0974    850.4747 299.9897933 +22.6766528     239.3461     70.70965      1.198     3.89    -3.218714     19.90881     52.14054         6     1.140     0.605 -40.94   0
        57    515.2781    848.3973 300.0863037 +22.7685651      366.313     70.47607      1.201     3.04    -3.312327     19.90881     55.17906         6     0.710     0.624  86.45   0
        58    161.7785    846.6342 299.9769613 +22.6619438     669.7762     70.58398      1.224     2.01    -3.212675     19.90881     113.2906        10     0.842     0.671  88.76   0
        59    576.9453    842.0368 300.1075659 +22.7852446     381.7965     70.58398      1.234     2.71    -3.386984     19.90881     54.48835         6     0.771     0.618  -0.10   0
        60    311.4325    838.8114 300.0260192 +22.7046342     30817.18     70.54803      1.201     2.06    -3.194875     19.90881     4541.913        61     1.147     1.074  77.25   0
        61    569.3201    837.6356 300.1066249 +22.7816942     943.0261     70.51206      1.152     2.18    -3.359667     19.90881     136.6007        11     0.818     0.727  25.65   0
        62    981.8460    836.5712 300.2354878 +22.9051116     394.4644     70.60194      1.055     2.60    -3.034877     19.90881     95.45517        10     0.849     0.767 -67.36   0
        63    837.0990    837.0538 300.1902104 +22.8618503     2511.533     70.65582      0.475     2.26    -3.122242     19.90881      1836.62         9     0.436     0.358 -54.71   0
        64    239.7995    836.8377 300.0043942 +22.6825629     249.3711       70.566      1.013     2.27    -3.221908     19.90881     66.21666         6     0.822     0.456  55.32   0
        65    597.9294    833.6385 300.1168310 +22.7891313     577.4641     70.53004      1.202     3.10    -3.328195     19.90881     71.17637         9     0.808     0.773 -67.08   0
        66    609.1069    831.9274 300.1208674 +22.7919939     341.4431     70.69171      1.316     2.75    -3.312552     19.90881     51.62259         6     0.728     0.572 -45.34   0
        67    714.3850    827.6148 300.1550524 +22.8223380     209.5973     70.51206      1.126     2.87    -3.053937     19.90881     48.70513         5     0.784     0.692  44.83   0
        68    752.0558    818.5894 300.1697232 +22.8310467     448.9332       70.566      1.021     2.04    -3.005589     19.90881      85.2404         7     0.695     0.620  -9.72   0
        69    361.1261    816.0736 300.0488699 +22.7130318     18349.75      70.6199      1.239     2.06    -3.161998     19.90881     2980.238        54     1.145     1.092  36.45   0
        70    375.4102    816.6291 300.0531312 +22.7174784     1167.768       70.566      1.080     2.10    -3.166051     19.90881     160.0289        13     0.887     0.765  73.82   0
        71    913.5973    810.0450 300.2228426 +22.8770350     131.8881       70.566      1.002     2.77    -3.057498     19.90881     37.14824         5     0.850     0.487 -85.34   0
        72    884.1395    811.5789 300.2131612 +22.8686433     1682.844     70.51206      1.116     1.81    -3.068175     19.90881     303.6108        15     0.922     0.761 -85.18   0
        73    478.4948    808.2689 300.0879171 +22.7460178     265.6962     70.70965      1.057     2.78    -3.106732     19.90881     63.61278         6     0.874     0.626 -67.11   0
        74    641.9805    807.7534 300.1389687 +22.7949204     623.1437     70.60194      1.269     2.31    -3.111604     19.90881     90.86138        10     0.854     0.693 -85.07   0
        75    243.5334    807.7796 300.0150102 +22.6753543     544.5552     70.54803      1.231     2.84    -3.223173     19.90881     77.20415         8     0.832     0.745  74.86   0
        76    489.2824    802.5510 300.0931341 +22.7476149     488.7173       70.566      1.283     2.53    -3.097422     19.90881     68.43536         9     0.841     0.686  19.98   0
        77     48.4196    803.3705 299.9558275 +22.6155030     322.9838       70.566      1.458     3.26     -3.03861     19.90881     44.15503         5     0.906     0.535  49.18   0
        78    890.1858    799.1863 300.2190785 +22.8668986     254.6375     70.49407      0.986     2.55    -3.021247     19.90881     48.81995         6     0.685     0.593  45.94   0
        79    391.3138    798.8879 300.0638500 +22.7171643      252.495     70.69171      1.297     6.16    -3.168642     19.90881     31.90875         8     1.172     0.909 -21.15   0
        80     76.8893    796.9609 299.9667545 +22.6222162     312.7444     70.54803      1.273     3.67    -3.082584     19.90881     43.78883         5     0.645     0.600 -85.50   0
        81    564.2515    782.1631 300.1230981 +22.7642603     158.2073     70.58398      1.160     3.14    -3.073605     19.90881     36.80219         6     0.754     0.555  43.68   0
        82    534.3846    780.9237 300.1142059 +22.7549440      410.832       70.566      1.333     2.80    -3.080472     19.90881     50.28207         6     0.775     0.486  88.93   0
        83    555.9255    778.0908 300.1218317 +22.7605940     852.6101     70.72758      1.278     2.58    -3.072333     19.90881     124.2728        11     0.848     0.804  12.88   0
        84    950.4649    776.9186 300.2451155 +22.8785768     2508.708     70.67377      1.099     1.87    -2.999313     19.90881     462.9258        18     0.880     0.853 -61.59   0
        85    636.9245    772.8326 300.1487570 +22.7833841     295.1688       70.566      1.316     3.96    -3.028082     19.90881     39.89802         6     0.802     0.560  28.63   0
        86    938.7743    768.4840 300.2442151 +22.8726505     1025.914     70.54803      1.048     1.83    -3.010843     19.90881     215.2341        14     0.898     0.764  80.38   0
        87    301.8430    762.4774 300.0478749 +22.6798699     504.8804     70.53004      1.281     2.75    -3.181129     19.90881      73.7084         9     0.863     0.708 -15.32   0
        88    765.2457    759.6690 300.1930040 +22.8180920     1367.922     70.54803      1.257     2.19    -2.990075     19.90881     214.3148        19     1.279     0.824   0.43   0
        89    970.0217    758.3322 300.2572606 +22.8791022     964.5051     70.54803      1.098     1.87    -2.978393     19.90881      187.898        12     0.836     0.751  33.88   0
        90    150.7173    746.4059 300.0061346 +22.6298952     292.2673     70.49407      1.128     2.84    -3.170236     19.90881     59.10152         7     0.877     0.537 -65.54   0
        91    883.6643    736.5784 300.2374163 +22.8469689     85406.75     70.54803      1.140     2.00    -3.021381     19.90881      13221.5       104     1.197     1.129  72.44   0
        92    735.9747    736.9760 300.1912686 +22.8028009      502.284     70.53004      1.206     2.32    -2.961233     19.90881     73.09313         7     0.782     0.551  53.72   0
        93    570.0037    725.5712 300.1432994 +22.7497493     882.1153     70.53004      1.281     2.71    -2.852405     19.90881     115.7989        15     0.996     0.853  19.34   0
        94    751.1482    722.8206 300.2005999 +22.8032880     5563.038       70.566      1.230     2.09    -2.968246     19.90881     887.2327        27     1.025     0.942 -84.75   0
        95    252.7462    718.1888 300.0470192 +22.6524342     2805.938       70.566      1.239     2.16    -3.088338     19.90881     461.4793        22     1.018     0.934  73.90   0
        96    334.9331    716.4413 300.0731382 +22.6765999     686.4069     70.54803      1.291     2.92    -3.027359     19.90881     107.0394        12     1.068     0.693 -88.22   0
        97    210.2616    713.9027 300.0352090 +22.6384528     420.5883     70.65582      1.681     2.94    -3.087047     19.90881     41.56664         5     0.772     0.484  41.99   0
        98    543.2277    711.5781 300.1395172 +22.7377022     534.4883       70.566      1.274     2.32    -2.656446     19.90881     71.65942         8     0.791     0.646 -49.49   0
        99    534.6777    703.6765 300.1394263 +22.7328703     1796.972     70.67377      1.291     2.29    -2.572631     19.90881     274.7889        18     0.970     0.952 -87.65   0
       100    525.0854    697.6771 300.1383924 +22.7282715     711.6732     70.67377      1.280     2.62    -2.541965     19.90881      99.0491        13     0.954     0.804 -80.38   0
       101    188.1146    693.9287 300.0348229 +22.6260780     473.9046     70.67377      1.263     2.26    -2.987225     19.90881     72.55469         9     0.762     0.714 -48.28   0
       102    202.5103    692.2387 300.0398460 +22.6299147     455.4982     70.54803      1.514     2.50    -2.972055     19.90881     70.31065         8     0.879     0.614  72.87   0
       103    227.9926    689.1545 300.0487684 +22.6366791     332.5872     70.58398      1.563     4.62    -2.943954     19.90881     39.74958         8     0.948     0.797 -50.69   0
       104    971.4719    688.2180 300.2805215 +22.8594016     335.3914       70.566      1.323     3.42    -2.922093     19.90881     44.69785         5     0.756     0.447  68.62   0
       105    449.6135    687.2605 300.1182971 +22.7026414     1129.079     70.53004      1.422     2.64    -2.784668     19.90881     143.6204        19     1.128     0.940  35.23   0
       106    103.7499    682.3790 300.0123681 +22.5974405     11607.32       70.566      1.252     2.22     -2.93768     19.90881     1623.361        40     1.119     1.044  86.40   0
       107     24.3845    683.9579 299.9872059 +22.5740640     338.4767     70.58398      1.061     2.41    -2.722651     19.90881     58.51733         7     0.710     0.655 -80.45   0
       108    534.5816    682.4025 300.1463156 +22.7267374     523.9368     70.47607      1.190     2.83    -2.268356     19.90881     68.08278         9     0.925     0.642  -5.92   0
       109    952.5529    668.5433 300.2810217 +22.8480809      592.628     70.60194      1.053     2.28    -2.885213     19.90881     96.03927         9     0.784     0.720 -17.51   0
       110     49.9165    666.3820 300.0008499 +22.5766925     817.3341     70.53004      1.614     4.81     -2.70348     19.90881     88.22568        15     1.484     0.700 -76.18   0
       111    819.2693    666.6176 300.2401041 +22.8075773     276.7942     70.58398      1.324     2.63    -2.920078     19.90881     47.55001         6     0.808     0.514  46.31   0
       112    892.7197    661.1459 300.2647748 +22.8280235     505.6944     70.60194      1.368     3.09    -2.863561     19.90881     52.08147         9     0.824     0.763  24.88   0
       113    454.4171    655.4667 300.1301311 +22.6949613     387.0483     70.54803      1.491     3.71    -2.506978     19.90881     50.72876         8     0.980     0.690 -58.71   0
       114    602.7502    654.1259 300.1767298 +22.7390693     381.8445       70.566      1.688     4.43    -2.097677     19.90881     35.70064         8     1.042     0.552 -37.31   0
       115    649.5992    651.9844 300.1920123 +22.7525043     251.8523     70.42207      1.255     4.28     -2.42079     19.90881     31.14508         5     1.020     0.558  14.92   0
       116    620.4389    652.1419 300.1828819 +22.7438048     374.5386       70.566      1.657     3.39    -2.182293     19.90881      42.3744         5     0.755     0.440  68.08   0
       117    498.9651    651.2720 300.1453558 +22.7071213     538.9839       70.566      1.466     3.09    -2.262887     19.90881      66.0037         9     0.884     0.783 -55.96   0
       118    932.6420    646.6542 300.2819327 +22.8358270     1934.918       70.566      1.208     2.18    -2.780589     19.90881     252.2356        19     1.004     0.929   3.93   0
       119    464.5257    646.6238 300.1361516 +22.6954567      904.636     70.60194      1.323     2.45    -2.393585     19.90881     134.2028        15     0.977     0.889 -86.56   0
       120     26.5408    640.5893 300.0019774 +22.5622809     2927.498     70.51206      1.214     2.18    -2.421222     19.90881     397.2586        22     1.052     0.904  71.17   0
       121    327.8981    633.5866 300.0978955 +22.6507253     5281.867     70.45808      1.355     2.49    -2.502988     19.90881     678.8771        31     1.133     1.042  85.51   0
       122    450.3033    630.6082 300.1369345 +22.6865951     5093.329     70.45808      1.334     2.46    -2.272821     19.90881     616.2281        27     1.091     1.036 -84.41   0
       123    861.8287    624.2520 300.2671441 +22.8081695     1030.506     70.58398      1.259     2.51    -2.679611     19.90881     151.6849        14     0.960     0.827  66.66   0
       124    946.4883    621.6432 300.2943828 +22.8327929     7170.903       70.566      1.155     2.11    -2.654216     19.90881     1019.371        31     1.009     0.976 -84.52   0
       125    510.8873    620.1099 300.1591985 +22.7017556     6691.539     70.72758      1.379     2.59    -1.940068     19.90881      833.041        36     1.145     1.080  64.16   0
       126    238.3719    615.6928 300.0758817 +22.6187281     683.0491     70.51206      1.223     2.35    -2.375075     19.90881     87.81711        10     0.821     0.743  27.67   0
       127    442.5893    608.3261 300.1417794 +22.6778879     2531.697     70.58398      1.376     2.55     -2.05924     19.90881     303.2754        23     1.122     0.968  63.08   0
       128    785.2086    608.3143 300.2484505 +22.7806261     452.0142     70.51206      1.203     4.08    -2.487254     19.90881     57.59107         6     0.741     0.641 -83.94   0
       129    420.9371    606.6645 300.1355840 +22.6709159     666.4638     70.60194      1.377     2.74     -2.11212     19.90881     88.58244        13     0.953     0.835  81.59   0
       130    175.2057    606.0383 300.0593901 +22.5970023     347.6018     70.60194      1.252     2.52    -2.519335     19.90881     59.30674         6     0.724     0.537  61.45   0
       131    862.2867    603.4904 300.2740376 +22.8023444      928.295     70.72758      1.312     2.57    -2.508878     19.90881     107.5403        14     0.963     0.871 -82.02   0
       132    742.8233    600.7588 300.2377026 +22.7657506      383.972     70.60194      1.296     3.06    -2.204223     19.90881      55.9311        10     0.884     0.838  50.07   0
       133    559.1497    595.8032 300.1821215 +22.7092549     119028.5       70.566      1.387     2.60    -1.668122     19.90881      13218.2       146     1.370     1.359 -31.90   0
       134    245.2554    595.9556 300.0844379 +22.6151332     1944.172     70.58398      1.346     2.47    -2.271525     19.90881     247.1372        24     1.150     1.029  55.24   0
       135    811.2450    591.8205 300.2619256 +22.7836944     313.8475      70.6199      1.354     4.10    -2.327947     19.90881     33.73698         6     0.768     0.624  15.87   0
       136    829.6132    589.1912 300.2685041 +22.7884449     255.0099     70.45808      1.375     3.44    -2.288212     19.90881      24.2133         5     0.763     0.448 -72.00   0
       137    449.8314    576.3669 300.1544223 +22.6708900     1579.515     70.58398      1.536     2.62    -1.831015     19.90881     181.7053        23     1.275     0.923 -83.21   0
       138    767.3313    564.4377 300.2571456 +22.7626682     207.5585     70.53004      1.235     3.91     -1.81575     19.90881     32.21819         5     0.988     0.443  14.62   0
       139    846.6629    562.2683 300.2825701 +22.7858229     1048.074      70.6199      1.340     2.53    -1.885271     19.90881     131.8354        15     0.967     0.880  74.88   0
       140    717.8676    559.9655 300.2431911 +22.7465566      1365.37       70.566      1.352     2.66     -1.69652     19.90881     169.3418        16     0.969     0.896  62.44   0
       141    505.1239    555.7046 300.1783429 +22.6815441     375.6999     70.70965      1.283     4.28     -1.51248     19.90881     63.36604        10     1.014     0.760  44.15   0
       142    975.1558    553.8469 300.3253635 +22.8219077     755.2074     70.60194      1.207     2.61    -2.421601     19.90881     131.9455        11     0.941     0.773  87.49   0
       143    961.0065    552.7046 300.3213229 +22.8173402     645.5483     70.45808      1.598     3.14    -2.393003     19.90881     63.86656         7     0.874     0.659  10.01   0
       144    847.1216    552.5815 300.2858620 +22.7831782     1209.268       70.566      1.334     2.33    -1.749499     19.90881     157.8933        15     0.926     0.851  23.35   0
       145    385.8464    550.4669 300.1429379 +22.6442652     254.8402       70.566      1.161     3.49    -1.958463     19.90881     41.76513         5     1.000     0.352  85.29   0
       146    600.1558    550.2222 300.2097036 +22.7084681     329.7413      70.6199      1.515     4.06    -1.469805     19.90881     34.47297         6     0.830     0.568  41.65   0
       147    885.0589    547.3510 300.2993863 +22.7930449     2407.025      70.6199      1.306     2.54     -1.86109     19.90881     300.1272        22     1.010     0.991  70.57   0
       148    976.9134    537.7347 300.3311491 +22.8178053     346.0379     70.65582      1.037     1.93    -2.301409     19.90881     70.61557         7     0.675     0.625 -31.41   0
       149    117.3283    538.1633 300.0634708 +22.5601678     523.2661     70.54803      1.270     3.39    -2.189189     19.90881     64.34782         9     0.916     0.754   5.33   0
       150    109.8570    528.1784 300.0643950 +22.5550621     285.3778     70.58398      1.288     4.17    -2.171617     19.90881     40.01357         6     0.989     0.646 -85.78   0
       151    716.9968    521.8745 300.2553012 +22.7353581     277.8621     70.47607      1.070     2.36    -1.515981     19.90881     38.69557         5     0.630     0.557 -89.73   0
       152    658.5325    517.8520 300.2384007 +22.7166772     520.1732     70.58398      1.530     3.19    -1.537292     19.90881     54.26818        11     0.964     0.776 -26.25   0
       153    973.1926    510.0900 300.3389744 +22.8087479     366.2816     70.47607      1.241     3.25    -1.898903     19.90881     56.93488         7     0.736     0.669 -81.57   0
       154    719.1164    510.0335 300.2598098 +22.7325932     493.5768     70.53004      1.378     3.22    -1.494662     19.90881     53.21025        10     0.908     0.740  88.38   0
       155    876.4738    506.0985 300.3101189 +22.7786225     601.3599     70.70965      1.338     3.25    -1.607726     19.90881     70.16203        12     0.911     0.893  81.18   0
       156    860.3015    502.3015 300.3063123 +22.7726857     412.2751     70.79928      1.393     4.41    -1.556785     19.90881     44.39244         8     0.908     0.672 -87.20   0
       157    605.0544    500.7488 300.2273084 +22.6957341     1814.326     70.60194      1.451     2.98    -1.383191     19.90881     182.4416        20     1.136     0.963  79.39   0
       158   1016.2784    479.4403 300.3623718 +22.8128480     560.7136     70.54803      1.081     2.08    -1.460886     19.90881     102.5836        10     0.823     0.664 -84.55   0
       159    974.9588    478.5154 300.3497867 +22.8002046     487.1778     70.53004      1.212     2.85    -1.487441     19.90881     80.28775         7     0.821     0.574  22.95   0
       160    715.7141    474.4626 300.2703099 +22.7213584     668.3729     70.67377      1.585     3.82    -1.469007     19.90881     57.71668        13     1.051     0.920 -40.37   0
       161    219.5844    473.0117 300.1164167 +22.5721653     383.0394     70.49407      1.427     3.91    -1.847618     19.90881     44.42248        11     0.940     0.895 -25.65   0
       162    282.1171    468.8298 300.1372133 +22.5897255     2127.428     70.58398      1.438     2.91    -1.727445     19.90881     236.6078        24     1.218     0.977  86.06   0
       163   1015.1055    466.8195 300.3661074 +22.8088698     2343.281     70.49407      1.236     2.23    -1.468747     19.90881     388.0326        18     0.958     0.874  22.99   0
       164    229.3714    463.5242 300.1225412 +22.5723798     4386.914       70.566      1.424     2.54    -1.799972     19.90881     530.0125        32     1.195     1.091  84.26   0
       165    994.9020    458.0668 300.3626508 +22.8003027      985.098     70.65582      1.282     2.28    -1.475635     19.90881     155.7798        13     0.916     0.794  80.42   0
       166    370.0107    457.7203 300.1681531 +22.6129016     2800.559     70.54803      1.502     3.00    -1.266812     19.90881     287.3501        27     1.149     1.129 -89.08   0
       167    614.1755    454.3392 300.2452289 +22.6851436     10574.24       70.566      1.479     2.84    -1.266063     19.90881     975.9506        46     1.262     1.210  76.38   0
       168    631.1608    454.5349 300.2504537 +22.6902915     461.7012     70.53004      1.919     4.71    -1.319553     19.90881     31.66272         8     0.925     0.682 -53.23   0
       169    947.8661    436.6835 300.3549320 +22.7800683     446.2809     70.67377      1.245     2.59    -1.453284     19.90881     62.66649         9     0.849     0.675 -71.16   0
       170    168.9017    434.5423 300.1131647 +22.5459236     1220.699     70.65582      1.524     3.08    -1.799155     19.90881     132.5313        17     1.129     0.940  60.31   0
       171    968.2557    423.9765 300.3654182 +22.7825245     617.8672     70.58398      1.322     3.18    -1.454403     19.90881     96.87832        13     1.073     0.836  47.03   0
       172    554.9077    423.7890 300.2367047 +22.6586044     3820.984     70.51206      1.476     3.03    -1.091926     19.90881     388.9744        29     1.169     1.105  89.77   0
       173    269.9027    423.3681 300.1481862 +22.5730174     305.7516     70.53004      1.246     3.09    -1.518616     19.90881     52.08793         6     0.974     0.454 -60.65   0
       174    127.5011    416.2471 300.1062445 +22.5282539     318.1651     70.60194      1.106     3.46    -1.752657     19.90881     47.22804         5     0.784     0.440 -68.59   0
       175    668.4499    413.8991 300.2752675 +22.6897992      276.059     70.63786      1.338     4.28    -1.407905     19.90881     33.47147         6     0.893     0.673   8.63   0
       176    759.0673    412.7019 300.3038816 +22.7166123     710.4116     70.65582      1.522     3.32    -1.695166     19.90881     72.47089        11     0.997     0.725 -79.70   0
       177    461.4897    410.0952 300.2120820 +22.6266650     3394.071     70.74551      1.472     2.88    -1.038428     19.90881     380.2427        27     1.161     1.088  68.17   0
       178    950.9614    404.4873 300.3663574 +22.7717434     343.4162     70.54803      1.351     3.79    -1.426324     19.90881     47.54889         6     0.840     0.492  -7.63   0
       179    853.4205    404.1785 300.3360511 +22.7424347     873.0515       70.566      1.393     3.00    -1.476718     19.90881     81.37316        12     0.949     0.801 -48.83   0
       180    528.5905    396.6016 300.2373457 +22.6429088     291.6812     70.38603      1.542     5.12    -1.061817     19.90881     33.30805         8     1.086     0.685   9.08   0
       181    826.4500    391.6273 300.3317232 +22.7307481     312.5048     70.58398      1.256     5.11     -1.58656     19.90881     39.99321         9     1.135     0.652  60.12   0
       182    349.0196    389.3827 300.1838255 +22.5869938     1485.638     70.54803      1.478     2.80    -1.066222     19.90881     147.7718        19     1.148     0.975  84.36   0
       183     67.2530    386.9684 300.0970394 +22.5017781     558.3751     70.58398      1.425     3.57    -1.395195     19.90881     77.96424        10     1.023     0.729  -5.59   0
       184    318.4121    378.8404 300.1777320 +22.5747890     17229.16       70.566      1.485     2.66    -1.129985     19.90881      2072.55        54     1.310     1.214  76.70   0
       185    852.9659    375.8714 300.3451049 +22.7341652     805.0699       70.566      1.453     3.96    -1.516504     19.90881     92.13879        14     1.043     0.990  52.01   0
       186     14.8265    366.7892 300.0873115 +22.4802589     2885.922       70.566      1.363     2.48   -0.8066068     19.90881     391.3195        24     1.142     0.965  76.23   0
       187    768.5306    365.1577 300.3222741 +22.7057900     414.2463     70.53004      1.879     4.82    -1.675935     19.90881     48.53977         8     1.241     0.533  39.32   0
       188    728.6964    358.3408 300.3120789 +22.6918959     1075.085     70.63786      1.527     3.04    -1.654336     19.90881     119.0403        17     1.056     0.956 -59.16   0
       189    943.6525    351.0730 300.3814293 +22.7542034     417.4957       70.566      1.160     2.80    -1.400565     19.90881      52.8135         5     0.721     0.449 -73.73   0
       190    390.6901    343.3369 300.2117406 +22.5862725     1280.783     70.65582      1.668     4.31    -1.015632     19.90881     109.1554        20     1.407     0.972  70.53   0
       191    830.2783    335.2957 300.3512132 +22.7157095     328.7224     70.69171      1.482     4.94    -1.546548     19.90881      42.3176        10     1.178     0.834  81.41   0
       192    466.4120    322.6282 300.2420222 +22.6030293     628.5515       70.566      1.349     3.05    -1.042748     19.90881     68.65094        11     0.911     0.811  67.09   0
       193    711.0728    314.2424 300.3209110 +22.6739468     1276.937     70.54803      1.497     3.18    -1.448139     19.90881     129.6361        21     1.144     1.063  10.30   0
       194    972.3039    308.4797 300.4041961 +22.7505416     1772.618     70.67377      1.278     2.44    -1.073062     19.90881     229.6138        18     1.001     0.899  12.26   0
       195    419.8880    298.4478 300.2353997 +22.5821394     283.4785       70.566      1.274     3.08   -0.9723766     19.90881     50.05661         8     0.980     0.594 -60.75   0
       196     94.5024    292.5215 300.1361737 +22.4828594     778.0476     70.67377      1.598     4.31     -1.13712     19.90881     83.46516        17     1.292     1.029 -67.19   0
       197    125.4363    292.7434 300.1457117 +22.4922024     284.0645       70.566      1.221     4.05    -1.152449     19.90881     35.05299         7     0.982     0.476  80.72   0
       198    988.3110    288.9619 300.4155257 +22.7497243     139.5733     70.54803      1.084     2.38   -0.7651205     19.90881     46.38202         5     0.838     0.463 -89.83   0
       199    177.9938    284.1374 300.1648365 +22.5054972     285.9549     70.53004      1.334     5.04    -1.099503     19.90881     26.65469         6     1.173     0.613  55.15   0
       200    782.8478    275.5858 300.3558230 +22.6843434     412.7376       70.566      1.445     3.05    -1.368973     19.90881     43.49767         5     0.934     0.352 -85.15   0
       201    880.8780    264.5845 300.3899453 +22.7105444      1214.92     70.58398      1.404     2.87    -1.192424     19.90881     133.4134        15     0.978     0.908  20.24   0
       202    299.4724    262.1848 300.2097237 +22.5356261     1257.102       70.566      1.504     2.92   -0.9943908     19.90881     141.8313        19     1.124     0.979 -49.64   0
       203    377.4887    257.4193 300.2355319 +22.5576486      613.535     70.51206      1.674     4.23   -0.9829999     19.90881     63.47662        16     1.246     0.937 -85.60   0
       204    886.4654    252.9384 300.3954681 +22.7088703     239.3621     70.60194      1.098     2.75     -1.09144     19.90881     40.45625         6     0.785     0.495 -84.34   0
       205    194.0805    249.7499 300.1809993 +22.5004532     551.4686     70.58398      1.425     4.28    -1.056965     19.90881     58.06759         7     0.754     0.692 -46.83   0
       206    732.0223    246.0585 300.3495752 +22.6606332     989.1222       70.566      1.468     3.60    -1.243666     19.90881     94.20947        15     1.071     0.934  57.21   0
       207    796.6345    246.2001 300.3696593 +22.6800286     293.3689     70.51206      1.354     3.50     -1.19517     19.90881     42.52643         5     0.763     0.463 -77.54   0
       208   1003.4993    238.3585 300.4366923 +22.7397237     375.6436     70.54803      1.139     2.65   -0.6761726     19.90881     62.99521         9     0.877     0.682  64.54   0
       209    736.0692    237.0363 300.3537648 +22.6592530     452.7271     70.54803      1.792     5.61    -1.198756     19.90881     44.14455        10     1.396     0.634  89.48   0
       210    656.5629    236.7772 300.3290858 +22.6353594     776.2128     70.58398      1.613     4.85    -1.130645     19.90881      80.4669        14     1.413     0.812  86.63   0
       211    851.6806    228.3484 300.3926089 +22.6913848     668.2538       70.566      1.350     3.36   -0.9392467     19.90881     93.06914        14     1.050     0.859 -13.98   0
       212    582.5240    228.7819 300.3086287 +22.6108781     563.3165       70.566      1.692     5.85    -1.160308     19.90881     44.75423        11     1.156     0.833 -10.31   0
       213    864.2968    227.3099 300.3968782 +22.6948647     441.5215     70.74551      1.395     4.12   -0.8933663     19.90881     51.60596        10     0.943     0.763 -39.02   0
       214    980.5893    217.4987 300.4363193 +22.7268669     573.5079     70.45808      1.153     2.65   -0.7335491     19.90881     91.21606         8     0.943     0.489 -86.50   0
       215      4.5914    214.7411 300.1334977 +22.4335719     320.4072     68.92936      1.395     3.50     -1.17254     19.90881     46.66315         7     0.871     0.633 -22.77  16
       216    214.6333    210.9958 300.1999663 +22.4954933     433.0109       70.566      1.384     4.42   -0.9600894     19.90881      56.7448         9     1.011     0.841 -87.86   0
       217     97.2130    210.9562 300.1634932 +22.4602683     182.1416     70.58398      1.762     4.96    -1.108556     19.90881     25.74853         5     1.149     0.605 -10.29   0
       218     76.8929    205.8117 300.1588507 +22.4526974     1340.384     70.51206      1.418     2.66    -1.118326     19.90881     171.4542        18     1.144     0.880  72.70   0
       219    899.4457    202.1405 300.4160047 +22.6981553     392.3285     70.60194      1.403     3.38    -0.841071     19.90881     60.13765         9     0.987     0.607  41.79   0
       220    234.3067    199.1622 300.2099220 +22.4979955     3288.103     70.54803      1.449     2.72   -0.8865285     19.90881     344.0257        31     1.302     1.052  76.01   0
       221     26.2243    202.5002 300.1441883 +22.4365491     210.3323     70.51206      0.929     3.31    -1.160948     19.90881     48.73973         5     0.773     0.411  25.84   0
       222     18.4679    193.5665 300.1446789 +22.4316592     700.2855       70.566      1.466     3.27    -1.170928     19.90881     85.15543        14     1.023     0.891   7.80   0
       223    217.4530    188.9460 300.2079990 +22.4900095     315.6728     70.60194      1.318     5.14   -0.8343707     19.90881     48.61087         8     1.037     0.721 -59.86   0
       224    878.0999    180.3706 300.4164167 +22.6855051     1997.652     70.49407      1.429     2.64   -0.8383467     19.90881      222.188        23     1.144     1.005 -78.54   0
       225    981.7791    179.0061 300.4491846 +22.7161553     1589.044     70.53004      1.352     2.71   -0.7302132     19.90881     198.3473        19     1.130     0.892  73.99   0
       226    427.7389    176.1957 300.2775270 +22.5493876     371.2819     70.54803      1.635     4.58   -0.8599452     19.90881     33.52628         6     1.040     0.573 -55.62   0
       227    180.9337    175.9854 300.2008553 +22.4753388     126.2675     70.54803      1.378     4.91   -0.7602164     19.90881     33.25824         6     1.182     0.579 -86.36   0
       228    351.9285    167.9784 300.2566129 +22.5243050     355.1016     70.58398      1.428     3.20   -0.8151417     19.90881     40.41014         6     0.772     0.662  79.35   0
       229    117.9771    164.6714 300.1849647 +22.4532125     417.8305     70.60194      1.464     4.54   -0.9317659     19.90881     57.29942         8     0.913     0.643  87.14   0
       230    479.0430    163.1785 300.2977139 +22.5610243     991.1882     70.60194      1.522     3.05   -0.9251451     19.90881      96.9894        17     1.072     0.966  82.93   0
       231    407.7771    163.5374 300.2754251 +22.5397694     286.5767     70.54803      1.854     4.84   -0.8045025     19.90881     30.21317         5     1.071     0.619  64.84   0
       232    253.1244    142.9531 300.2340122 +22.4875007     3429.086       70.566      1.478     2.99     -0.68277     19.90881      345.388        31     1.222     1.102  67.06   0
       233    104.1654    142.4516 300.1878837 +22.4426933     419.9406     70.58398      1.243     4.74   -0.8650448     19.90881     50.10183         9     0.924     0.690 -77.80   0
       234    499.1083    128.2604 300.3152887 +22.5570066     3550.176     70.63786      1.555     3.03    -0.804514     19.90881     352.4545        31     1.302     1.130  75.86   0
       235    384.8366    128.1736 300.2797643 +22.5227376     203.5948     70.58398      1.207     2.48   -0.7701319     19.90881     45.68059         6     0.729     0.552 -53.30   0
       236    751.4024    117.7171 300.3972665 +22.6295540     446.5443     70.47607      1.507     3.22   -0.5276461     19.90881     47.89991         8     0.911     0.598 -71.36   0
       237    627.4049    108.2403 300.3617214 +22.5896914     3686.229     70.58398      1.566     2.97   -0.7427906     19.90881     342.9317        33     1.282     1.182  89.77   0
       238    402.5005    107.4212 300.2919920 +22.5220710     757.4189     70.49407      1.409     3.15    -0.753247     19.90881     83.41153        14     1.022     0.880 -87.94   0
       239    668.4887    105.7167 300.3753338 +22.6012722     459.1466     70.67377      1.305     2.78   -0.7005785     19.90881     60.89711         9     0.828     0.764 -74.53   0
       240    684.6962    101.3371 300.3818024 +22.6048679     435.1069     70.65582      2.065     5.47   -0.6205382     19.90881     35.61734         8     1.339     0.631 -83.64   0
       241    151.3826    100.0421 300.2163134 +22.4446783      434.247     70.58398      1.586     3.63   -0.6028445     19.90881     51.92057         8     1.005     0.652  53.88   0
       242    954.1975     99.0148 300.4665415 +22.6848963     383.9481     70.40405      1.271     3.48   -0.5006422     19.90881     41.69378         6     0.888     0.475 -56.55   0
       243    671.4962     93.2427 300.3803175 +22.5985880     1692.063     70.58398      1.572     3.56   -0.6325651     19.90881     160.9198        20     1.201     0.966 -79.35   0
       244    686.5359     92.0162 300.3853994 +22.6027400     513.3117     70.54803      1.814     7.04   -0.5453141     19.90881     46.87411        13     1.682     0.826  56.36   0
       245    758.0184     84.5330 300.4100942 +22.6219966     871.8016     70.54803      1.553     3.22   -0.2916789     19.90881     98.75786        17     1.064     1.006 -22.32   0
       246    696.1741     77.7408 300.3930326 +22.6015236      391.759       70.566      1.272     3.17   -0.3656322     19.90881     50.41771         9     0.897     0.680  64.30   0
       247    501.8952     77.3291 300.3326799 +22.5432097     660.0496     70.67377      1.656     4.77   -0.7055326     19.90881     57.54043        12     1.018     0.963 -87.57   0
       248     74.8426     76.7488 300.2000902 +22.4150420     451.2007     70.58398      1.763     6.18   -0.2833428     19.90881     42.63733        11     1.441     0.821  72.51   0
       249    405.5852     75.8175 300.3032043 +22.5139177      446.041     70.54803      1.270     3.45   -0.7522348     19.90881      59.2972         8     0.956     0.730  59.83   0
       250    176.9430     65.7172 300.2353909 +22.4424872     2233.788     70.65582      1.539     2.77   -0.3344998     19.90881     253.4067        27     1.227     1.208   8.08   0
       251    738.0280     57.5371 300.4126240 +22.6082500     411.6335       70.566      1.249     3.92  -0.01217602     19.90881     76.78054        11     1.102     0.903  60.23   0
       252    292.7924     57.7059 300.2740008 +22.4749131     771.3269     70.45808      1.477     2.64   -0.7489504     19.90881      103.194        12     0.914     0.865   1.75   0
       253    775.8987     52.9986 300.4258948 +22.6182852     518.2275     70.47607      2.035     4.64  -0.09580742     19.90881     39.76384         9     1.061     0.962  46.02   0
       254    796.0021     49.0131 300.4334517 +22.6231587     1361.529     70.40405      1.483     3.00   -0.1286353     19.90881     152.8568        19     1.116     0.981  54.43   0
       255    501.5500     47.3232 300.3423058 +22.5344851     298.1987       70.566      1.187     3.58   -0.6931606     19.90881     61.18364         5     1.068     0.445  51.67   0
       256    179.3950     44.6555 300.2429844 +22.4371752     705.2207     70.53004      1.688     4.24   -0.1627476     19.90881     63.92455        16     1.178     1.025 -57.84   0
       257    970.5955     42.2167 300.4900809 +22.6734694     395.5514     70.49407      1.279     2.77   -0.4916519     19.90881      65.1023         8     0.870     0.619 -34.50   0
       258    744.3988     41.6903 300.4197490 +22.6056022     437.9981     70.47607      1.231     3.03   0.09509262     19.90881     53.25064         9     0.949     0.633 -11.03   0
       259    596.7485     26.4493 300.3787088 +22.5570036      455.446     70.60194      1.536     4.87   -0.5010998     19.90881     41.95432        11     1.011     0.847 -41.12   0
       260    206.2350     24.2376 300.2579480 +22.4393580     322.7511     70.63786      1.475     3.90   -0.4312796     19.90881     29.74724         5     0.935     0.467  45.06   0
       261    759.9348     21.4801 300.4311443 +22.6044438     381.7269     70.67377      1.346     3.46    0.2103947     19.90881     48.61496         9     0.956     0.706  30.62   0
       262    167.5856   1019.3896 299.9225267 +22.7131882     650.1885     70.47607      4.189     4.11     12.42128     19.90881     29.95554         5     1.195     0.404 -52.94  16
       263    291.5872     17.2525 300.2867465 +22.4629337     401.1767     70.60194      1.509     3.69   -0.7531609     19.90881     51.05517         9     0.939     0.762 -77.44   0
       264      6.2741     15.5318 300.1986488 +22.3769100     335.0243     70.63786      1.409     4.27    0.5019897     19.90881     42.90129         8     1.111     0.496  69.51  16
       265    150.8604   1018.2437 299.9177037 +22.7078356     1437.411       70.566     11.697    14.10     13.30313     19.90881     46.83985        41     3.014     1.835  18.91  18
       266     67.5650   1020.7431 299.8910174 +22.6835271     2498.708     68.02175      9.581    18.19     6.985688     19.90881     61.97667        96     3.498     2.725  32.64  27
       267    658.2032   1015.3354 300.0764423 +22.8593331     3955.505       70.566      1.158     1.95    -3.529663     19.90881     683.9988        24     0.996     0.881  61.47   0
       268    168.5035   1010.0468 299.9258543 +22.7107873     880.9644     70.60194      5.693     7.19     10.93455     19.90881     27.10187         9     1.809     0.800  32.00   0
       269    139.7688   1016.8336 299.9147172 +22.7040997     1086.891     70.58398      3.410     3.42     13.20741     19.90881     38.28373         5     0.979     0.346 -45.19   0
