#   1 NUMBER                 Running object number                                     
#   2 X_IMAGE                Object position along x                                    [pixel]
#   3 Y_IMAGE                Object position along y                                    [pixel]
#   4 ALPHA_J2000            Right ascension of barycenter (J2000)                      [deg]
#   5 DELTA_J2000            Declination of barycenter (J2000)                          [deg]
#   6 FLUX_APER              Flux vector within fixed circular aperture(s)              [count]
#   7 FLUXERR_APER           RMS error vector for aperture flux(es)                     [count]
#   8 FLUX_RADIUS            Fraction-of-light radii                                    [pixel]
#   9 FWHM_IMAGE             FWHM assuming a gaussian core                              [pixel]
#  10 BACKGROUND             Background at centroid position                            [count]
#  11 THRESHOLD              Detection threshold above background                       [count]
#  12 FLUX_MAX               Peak flux above background                                 [count]
#  13 ISOAREA_IMAGE          Isophotal area above Analysis threshold                    [pixel**2]
#  14 A_IMAGE                Profile RMS along major axis                               [pixel]
#  15 B_IMAGE                Profile RMS along minor axis                               [pixel]
#  16 THETA_IMAGE            Position angle (CCW/x)                                     [deg]
#  17 FLAGS                  Extraction flags                                          
         1    581.7988     12.8602 300.3954638 +22.5287614      888.567     70.58432      2.209     5.89    -2.230751     19.92413     53.93266        20     1.321     1.261  12.40   0
         2    371.2193      4.3293 300.3327025 +22.4631770     4908.046     68.24183      2.074     4.25    -2.389962     19.92413      343.988        48     1.624     1.521 -52.39  24
         3    982.5887   1015.6150 300.1943386 +22.9369481     167.1108     70.53031      1.266     3.50    -4.694876     19.92413     40.44259         6     0.917     0.646 -65.86   0
         4    769.6439   1022.4921 300.1257298 +22.8749956     573.7067     61.09144      1.405     3.35     -5.03966     19.92413     58.63002        11     0.954     0.796  74.62  24
         5    100.5155   1022.8492 299.9174716 +22.6740461     494.8832     59.36189      6.150     7.17    -1.620195     19.92413     37.03244         8     1.472     0.978  12.50  24
         6    836.9537   1015.8845 300.1488541 +22.8933094     370.2269     70.60232      1.915     4.16     -4.87683     19.92413      38.0277         6     1.107     0.446  25.97   0
         7    103.5659   1008.1189 299.9232173 +22.6707440     375.8258     70.58432      1.381     2.98    -1.987373     19.92413     60.67998         9     0.908     0.735 -78.42   0
         8    496.8708   1005.2043 300.0464374 +22.7881125     269.1261     70.56632      1.670     4.89    -4.607044     19.92413     33.08497         7     1.144     0.592 -51.90   0
         9    800.4283    998.3516 300.1431850 +22.8773137     734.2034     70.63829      1.339     3.05    -4.950389     19.92413      86.6796        12     0.967     0.813 -25.69   0
        10    984.3226    997.3740 300.2008219 +22.9322336     302.3124     70.62031      1.617     3.78     -4.70636     19.92413     43.58033         5     1.034     0.397  16.84   0
        11    837.9998    991.4093 300.1571535 +22.8866017     486.5821      70.4402      1.360     4.46    -4.792356     19.92413     59.27975         7     1.020     0.555  20.34   0
        12    886.8934    982.4810 300.1752997 +22.8987172     436.3332     70.76406      1.503     3.80    -4.704378     19.92413     50.96671         8     0.923     0.615  54.21   0
        13    738.7224    981.8536 300.1293363 +22.8540542     405.2469     70.65627      1.662     4.95    -4.897398     19.92413     39.54007         9     1.158     0.833  16.91   0
        14    450.9938    978.6362 300.0408183 +22.7667134     2320.232     70.63829      1.483     3.00    -4.585164     19.92413     233.0662        26     1.181     1.074 -90.00   0
        15    749.6582    978.8741 300.1337132 +22.8564831     234.1322     70.65627      1.243     5.09    -4.880523     19.92413     35.84433         7     1.062     0.689 -52.46   0
        16    175.8979    964.2613 299.9599725 +22.6799248     333.9621     70.69222      1.431     5.26    -3.137075     19.92413     37.60096        10     1.178     0.663  43.43   0
        17    153.6222    961.8533 299.9538357 +22.6725390     1026.094     70.63829      1.491     2.89    -3.113385     19.92413     128.3364        16     1.159     0.896 -79.94   0
        18   1023.8113    949.6634 300.2286778 +22.9303901     447.0042     54.05282      0.966     2.34    -4.754735     19.92413     117.1725         6     0.871     0.384  84.60  24
        19    978.9561    948.3470 300.2151187 +22.9165523     1214.302     70.65627      1.406     2.90    -4.734115     19.92413     128.6088        14     1.008     0.801 -37.53   0
        20    762.3989    942.2643 300.1496063 +22.8498060     383.0319     70.63829      1.371     3.27    -4.735497     19.92413     49.59013         7     0.978     0.623   2.90   0
        21    630.8633    936.5270 300.1105108 +22.8086656     2751.472     70.65627      1.539     3.04    -4.651538     19.92413     267.8121        26     1.191     1.086  19.80   0
        22    433.0051    933.8886 300.0497959 +22.7484811     402.8756     70.53031      1.638     5.35    -4.541256     19.92413     30.29148         7     1.193     0.677 -32.03   0
        23    181.2661    930.9692 299.9724821 +22.6719996     861.7834     70.62031      1.622     3.45    -3.877755     19.92413     77.71848        19     1.131     1.073 -28.21   0
        24    651.5207    929.0711 300.1193707 +22.8127302     548.3284     70.72815      1.866     5.25    -4.597451     19.92413     43.37815        10     1.005     0.774  44.16   0
        25    806.8040    916.2111 300.1719254 +22.8556614     2435.466     70.45823      1.405     2.70    -4.492518     19.92413     263.2581        25     1.119     1.022 -60.20   0
        26   1023.1572    915.9594 300.2394508 +22.9205189     562.1144     57.82257      1.306     4.13     -4.82412     19.92413     71.77194        10     0.998     0.757  45.47  24
        27    524.1015    908.6611 300.0863539 +22.7686112     405.2562     70.69222      1.639     4.15    -4.460458     19.92413     36.44551         6     0.788     0.623  44.67   0
        28    170.5249    907.0863 299.9769212 +22.6619279     597.5461     70.74611      1.421     3.82    -3.999385     19.92413     59.21384        11     0.993     0.862 -25.56   0
        29    320.0773    899.1265 300.0259957 +22.7045883     30705.67     70.72815      1.555     2.99    -4.250121     19.92413     2651.668        77     1.387     1.372  46.60   0
        30    585.4212    901.8306 300.1076630 +22.7850681     343.1015     70.62031      1.844     4.79    -4.467673     19.92413     30.22093         6     1.208     0.539  21.09   0
        31    577.9089    897.7357 300.1066580 +22.7816378     835.9208     70.72815      1.605     3.11    -4.436135     19.92413     81.94291        15     1.084     0.871 -38.09   0
        32    990.8214    896.6539 300.2356536 +22.9052747     529.6564     70.62031      1.504     3.18    -4.745594     19.92413     49.68571        11     0.958     0.756  77.96   0
        33    606.5821    893.7518 300.1168808 +22.7891055     471.1252     70.65627      1.484     5.14    -4.432551     19.92413     46.84438         9     0.935     0.798  71.09   0
        34      6.3054    894.1208 299.9301363 +22.6088493     405.7152     70.72815      1.475     3.76    -4.102748     19.92413     47.23376         9     0.890     0.749 -10.97  16
        35    617.8844    892.2345 300.1208934 +22.7920642     240.4954     70.58432      1.201     4.37    -4.424382     19.92413     36.10169         6     0.936     0.580 -65.32   0
        36    760.9088    878.4533 300.1699216 +22.8310508     494.9772     70.67425      1.684     5.36    -4.438969     19.92413     48.31179        10     1.201     0.835 -13.49   0
        37    369.7852    876.3422 300.0488706 +22.7129910     17802.43     70.58432      1.641     3.19    -4.079054     19.92413     1502.328        57     1.397     1.320  33.84   0
        38    383.8963    876.8159 300.0531049 +22.7173660     1162.352     70.53031      1.757     3.98    -4.127303     19.92413     106.2094        19     1.169     1.103 -12.34   0
        39    892.4854    871.6346 300.2131424 +22.8685852     1590.136     70.58432      1.566     3.29    -4.321268     19.92413      134.324        18     1.082     1.015  60.60   0
        40    252.6612    868.0178 300.0151662 +22.6754150     459.3344     70.56632      1.584     3.63    -4.085729     19.92413     57.47889         8     1.065     0.776  75.06   0
        41    650.5468    867.8052 300.1390168 +22.7948639     399.5818     70.60232      1.534     5.03    -4.337541     19.92413     45.99563        11     1.095     0.899 -57.93   0
        42     57.0569    864.1199 299.9556625 +22.6155117     297.8676     70.65627      1.536     4.95    -4.066819     19.92413     36.85725         6     1.058     0.654  10.03   0
        43    497.7824    862.5903 300.0931642 +22.7474950     537.9125     70.56632      1.668     6.02     -4.16482     19.92413     45.02937        14     1.352     1.105  38.92   0
        44    898.5976    859.1588 300.2191096 +22.8668386     253.8953     70.62031      1.149     3.40    -4.241014     19.92413     40.72439         5     0.839     0.398 -67.19   0
        45    542.4990    840.3702 300.1143134 +22.7545512     462.4494     70.54832      1.937     4.71     -4.04145     19.92413        29.92         6     1.084     0.581  27.40   0
        46    564.5057    837.9957 300.1219358 +22.7604784     747.0428     70.53031      1.689     4.02    -4.027746     19.92413     69.56975        16     1.120     0.986  35.04   0
        47    958.8320    836.9370 300.2451225 +22.8785336     2490.395     70.62031      1.436     2.79    -4.115521     19.92413      271.344        25     1.176     1.033  27.48   0
        48    947.5018    828.3876 300.2443731 +22.8726798     932.7857      70.5123      1.501     3.64     -4.00375     19.92413     95.74345        18     1.218     0.935 -45.03   0
        49    311.0238    822.2973 300.0481922 +22.6798442     555.2972     70.54832      1.972     4.83    -3.767416     19.92413     44.85575        10     1.050     0.757  82.56   0
        50    773.9146    819.9417 300.1930224 +22.8181645     1551.057     70.72815      1.750     4.46    -4.257122     19.92413     108.2413        22     1.317     1.078  -8.39   0
        51    978.6863    818.2873 300.2573844 +22.8791362     1048.798     70.74611      1.680     3.49    -3.831834     19.92413     87.67284        16     1.076     0.997  83.39   0
        52    159.8698    807.0657 300.0061702 +22.6300628     327.8701     70.65627      1.364     2.14    -3.945038     19.92413       53.035         6     0.717     0.536 -58.05   0
        53    892.1354    796.7021 300.2374273 +22.8469715      83578.3     70.72815      1.613     3.17    -4.040056     19.92413     6741.912       122     1.463     1.443  47.00   0
        54    743.6307    796.4211 300.1912443 +22.8023253     379.9803     70.62031      1.808     4.09    -4.169455     19.92413     34.13678         5     1.220     0.392 -54.92   0
        55    578.6707    785.8768 300.1433093 +22.7497809     1021.591     70.72815      1.792     4.57    -3.615613     19.92413     89.19469        22     1.414     1.117  75.29   0
        56    759.7147    782.9559 300.2006373 +22.8032884     5379.357     70.60232      1.662     3.47    -4.081468     19.92413     391.8197        37     1.300     1.260 -52.01   0
        57    261.4874    778.6172 300.0470086 +22.6524401     2685.219     70.56632      1.702     3.25    -3.458395     19.92413     250.2935        28     1.239     1.206 -41.07   0
        58    343.3987    776.5459 300.0731490 +22.6764520      682.844     70.56632      1.699     3.72    -3.515487     19.92413     62.12095        14     1.178     0.911  29.06   0
        59    551.6183    771.6137 300.1395310 +22.7375670     502.7997     70.56632      1.720     6.28     -3.47071     19.92413     39.91092        10     1.234     0.898 -54.78   0
        60    543.2682    764.0895 300.1393808 +22.7329015      1870.39     70.76406      1.808     3.63    -3.382435     19.92413     158.1583        27     1.318     1.194  63.11   0
        61    533.7773    757.8203 300.1384671 +22.7282535     832.8372     70.62031      1.741     4.37    -3.296538     19.92413     57.62849        19     1.189     1.122 -65.92   0
        62    197.2087    754.5560 300.0348606 +22.6262311     413.0435     70.63829      1.238     4.26    -3.474818     19.92413     36.04007         7     1.060     0.488 -47.11   0
        63    458.4772    747.2277 300.1184832 +22.7026052     1066.572     70.62031      1.883     5.40    -3.173302     19.92413     87.17246        21     1.408     1.179 -87.18   0
        64    112.4904    742.7396 300.0123834 +22.5973893     11263.15     70.71019      1.651     2.98    -3.519153     19.92413     1188.269        53     1.401     1.305  83.59   0
        65     33.2992    744.6887 299.9871534 +22.5741502     411.3179     70.78201      1.397     3.95    -3.933397     19.92413     54.79764        10     0.970     0.919  78.35   0
        66    543.6870    742.8536 300.1464216 +22.7269352     546.8685     70.65627      1.829     4.72    -3.177062     19.92413     50.41412         8     0.995     0.634 -75.26   0
        67    960.9692    728.7495 300.2810018 +22.8481123     566.1567     70.65627      1.673     4.09    -3.471987     19.92413     45.68473        10     1.084     0.702  -9.56   0
        68     58.6112    726.9492 300.0007857 +22.5766733     920.6379     70.65627      1.983     6.12    -3.728574     19.92413     62.88544        18     1.656     0.924 -72.45   0
        69    463.6264    715.9451 300.1302639 +22.6951782     362.8195     70.62031      1.755     4.77    -2.932471     19.92413     35.73182         5     1.050     0.614 -18.71   0
        70    507.8903    711.7408 300.1454048 +22.7072622     591.5929     70.71019      2.126     7.16    -2.887424     19.92413     38.32832        12     1.605     0.895  -6.19   0
        71    940.9330    706.7680 300.2819073 +22.8357900     1815.616     70.62031      1.582     3.28    -3.515018     19.92413     150.4733        22     1.158     1.111 -68.24   0
        72    473.4003    706.9811 300.1362214 +22.6955415     895.3466     70.54832      1.861     6.05    -2.853516     19.92413      52.6638        20     1.327     1.137  86.97   0
        73     35.2777    701.0099 300.0019781 +22.5622275     2840.295     70.58432      1.631     2.92    -3.776145     19.92413      283.381        30     1.267     1.158  40.68   0
        74    336.5339    694.0206 300.0978662 +22.6507251     5065.369     70.60232      1.826     3.62    -3.133839     19.92413     400.3605        39     1.418     1.334  78.09   0
        75    458.9916    690.9904 300.1369408 +22.6866281     5135.231     70.49428      1.856     3.84     -2.87074     19.92413     402.8269        44     1.476     1.383  31.86   0
        76    870.4395    684.6487 300.2671291 +22.8082922      981.539     70.65627      1.659     4.42    -3.499936     19.92413      78.8275        17     1.200     0.975 -27.79   0
        77    954.9329    681.8301 300.2943860 +22.8328279     7064.745     70.60232      1.627     3.32    -3.343425     19.92413     560.8843        41     1.308     1.275  83.64   0
        78    519.4001    680.4131 300.1591786 +22.7017298     6423.832      70.4402      1.896     4.02    -2.811396     19.92413     448.6846        46     1.502     1.414  49.00   0
        79    247.3908    676.0081 300.0760118 +22.6187862     801.3604     70.47626      1.648     4.00    -3.331251     19.92413     64.27669        15     1.095     1.015 -87.11   0
        80    451.1707    668.6839 300.1417641 +22.6778809     2370.699     70.62031      1.849     3.88    -2.807201     19.92413     185.5485        35     1.470     1.314  12.76   0
        81    793.8270    668.5958 300.2484769 +22.7806986     486.5894     70.58432      1.724     5.62     -3.33239     19.92413      42.4912        12     1.182     0.968  54.43   0
        82    429.9629    666.9155 300.1357416 +22.6710061     569.6373     70.60232      1.659     5.78    -2.819222     19.92413     41.15207        11     1.183     0.796  89.64   0
        83    184.2887    666.4370 300.0595136 +22.5970874     388.9253     70.60232      1.624     3.44    -3.061486     19.92413     44.68317         5     0.774     0.443  20.57   0
        84    870.9344    663.8187 300.2740599 +22.8024596     794.7035     70.58432      1.677     4.01    -3.342137     19.92413     67.74725        15     1.147     0.919 -22.03   0
        85    567.6593    656.1597 300.1820882 +22.7092573     115857.1     70.62031      1.939     4.11    -2.848932     19.92413     6972.534       161     1.709     1.697  43.81   0
        86    751.5751    661.3795 300.2376609 +22.7659496     371.2646     70.60232      1.634     5.82    -3.183194     19.92413     36.06675        10     1.103     0.864 -18.60   0
        87    254.0832    656.3970 300.0844711 +22.6151728     2065.578     70.54832      1.850     3.74    -3.196884     19.92413     152.5236        31     1.390     1.287  79.96   0
        88    458.3408    636.6484 300.1544151 +22.6708429     1604.054     70.67425      2.050     4.76    -2.815539     19.92413     91.39883        28     1.378     1.349 -10.12   0
        89    855.1334    622.4675 300.2825861 +22.7858457     790.0825     70.67425      1.632     4.59    -3.006753     19.92413     60.08222        16     1.108     1.024  59.92   0
        90    726.4879    620.3668 300.2431864 +22.7466486     1411.935     70.60232      2.061     4.55    -3.069728     19.92413     78.82767        29     1.460     1.263 -37.31   0
        91    971.0212    616.7391 300.3205764 +22.8189584     222.7529     70.56632      1.441     3.85    -3.102141     19.92413     27.22616         5     0.830     0.511  51.64   0
        92    514.5472    616.7332 300.1783816 +22.6820014     301.8904     70.63829      1.377     3.36    -2.872245     19.92413     36.47502         5     0.758     0.431  66.38   0
        93    983.7093    614.0831 300.3253969 +22.8220004     697.1691     70.74611      1.582     4.51    -3.130722     19.92413     59.03875        16     1.168     0.981 -56.26   0
        94    855.3603    612.5536 300.2858813 +22.7830669     1364.322     70.69222      2.176     4.68    -2.935533     19.92413     68.60148        26     1.390     1.206  85.13   0
        95    968.7675    612.9582 300.3211034 +22.8171965     285.1676     70.67425      1.362     3.87    -3.086082     19.92413     34.91726         6     0.794     0.755 -83.16   0
        96    893.3768    607.4959 300.2993756 +22.7930173     2409.526     70.53031      1.797     3.97    -2.904416     19.92413      146.448        30     1.339     1.279  29.40   0
        97    126.4417    598.4465 300.0636523 +22.5602169     444.6491     70.67425      1.588     3.50    -2.915916     19.92413     49.05603        11     1.020     0.778  69.50   0
        98    985.2017    598.0291 300.3310837 +22.8178364     298.5153     70.58432      1.623     3.95    -3.127548     19.92413     34.29805         5     0.870     0.513  40.17   0
        99    667.0585    578.2457 300.2383756 +22.7167251     499.0326     70.65627      1.663     4.56    -3.086028     19.92413     40.34187         8     0.889     0.664 -40.07   0
       100    727.6626    570.4361 300.2597904 +22.7326661     472.9303     70.63829      1.858     6.01    -3.044863     19.92413     35.51357         7     1.047     0.969  63.82   0
       101    982.1597    570.3198 300.3391464 +22.8089643     374.3269     70.58432      1.687     3.93    -3.112372     19.92413     42.33954         7     0.913     0.698  -3.59   0
       102    885.2140    566.7514 300.3100817 +22.7788671     417.8129     70.63829      1.539     4.63    -2.870525     19.92413     39.69096         8     0.928     0.655   9.11   0
       103    613.4971    561.1876 300.2272447 +22.6957567     1824.314      70.5123      1.946     4.45    -2.989683     19.92413     108.4735        28     1.362     1.293  71.13   0
       104    973.3853    559.8245 300.3398231 +22.8033183      267.186     70.63829      1.513     5.05    -3.073849     19.92413     29.66603         6     1.097     0.659 -11.30   0
       105   1023.6348    539.8020 300.3620047 +22.8126322     386.3694     55.03102      1.343     4.11    -3.175789     19.92413     56.50559         7     1.045     0.462 -81.70  24
       106    983.1954    538.3239 300.3498734 +22.8000830     731.2161     70.53031      1.989     6.28    -3.021887     19.92413     42.26204        13     1.363     0.813  12.33   0
       107    723.9326    535.3204 300.2700465 +22.7214646     577.9824     70.72815      2.003     6.80    -2.964803     19.92413     30.91847        11     1.162     1.117  44.02   0
       108    228.3187    533.9650 300.1162753 +22.5723228     456.5784     70.56632      1.745     6.29    -2.769008     19.92413      32.6662        10     1.265     0.878  45.95   0
       109    290.7680    529.1304 300.1372599 +22.5896874     2009.756     70.60232      1.889     4.04    -2.669295     19.92413     147.4866        31     1.424     1.269  76.87   0
       110   1022.8765    527.1399 300.3658851 +22.8087668     2021.901     59.29765      1.477     3.66    -2.879367     19.92413     192.5069        22     1.301     0.969 -84.31  24
       111    237.8690    523.9479 300.1225002 +22.5723173     4210.991     70.60232      1.939     4.08     -2.74314     19.92413     329.4041        38     1.449     1.405  78.88   0
       112    378.6089    518.1493 300.1681449 +22.6129082     2752.474     70.62031      2.020     4.63     -2.73248     19.92413     174.9505        34     1.502     1.382  20.44   0
       113   1003.4122    518.1199 300.3627472 +22.8003396     1052.243     70.60232      1.656     3.86    -2.719491     19.92413      87.2672        19     1.253     0.982  65.69   0
       114    622.6895    514.6265 300.2452450 +22.6851488      10325.9     70.58432      2.066     4.70    -3.005109     19.92413     587.7182        59     1.616     1.566  29.20   0
       115    956.1412    497.3754 300.3547504 +22.7802069     285.5631     70.62031      1.647     5.27     -2.68487     19.92413     26.40602         6     1.076     0.730  -7.82   0
       116    177.7244    495.1559 300.1131671 +22.5459986      1129.79     70.60232      1.862     4.32    -2.911161     19.92413     93.00881        23     1.379     1.166 -30.66   0
       117    976.8898    484.2447 300.3654888 +22.7826550     671.9274     70.62031      1.876     6.77    -2.383915     19.92413     45.60818        17     1.410     1.012 -61.53   0
       118    563.2843    484.1833 300.2366476 +22.6585850     3771.471     70.58432      2.113     4.76    -2.700721     19.92413     208.2593        40     1.582     1.463  34.35   0
       119    767.4652    472.6991 300.3039653 +22.7165396     628.1174     70.71019      1.917     7.07     -2.33336     19.92413     41.85473        13     1.258     1.115  66.59   0
       120    470.0907    470.4977 300.2120930 +22.6266912     3281.402     70.79996      2.022     4.72     -2.55893     19.92413     213.0338        39     1.555     1.464  59.27   0
       121    861.7988    464.5992 300.3359941 +22.7425030     818.2496     70.40412      1.919     6.18     -2.73195     19.92413     56.93535        17     1.183     1.149 -78.61   0
       122    357.6709    449.6162 300.1839088 +22.5869580     1343.483     70.63829      2.051     4.97     -2.48404     19.92413     76.35182        29     1.434     1.386 -52.45   0
       123     76.5496    447.2557 300.0973017 +22.5018774     700.9737     70.65627      1.773     4.51    -3.198994     19.92413     59.00668        10     1.207     0.720  86.85   0
       124    326.9300    439.2256 300.1777259 +22.5747491      16586.7     70.62031      2.067     4.38    -2.366499     19.92413     1007.849        71     1.682     1.596  58.69   0
       125    861.3234    436.4847 300.3449837 +22.7342838       621.44     70.72815      1.690     6.13    -2.511853     19.92413     47.54041        13     1.165     0.906  22.47   0
       126     23.4052    427.2531 300.0872961 +22.4801804     2752.544     70.60232      1.794     3.30    -3.316824     19.92413     240.5324        33     1.401     1.258 -84.88   0
       127    736.9994    419.0158 300.3119217 +22.6919840     950.3879     70.47626      1.987     5.33    -2.380904     19.92413     67.01144        19     1.282     1.207  -4.11   0
       128    951.5701    412.0054 300.3810730 +22.7543070     345.9586     70.62031      1.656     4.21    -2.204896     19.92413     27.15199         5     1.113     0.454  27.28   0
       129    399.2262    403.6117 300.2117834 +22.5862272     1174.511     70.62031      2.128     6.20    -2.330635     19.92413     63.96293        23     1.632     1.242  54.05   0
       130    475.1208    383.1424 300.2420457 +22.6031255     647.4622     70.65627      1.922     7.07    -2.228577     19.92413     40.74162        14     1.438     0.975  89.88   0
       131    719.5448    374.6392 300.3209043 +22.6740032     1185.589     70.62031      1.942     5.16    -2.277197     19.92413     75.19127        24     1.476     1.170  12.43   0
       132    980.6113    368.8093 300.4041651 +22.7505984     1830.158      70.5123      1.856     4.30    -2.182138     19.92413     113.5831        29     1.395     1.260  35.93   0
       133    428.6558    359.0915 300.2354029 +22.5822793     361.6573     70.67425      1.807     5.08    -2.058125     19.92413     28.70494         6     1.073     0.680 -71.64   0
       134    103.1394    353.3025 300.1360876 +22.4829138     838.4608     70.69222      2.305     6.09     -2.75454     19.92413     50.98682        15     1.386     1.075 -80.65   0
       135    134.7230    353.3784 300.1458753 +22.4924182     357.0667     70.62031      1.681     4.57    -2.752152     19.92413     33.44209         7     0.915     0.649  72.50   0
       136    889.2170    325.1170 300.3898645 +22.7106470     1144.991     70.58432      1.866     4.76    -2.175577     19.92413     67.78043        22     1.397     1.074   9.00   0
       137    308.3240    322.6413 300.2098181 +22.5357074      1272.72     70.58432      2.116     4.50    -2.033001     19.92413     81.97449        25     1.448     1.198 -46.08   0
       138    386.0942    317.5487 300.2356581 +22.5575830     593.0887     70.69222      2.112     6.83     -1.99549     19.92413     44.93007        10     1.324     0.988  81.45   0
       139    740.2714    306.3486 300.3495459 +22.6606008     969.5535     70.62031      2.009     5.63    -2.162117     19.92413     67.18095        22     1.606     1.127  35.15   0
       140   1011.9274    298.7821 300.4366812 +22.7398553     482.0824     70.62031      1.581     3.14    -1.980932     19.92413     46.69137         6     0.813     0.621  -0.21   0
       141    744.8647    298.6930 300.3534635 +22.6597786     480.5316     70.72815      2.192     3.96    -2.148797     19.92413     33.14643         5     1.305     0.343 -48.34   0
       142    665.3783    297.2318 300.3291799 +22.6355246     616.5253     70.62031      2.119     6.90    -2.052629     19.92413     41.19086        15     1.482     0.900 -84.14   0
       143    590.7695    289.4736 300.3084685 +22.6109213     512.5349     70.63829      1.862     6.35    -1.836037     19.92413     35.81533        11     1.258     0.900 -25.39   0
       144    860.2327    288.7619 300.3926389 +22.6915111     898.3086     70.65627      2.039     6.66    -2.114675     19.92413     51.69492        15     1.492     0.833  -2.85   0
       145    989.2062    277.7443 300.4364282 +22.7269988      565.863     70.60232      1.911     7.26    -1.993654     19.92413     43.48388        13     1.640     0.900 -36.69   0
       146    224.2529    271.9648 300.2001406 +22.4959322     357.3075     70.63829      1.804     4.84    -2.109738     19.92413     35.67363         7     1.337     0.497 -60.20   0
       147     85.4109    265.7616 300.1590122 +22.4524771       1346.6     70.62031      2.239     7.36    -2.212538     19.92413     102.1668        27     1.660     1.285 -77.07   0
       148     35.3631    263.0245 300.1443559 +22.4366668     341.8707     70.63829      1.774     4.44    -2.162367     19.92413      34.5412         6     1.070     0.524  38.11   0
       149    242.6747    259.4953 300.2099161 +22.4978821     3090.291     70.76406      2.054     4.19    -2.100335     19.92413     197.1841        41     1.567     1.471 -82.01   0
       150     27.6225    253.6675 300.1449903 +22.4316586     818.1409     70.62031      1.891     5.81    -2.156294     19.92413     58.97689        14     1.492     0.737 -85.95   0
       151    886.5062    240.5735 300.4164786 +22.6855365      1975.53     70.54832      1.941     4.54    -2.068528     19.92413     126.8355        31     1.425     1.335  39.25   0
       152    989.9668    239.1380 300.4492033 +22.7161282     1576.661     70.62031      1.912     4.45    -1.990056     19.92413     110.8897        27     1.384     1.262 -13.35   0
       153    125.7274    225.0473 300.1847571 +22.4528969     336.2325     70.62031      1.773     5.77    -2.210797     19.92413      28.6809         7     1.268     0.740  -3.33   0
       154    487.5908    223.6345 300.2977342 +22.5610663     898.7561     70.60232      2.166     5.60    -2.074121     19.92413      55.6198        16     1.316     1.129  -0.73   0
       155    261.5623    203.5199 300.2339622 +22.4874830     3345.656     70.58432      2.044     4.16    -2.118928     19.92413     236.7349        36     1.516     1.419  46.65   0
       156    113.2377    203.4376 300.1878925 +22.4429470     524.0544     70.69222      2.301     6.49    -2.188829     19.92413     36.32413        10     1.251     0.946  84.67   0
       157    507.4791    188.5081 300.3153278 +22.5569427     3484.568     70.74611      2.225     5.05    -1.695557     19.92413     190.7012        42     1.606     1.580  21.71   0
       158    635.7307    168.4488 300.3617649 +22.5896375     3390.515     70.62031      2.119     4.99    -1.604888     19.92413     199.4671        45     1.614     1.569 -75.64   0
       159    411.2617    168.1367 300.2920029 +22.5222340     841.5164     70.65627      2.250     6.92    -2.102934     19.92413     52.34629        17     1.368     1.171 -40.00   0
       160    677.1190    166.8433 300.3751751 +22.6015844     474.0153     70.60232      1.886     5.64     -1.79372     19.92413       38.854        10     1.390     0.645 -25.84   0
       161    160.5562    161.2061 300.2163040 +22.4450278     347.0653     70.63829      1.821     4.06    -2.106578     19.92413     37.24182         5     0.857     0.587 -46.00   0
       162    680.1405    153.4053 300.3804783 +22.5986288     1462.022     70.58432      2.012     5.07     -1.73486     19.92413      92.8621        28     1.453     1.350 -71.13   0
       163    766.2390    145.1706 300.4099718 +22.6220701     796.9075     70.62031      2.137     8.05    -1.745143     19.92413     41.79642        20     1.513     1.196   1.07   0
       164    704.3580    138.3578 300.3929057 +22.6015642     392.6697     70.72815      1.890     6.10    -1.643726     19.92413      26.6368         6     1.484     0.704  -6.67   0
       165    510.3041    137.5216 300.3327578 +22.5431445     607.8907     70.74611      2.145     6.47    -1.620853     19.92413     35.78057        13     1.121     1.049 -40.93   0
       166    185.4830    125.9665 300.2354879 +22.4423925     2071.589     70.58432      1.992     4.28    -2.037498     19.92413     149.3763        31     1.466     1.377  64.04   0
       167    301.2519    118.2567 300.2739781 +22.4749116     755.9742     70.67425      2.002     7.56    -2.043419     19.92413     44.97828        18     1.372     1.166  72.57   0
       168    746.2191    118.3105 300.4124528 +22.6083497     445.2152     70.56632      2.098     4.96    -1.528906     19.92413     36.01493         7     0.996     0.699  14.14   0
       169    804.4948    109.3908 300.4335053 +22.6232507     1230.887     70.53031      1.993     5.01    -1.509917     19.92413     73.74851        22     1.340     1.185 -45.35   0
       170    188.3562    104.6549 300.2432970 +22.4371367     568.8511     70.62031      2.095     3.89     -1.99605     19.92413     51.23727        11     1.149     0.928  21.33   0
       171    979.5927    102.5788 300.4903010 +22.6737545       392.18     70.60232      1.891     5.59    -2.006145     19.92413     26.20504         9     1.084     0.813  21.21   0
       172    752.6097    102.0076 300.4197348 +22.6055792      505.405     70.49428      2.323     7.45      -1.4247     19.92413     34.83145        10     1.500     1.035  48.43   0
       173    606.1268     86.7700 300.3790574 +22.5572933     466.8635     70.63829      1.703     5.99    -2.070549     19.92413     31.19088         9     1.593     0.635 -76.72   0
       174    767.9644     83.0000 300.4306872 +22.6047172     328.4543     70.56632      1.423     3.43    -1.465484     19.92413     25.51418         4     0.896     0.380  21.36   2
       175    576.9540     79.9811 300.3721779 +22.5465969     1140.807     70.65627      2.302     7.36    -2.066316     19.92413     56.03074        26     1.821     1.294  21.99   0
       176    299.8277     78.4063 300.2864672 +22.4630414       275.42     70.62031      1.510     3.43    -2.080866     19.92413      24.9596         5     0.755     0.451 -18.69   0
       177     15.2364     76.4800 300.1986560 +22.3770999     508.2049     70.56632      2.431     4.79    -2.430628     19.92413     35.18732         6     0.970     0.672  87.25   0
       178    534.0578     73.7001 300.3608630 +22.5319318     802.0786     70.71019      2.073     7.55    -2.031428     19.92413     46.98378        20     1.404     1.320   2.35   0
       179    639.7222     70.2192 300.3948889 +22.5626078     841.1694     70.62031      2.063     6.92    -1.963925     19.92413     57.65657        18     1.457     1.238 -59.77   0
       180    460.2071     64.6183 300.3408270 +22.5071797     1279.918     70.58432      2.143     5.44    -2.086011     19.92413     79.58279        25     1.457     1.275 -67.92   0
       181    107.6994     62.5116 300.2319089 +22.4008379     841.7825     70.78201      1.975     5.35    -2.285056     19.92413     51.24295        18     1.386     1.080 -57.49   0
       182    168.6433     44.2570 300.2567681 +22.4138828     637.3354     70.58432      1.997     6.19    -2.216923     19.92413     46.92195        13     1.258     0.959 -44.66   0
       183    647.6625     23.2741 300.4125933 +22.5514957     1609.583     70.65627      2.282     6.24    -2.395791     19.92413     86.58756        28     1.434     1.359  36.31   0
       184    743.9175     23.6502 300.4424526 +22.5804500     608.4261     70.63829      2.266     6.39    -2.166403     19.92413     53.80647        12     1.493     0.769   3.55   0
       185    791.7956   1016.1868 300.1346851 +22.8798381     6676.583     70.47626      1.422     2.55    -5.050925     19.92413     806.2399        40     1.235     1.157  49.15  16
