#   1 NUMBER                 Running object number                                     
#   2 X_IMAGE                Object position along x                                    [pixel]
#   3 Y_IMAGE                Object position along y                                    [pixel]
#   4 ALPHA_J2000            Right ascension of barycenter (J2000)                      [deg]
#   5 DELTA_J2000            Declination of barycenter (J2000)                          [deg]
#   6 FLUX_APER              Flux vector within fixed circular aperture(s)              [count]
#   7 FLUXERR_APER           RMS error vector for aperture flux(es)                     [count]
#   8 FLUX_RADIUS            Fraction-of-light radii                                    [pixel]
#   9 FWHM_IMAGE             FWHM assuming a gaussian core                              [pixel]
#  10 BACKGROUND             Background at centroid position                            [count]
#  11 THRESHOLD              Detection threshold above background                       [count]
#  12 FLUX_MAX               Peak flux above background                                 [count]
#  13 ISOAREA_IMAGE          Isophotal area above Analysis threshold                    [pixel**2]
#  14 A_IMAGE                Profile RMS along major axis                               [pixel]
#  15 B_IMAGE                Profile RMS along minor axis                               [pixel]
#  16 THETA_IMAGE            Position angle (CCW/x)                                     [deg]
#  17 FLAGS                  Extraction flags                                          
         1    581.5966     12.5237 300.3952692 +22.5288718     735.1219     70.37165      1.903     5.20     -1.33011     19.87931     60.74255        15     1.374     1.071  86.13   0
         2    371.1485      3.9072 300.3325754 +22.4633088     4680.913     66.77557      2.027     4.36    -1.570106     19.87931     293.6394        45     1.568     1.497 -27.95  24
         3    791.8591   1015.5266 300.1347591 +22.8798223     6472.978     70.49733      1.341     2.42    -4.793674     19.87931     804.0514        32     1.100     1.084 -54.01   0
         4    114.2296   1022.5728 299.9216593 +22.6782623     662.2968     60.57942      6.974     8.52    -1.577458     19.87931     33.40669        12     1.835     1.105 -27.03  24
         5    837.2621   1015.5580 300.1488959 +22.8934616     283.5045      70.4435      1.148     4.45    -4.868617     19.87931     39.04411         6     0.941     0.598  64.02   0
         6    103.6474   1007.7261 299.9232072 +22.6708301     458.3833     70.46145      1.674     3.23    -2.028969     19.87931     53.81724         5     0.796     0.495  42.83   8
         7    496.5186   1003.6850 300.0466602 +22.7877349     493.3352     70.58697      2.044     5.84    -4.767326     19.87931     37.65165        10     1.145     0.842   8.93   0
         8    843.4184   1003.1161 300.1548667 +22.8917415     226.8812     70.40759      1.121     3.44    -4.821964     19.87931     35.37434         5     0.761     0.449  70.60   0
         9     94.2448    998.9493 299.9231448 +22.6654904     215.6979     70.49733      1.430     5.68    -2.422714     19.87931     37.41146         7     1.241     0.732   0.02   0
        10    800.3728    997.6686 300.1432280 +22.8772573     768.7144      70.4435      1.295     2.60    -4.756121     19.87931     86.46395        12     0.929     0.792   7.04   0
        11    983.7052    996.5859 300.2007243 +22.9319735      327.402     70.38962      1.368     3.43    -5.223165     19.87931     41.51763         7     0.937     0.686  52.22   0
        12    838.3478    991.3282 300.1571257 +22.8868388     516.3073     70.46145      1.317     3.24    -4.761917     19.87931     56.35095         6     0.706     0.654  87.72   0
        13    946.7921    987.6572 300.1921230 +22.9183345     228.7989      70.4435      1.188     3.44    -4.884761     19.87931      38.2535         5     0.763     0.449  14.49   0
        14    887.0433    982.4909 300.1751800 +22.8989205     381.7667     70.46145      1.236     2.87    -4.710304     19.87931     60.13239         8     0.858     0.666 -61.17   0
        15    738.1561    981.4044 300.1291425 +22.8539149     491.8193     70.47939      1.432     2.89    -4.834285     19.87931     53.70383         7     0.808     0.621  75.46   0
        16    450.9902    977.9825 300.0408654 +22.7666927     2523.057     70.42554      1.451     2.83    -4.798386     19.87931      261.783        24     1.197     1.001  46.57   0
        17    749.4164    978.1851 300.1336984 +22.8563725     315.5696     70.42554      1.642     4.51    -4.810205     19.87931     33.27054         7     1.042     0.555  16.65   0
        18    176.4070    963.8824 299.9600874 +22.6801460     341.3969     70.38962      1.317     3.60    -3.019206     19.87931     44.27597         9     0.877     0.699  35.56   0
        19    153.5882    960.9477 299.9539531 +22.6724470     914.3032     70.46145      1.393     3.01    -3.120491     19.87931     119.0101        16     1.076     0.874  86.89   0
        20   1023.8162    949.3139 300.2286276 +22.9304465      442.532     53.97811      0.864     1.92    -5.164419     19.87931     131.0667         6     0.790     0.387  89.85  24
        21    979.0296    947.8506 300.2151376 +22.9165885     1195.505     70.47939      1.290     2.37     -4.83437     19.87931      164.742        15     0.951     0.860  -8.83   0
        22    762.6514    941.9698 300.1496141 +22.8499605      461.087     70.49733      1.649     4.86    -4.716862     19.87931     36.29403         8     0.977     0.686  14.35   0
        23    185.6861    942.1166 299.9700572 +22.6767009     213.5621     70.56905      1.205     3.36    -3.708411     19.87931     41.19092         5     0.765     0.427 -73.37   0
        24    630.6982    935.9793 300.1104702 +22.8086263     2779.896     70.38962      1.519     3.07    -4.706451     19.87931     274.6353        30     1.212     1.152   6.55   0
        25    433.1594    933.3707 300.0498442 +22.7485520     512.7242     70.47939      2.051     3.97    -4.792692     19.87931      38.7141         6     1.118     0.414  33.10   0
        26    181.4138    930.2604 299.9725895 +22.6720211     712.5401     70.42554      1.299     2.77    -4.084341     19.87931     82.20276        13     0.926     0.826  66.80   0
        27    651.5760    928.6616 300.1193532 +22.8127970     459.0726     70.46145      1.702     5.31    -4.698089     19.87931      40.9024        11     1.239     0.697 -35.00   0
        28    200.4766    927.7113 299.9793429 +22.6770198     332.3116     70.60488      1.138     3.37    -4.117299     19.87931     43.71584         5     0.794     0.413 -65.57   0
        29    806.7375    915.6365 300.1719230 +22.8556414     2275.123     70.47939      1.479     2.93    -4.536963     19.87931     213.5828        25     1.228     1.035  18.40   0
        30   1023.3701    915.5523 300.2394816 +22.9206248     479.7851     56.51882      1.086     2.62    -4.821979     19.87931     84.10212        10     0.903     0.681  88.64  24
        31    215.4370    910.5344 299.9895837 +22.6765953     326.7181     70.46145      1.284     4.13    -4.144886     19.87931     40.13172         5     0.988     0.494  86.68   0
        32    523.6970    908.5280 300.0861013 +22.7686248     418.4154     70.58697      1.590     3.26    -4.636848     19.87931     49.46224         9     0.998     0.769  -8.21   0
        33    170.4275    906.5970 299.9768791 +22.6619414     599.6063     70.40759      1.318     3.01    -4.151866     19.87931     73.74731        11     0.979     0.746 -72.55   0
        34    320.0323    898.5652 300.0259930 +22.7045937     30381.48     70.49733      1.557     3.01    -4.115885     19.87931      2650.28        69     1.369     1.289  48.75   0
        35    577.8159    897.2977 300.1066008 +22.7816572     996.3125     70.37165      1.502     3.16    -4.513189     19.87931     90.15826        13     0.956     0.880  47.30   0
        36    248.8682    897.2686 300.0042924 +22.6828407     306.3797     70.51527      1.504     4.47    -4.170973     19.87931     30.14626         5     1.149     0.495 -58.52   0
        37    990.5347    895.9583 300.2356209 +22.9051510     463.9073      70.4435      1.338     3.05    -4.425084     19.87931     65.72759        10     0.943     0.742  34.43   0
        38    606.9333    893.4144 300.1169290 +22.7892868     523.2944     70.42554      1.663     3.22    -4.448603     19.87931     62.65246         9     0.951     0.757  59.81   0
        39      6.3663    893.7114 299.9301159 +22.6089392     515.1263     70.42554      1.479     3.25    -3.754707     19.87931     55.05548         9     0.903     0.742 -32.04  16
        40    617.2675    891.0000 300.1209322 +22.7916975     369.8457     70.40759      1.669     4.71    -4.430353     19.87931      35.5533         6     0.803     0.783 -51.42   0
        41    369.6918    875.7466 300.0488624 +22.7129732     18178.46     70.51527      1.610     3.12    -4.069016     19.87931     1678.228        59     1.390     1.287  48.11   0
        42    760.9187    878.2396 300.1698225 +22.8311625     614.2937     70.42554      1.675     4.32    -4.245893     19.87931     51.27273         8     0.836     0.741  -7.78   0
        43    384.0352    876.4061 300.0531085 +22.7174707     1098.531     70.46145      1.598     3.35    -4.115572     19.87931     100.4812        19     1.121     1.067 -22.66   0
        44    892.4756    871.0910 300.2131443 +22.8685935     1494.297     70.60488      1.412     2.96    -4.099365     19.87931     162.1135        19     1.063     0.998  22.82   0
        45    650.2503    867.3369 300.1389040 +22.7948147     604.4361     70.51527      1.692     4.83     -4.25299     19.87931     51.32594        12     1.027     0.913  -9.65   0
        46    486.7903    867.9219 300.0878349 +22.7459012     296.1974     70.42554      1.604     4.93    -4.209827     19.87931     36.47774         5     0.887     0.775  70.78   0
        47    252.3199    867.2182 300.0151463 +22.6752683     363.8828     70.46145      1.523     5.21    -4.216247     19.87931     38.06067         9     1.381     0.555  47.92   0
        48    497.8463    861.7788 300.0932745 +22.7474604     496.0042     70.51527      1.646     5.16    -4.190717     19.87931     46.08451        15     1.205     1.037 -76.04   0
        49     85.1310    856.7865 299.9665935 +22.6220398     331.6526     70.47939      1.582     4.29    -4.058411     19.87931     36.18055         6     1.077     0.487  49.45   0
        50    249.9700    852.1070 300.0193340 +22.6702327     340.8133     70.38962      1.592     4.57    -4.226326     19.87931     31.29127         7     0.880     0.674  54.37   0
        51    564.5276    837.8516 300.1218139 +22.7606233     731.3043     70.46145      1.483     3.73    -4.185617     19.87931     88.02232        15     1.111     0.929  19.17   0
        52    958.8838    836.4448 300.2451242 +22.8785770     2610.926     70.42554      1.426     2.80    -4.085481     19.87931     276.5095        24     1.105     1.062  11.76   0
        53    947.4346    828.0032 300.2443020 +22.8727197     866.0237     70.46145      1.342     3.38    -4.086318     19.87931     81.52316        15     1.013     0.923 -48.66   0
        54    310.3943    822.3741 300.0477940 +22.6798653     545.7468      70.4435      1.639     4.17    -4.132274     19.87931      58.7872        12     1.131     0.967   1.32   0
        55    773.8323    819.3378 300.1930168 +22.8181425     1492.014     70.47939      1.685     3.75    -3.883581     19.87931      124.678        23     1.196     1.158  61.95   0
        56    978.2233    818.0499 300.2571413 +22.8790997     832.9834     70.46145      1.396     3.77    -4.079604     19.87931     89.80225        12     1.010     0.863  43.75   0
        57    159.6276    806.9927 300.0059395 +22.6301630     474.0026     70.46145      1.867     4.20    -4.219606     19.87931     51.24615         9     1.146     0.759 -88.58   0
        58    855.7003    804.3754 300.2233962 +22.8384167     312.2969     70.40759      1.783     4.00    -3.950582     19.87931       29.892         6     0.898     0.510  45.90   0
        59    892.0977    796.1672 300.2374117 +22.8469819     84147.74      70.4435      1.553     3.12    -3.996849     19.87931     6840.729       112     1.414     1.369  29.32   0
        60    744.8408    796.5257 300.1914088 +22.8028978     530.6259      70.4435      1.850     5.66     -3.84011     19.87931     39.82241        13     1.180     1.000  70.82   0
        61    924.9595    788.2477 300.2502328 +22.8545681     268.9203     70.51527      1.583     5.49    -3.994478     19.87931     32.20591         6     1.255     0.677  -1.97   0
        62    578.3960    785.3053 300.1432301 +22.7497194     1024.154     70.37165      1.774     4.50    -3.934932     19.87931     77.56919        18     1.242     1.017  15.57   0
        63    759.6182    782.3703 300.2006184 +22.8032717     5246.207      70.4435      1.699     3.65    -3.732659     19.87931     383.5696        37     1.302     1.290  58.66   0
        64    261.4445    777.9778 300.0470223 +22.6524383      2821.19     70.51527      1.725     3.54    -4.148261     19.87931     255.1952        27     1.270     1.175  54.82   0
        65    343.2128    775.9247 300.0731123 +22.6764104     645.8951     70.47939      1.583     3.63    -3.924225     19.87931     69.64134        12     1.001     0.887 -70.06   0
        66    551.5989    771.2057 300.1394768 +22.7376314     436.5571     70.28175      2.059     5.60    -3.673831     19.87931     35.15911         9     1.101     0.802  -4.90   0
        67    543.2656    763.4510 300.1394062 +22.7329058     1883.534     70.49733      1.789     4.18    -3.523029     19.87931     141.2343        27     1.363     1.183  33.76   0
        68    533.5584    757.1832 300.1384243 +22.7281942     791.5539     70.47939      1.638     4.40    -3.455592     19.87931      69.5511        16     1.265     0.931  72.57   0
        69    196.5879    753.9304 300.0346880 +22.6260639     230.3009     70.47939      1.450     5.69    -4.089263     19.87931     41.27098         6     1.541     0.591  -7.36   0
        70    237.1968    749.2228 300.0488402 +22.6369139     267.7985     70.42554      1.297     3.92    -4.163068     19.87931      31.1263         6     0.773     0.568  40.58   0
        71    980.2158    747.5071 300.2807174 +22.8594500     151.5665     70.38962      1.098     4.17    -3.560596     19.87931     36.04643         6     0.907     0.606 -71.28   0
        72    557.7741    747.3467 300.1491612 +22.7326431     275.8877     70.47939      1.336     3.71    -3.409045     19.87931     27.87421         5     0.968     0.408  84.14   0
        73    458.3345    746.9783 300.1183369 +22.7026831     1069.539      70.4435      1.877     4.25    -3.470952     19.87931     88.50432        19     1.201     1.088   1.34   0
        74    112.4271    742.1031 300.0123864 +22.5973901     11532.38     70.42554      1.623     3.00    -3.807535     19.87931     1194.015        52     1.403     1.281  86.00   0
        75     33.2444    744.3698 299.9870556 +22.5742465     268.8747     70.49733      1.250     3.52    -3.653337     19.87931     42.19009         5     0.778     0.460  13.56   0
        76    543.3076    742.2608 300.1463132 +22.7268417      535.645      70.5332      1.825     4.47     -3.21877     19.87931     44.78732        12     1.176     0.910 -44.97   0
        77    960.6914    728.0146 300.2809710 +22.8479987     561.3386     70.38962      1.562     5.38     -3.48152     19.87931     43.36381        13     1.237     0.806  79.47   0
        78     58.3360    726.2252 300.0007500 +22.5765885     830.4007      70.4435      1.796     3.83    -3.695986     19.87931     81.40712        12     1.119     0.814  57.06   0
        79    901.6694    720.8960 300.2648859 +22.8282516     415.7679     70.58697      1.718     4.80    -3.562979     19.87931     27.83014         7     0.956     0.682 -89.08   0
        80    507.9713    711.5201 300.1453160 +22.7074180     440.5099     70.47939      1.730     3.89    -3.152882     19.87931     35.67476         5     0.847     0.512 -53.56   2
        81    473.2230    706.5016 300.1361360 +22.6955469     980.3325     70.38962      1.849     5.21    -3.192238     19.87931     65.25375        21     1.361     1.124  77.09   0
        82    941.0248    706.1664 300.2819466 +22.8358285     2026.315     70.47939      1.688     3.63    -3.411766     19.87931      146.228        24     1.250     1.144 -11.15   0
        83     35.1295    700.3339 300.0019641 +22.5621980     2787.754     70.49733      1.638     3.09    -3.658604     19.87931     248.5555        29     1.282     1.167  60.44   0
        84    336.4868    693.2619 300.0979107 +22.6506947     5301.345     70.55112      1.848     3.87    -3.590001     19.87931     400.5904        42     1.483     1.338  79.05   0
        85    458.8680    690.2580 300.1369530 +22.6865793     4984.497     70.47939      1.842     4.01    -3.115671     19.87931     346.7394        39     1.455     1.344  66.91   0
        86    870.2828    683.7869 300.2671737 +22.8081856     1146.736      70.4435      1.736     4.04    -3.452412     19.87931     85.06969        18     1.120     1.075 -21.71   0
        87    954.8831    681.2615 300.2943685 +22.8328356     7111.286     70.55112      1.627     3.36    -3.248338     19.87931     552.6155        42     1.312     1.269   6.04   0
        88    519.3950    679.7675 300.1591988 +22.7017409     6648.056      70.4435      1.889     4.20    -2.989064     19.87931     435.8921        47     1.495     1.422   1.14   0
        89    247.1675    675.6547 300.0758681 +22.6188235     748.0744     70.47939      1.808     3.57    -3.625956     19.87931     67.47503        14     1.050     1.016 -72.25   0
        90    450.9906    667.9695 300.1417511 +22.6778229     2463.192     70.46145      1.901     4.01    -3.032715     19.87931     195.0669        32     1.390     1.349   8.18   0
        91    793.9147    667.9642 300.2485212 +22.7807352     583.6053      70.4435      1.994     6.73    -3.399153     19.87931     36.40747        13     1.353     0.940  25.34   0
        92    429.5590    666.5064 300.1355596 +22.6709692      746.941     70.47939      1.795     4.64    -3.088057     19.87931     70.82008        17     1.446     0.984  88.45   0
        93    184.3297    666.1535 300.0594284 +22.5972268     354.5463      70.4435      1.503     2.78    -3.719822     19.87931     39.67107         7     0.833     0.559 -57.94   0
        94    870.9833    663.1384 300.2741079 +22.8024691     956.4645     70.42554      1.767     6.49    -3.354004     19.87931     77.67413        19     1.435     0.914 -26.89   0
        95    567.5884    655.4946 300.1820925 +22.7092443     116788.6     70.40759      1.909     4.25    -2.948355     19.87931      7046.12       162     1.704     1.664   5.86   0
        96    751.5350    660.3820 300.2377837 +22.7658449     319.5477      70.4435      1.487     5.12    -3.280056     19.87931     35.13131         8     1.133     0.655   2.81   0
        97    253.8454    655.7198 300.0844266 +22.6151148     1921.974      70.4435      1.765     3.90    -3.586148     19.87931     173.8762        29     1.385     1.225  84.40   0
        98    458.3746    636.3007 300.1543469 +22.6709575     1611.308     70.40759      2.040     5.21    -2.949669     19.87931     119.9568        25     1.529     1.141  87.84   0
        99    855.1125    621.6032 300.2826688 +22.7857863     860.0627     70.38962      1.687     5.32    -3.145044     19.87931     75.68368        20     1.235     1.184  36.70   0
       100    726.3647    619.5243 300.2432297 +22.7465685     1381.065     70.42554      1.878     4.33    -3.003035     19.87931     94.62207        27     1.349     1.282 -75.47   0
       101    513.2567    616.6416 300.1778165 +22.6817925     351.3283      70.4435      1.657     4.69    -2.919159     19.87931     38.12938         6     1.078     0.579 -51.70   0
       102    983.5033    613.4846 300.3253351 +22.8219591     799.0905     70.62279      1.544     4.97    -3.309458     19.87931     71.65559        13     1.118     0.845 -62.11   0
       103    855.3022    611.9777 300.2858578 +22.7830801     1242.257     70.38962      2.018     4.99    -3.089457     19.87931     79.12215        23     1.450     1.121  73.10   0
       104    970.1599    612.6099 300.3214585 +22.8177069      418.408     70.46145      2.326     5.97    -3.283875     19.87931     34.27901         8     1.074     0.932  35.36   0
       105    893.3966    606.8450 300.2994005 +22.7930318      2333.25     70.46145      1.711     3.81    -3.112088     19.87931     162.5822        30     1.302     1.240   9.98   0
       106    126.1148    597.8322 300.0635547 +22.5601598     536.3186     70.42554      1.871     4.25    -3.536634     19.87931     43.68853         8     1.106     0.653 -43.86   0
       107    984.9925    597.0038 300.3311583 +22.8176733      461.403     70.29974      1.320     2.51    -3.271423     19.87931     59.62786         5     0.893     0.370  67.36   0
       108    667.4207    577.6738 300.2384784 +22.7168744     373.9249     70.46145      1.748     5.44    -2.962072     19.87931     29.94095         8     1.245     0.672 -11.14   0
       109    728.4608    570.1823 300.2599252 +22.7330367     381.9644     70.40759      1.725     3.87      -2.8788     19.87931     33.69899         5     0.861     0.559 -40.75   0
       110    884.7122    565.6360 300.3100917 +22.7785965     521.8237      70.4435      1.719     6.53     -2.96223     19.87931     39.08212        16     1.259     1.122 -73.52   0
       111    870.5012    561.7025 300.3069409 +22.7732055     342.8491     70.67649      1.785     4.04     -2.90479     19.87931     34.74366         5     0.987     0.764 -87.48   0
       112    613.5523    560.4366 300.2273087 +22.6957658     1847.653     70.49734      2.003     4.69    -2.634512     19.87931     101.6149        32     1.486     1.388 -70.00   0
       113    974.3917    558.9719 300.3402176 +22.8035736     156.8594      70.4435      1.263     4.22    -3.114233     19.87931     26.73246         5     1.131     0.449 -25.18   0
       114   1023.6455    538.9122 300.3620992 +22.8125790     366.9146     54.97628      1.168     4.26      -3.0237     19.87931     63.31926         8     1.097     0.472  85.45  24
       115    896.6621    539.1801 300.3224170 +22.7745839     304.4697     70.42554      1.452     4.32    -2.909241     19.87931     39.70365         5     1.137     0.467 -85.91   0
       116    982.7604    537.6725 300.3497513 +22.7999660     572.8866      70.4435      1.697     5.44    -3.008987     19.87931     41.87978         9     1.034     0.807  -2.96   0
       117    723.9930    534.2993 300.2701981 +22.7213974      555.754     70.35368      1.751     6.23    -2.794867     19.87931     41.85183        12     1.164     0.938 -16.76   0
       118    290.6356    528.5331 300.1372121 +22.5896966     2031.893     70.46145      1.894     4.31    -3.012866     19.87931      136.566        31     1.445     1.282  77.31   0
       119   1022.8885    526.4116 300.3659267 +22.8087617      2045.21     58.95013      1.477     3.70    -2.901482     19.87931     190.4487        22     1.285     0.956  89.20  24
       120    237.8124    523.3513 300.1224752 +22.5723515     4237.359     70.49733      1.883     4.10    -2.986479     19.87931     294.8064        41     1.482     1.403  82.32   0
       121   1003.2419    517.4821 300.3627016 +22.8003074     1183.357     70.42554      1.863     4.66    -2.827277     19.87931     83.72629        20     1.253     1.125  11.12   0
       122    378.6990    517.5798 300.1681565 +22.6129909     2684.493     70.38962      1.907     4.41    -2.482739     19.87931     195.0534        33     1.405     1.362  88.46   0
       123    622.6008    513.9825 300.2452257 +22.6851502     10485.74     70.37165      2.055     4.62    -2.515081     19.87931     589.3064        62     1.616     1.569  12.71   0
       124    819.7746    504.5789 300.3096998 +22.7415928     251.0683      70.4435      1.416     4.85    -2.729665     19.87931     31.17614         5     1.095     0.608 -65.89   0
       125    956.0577    495.3153 300.3551924 +22.7797958     452.0293     70.56905      1.882     5.88    -2.690112     19.87931     31.90682         8     1.454     0.670  80.21   0
       126    177.5312    494.4161 300.1131437 +22.5459554     1222.085     70.47939      1.924     5.23    -2.819373     19.87931     75.46749        21     1.374     1.199 -81.14   0
       127    563.3170    483.5374 300.2366641 +22.6586271     3861.676     70.55112      2.081     4.73    -2.376194     19.87931     208.0215        42     1.537     1.498  48.00   0
       128    976.8803    483.5060 300.3655234 +22.7826463     884.5246     70.58697      1.907     6.25     -2.57737     19.87931     53.30122        16     1.190     1.080 -43.22   0
       129    767.3470    472.4324 300.3038111 +22.7166410     633.1929     70.47939      2.063     6.98    -2.592942     19.87931     38.23154        12     1.404     0.973 -40.01   0
       130    469.9953    469.7994 300.2120852 +22.6266839     3302.253     70.28175      2.019     4.79     -1.89759     19.87931     203.5521        40     1.570     1.465  42.94   0
       131    861.6533    463.8891 300.3359751 +22.7424671     811.4538     70.49733      2.250     7.45    -2.607734     19.87931     50.86821        15     1.394     1.113 -49.60   0
       132    958.5789    463.8569 300.3662021 +22.7715165     243.9684     70.47939      1.685     4.23     -2.55227     19.87931     30.42708         5     1.209     0.422 -76.92   0
       133    357.5292    448.9958 300.1838594 +22.5869644     1389.463     70.40759      1.998     4.82    -2.157745     19.87931     89.63603        30     1.500     1.323  65.91   0
       134     76.3850    446.5832 300.0972613 +22.5018700      663.362     70.42554      1.966     3.49    -2.911961     19.87931     67.25028        12     1.086     0.917  -7.14   0
       135    326.8530    438.5817 300.1777034 +22.5747702     16975.92      70.4435      2.033     4.42    -2.298913     19.87931     1155.151        69     1.641     1.577  56.87   0
       136    861.4247    435.7291 300.3450542 +22.7343118     710.0962     70.46145      1.904     6.48    -2.547431     19.87931     45.25572        14     1.307     0.901  -2.13   0
       137     23.2890    426.6411 300.0872493 +22.4802084     2830.913     70.46145      1.775     3.59    -3.260651     19.87931     263.9012        34     1.363     1.347  56.08   0
       138    425.8067    424.3960 300.2130894 +22.6003973     360.8151     70.29974      2.047     5.06    -1.884882     19.87931     28.03691         5     1.000     0.723  82.21   0
       139    737.1680    418.0312 300.3120858 +22.6919718     1009.673     70.46145      2.003     5.96     -2.54855     19.87931      61.7682        21     1.287     1.210 -28.75   0
       140    399.2459    403.0139 300.2117733 +22.5862923     1260.579     70.47939      2.240     6.47    -1.914122     19.87931     61.53053        29     1.581     1.474 -28.49   0
       141    475.1855    382.5241 300.2420548 +22.6031983     553.9088     70.47939      1.839     5.84    -1.781644     19.87931     49.30454        13     1.183     0.974 -21.82   0
       142    719.7366    374.0008 300.3209595 +22.6741025     1199.142     70.46145      1.993     4.93    -2.185174     19.87931     75.05865        27     1.456     1.316   6.40   0
       143    980.7225    367.9238 300.4042758 +22.7505960     1717.978     70.56905      1.757     4.10    -2.504394     19.87931     117.4864        26     1.295     1.212  26.82   0
       144    427.9903    358.5136 300.2351697 +22.5821485       432.87     70.38962      2.009     6.69    -1.857228     19.87931      35.6721         9     1.550     0.809  -1.50   0
       145    103.3272    352.7033 300.1361253 +22.4830425     712.2589     70.58697      1.962     5.48    -2.350302     19.87931     65.19472        16     1.329     1.161 -51.38   0
       146    134.3511    352.1685 300.1459375 +22.4922028     212.9504     70.49733      1.518     3.31     -2.36723     19.87931     30.56363         5     0.753     0.436  71.48   0
       147    889.2675    324.2913 300.3899331 +22.7106508     1205.249     70.58697      2.001     4.66    -2.091994     19.87931     71.68621        24     1.340     1.235 -17.52   0
       148    307.9111    322.1016 300.2096480 +22.5356705     1173.445     70.62279      2.005     5.41    -2.068598     19.87931      90.4535        25     1.494     1.283  29.58   0
       149    386.2388    317.4899 300.2355049 +22.5578498      570.957      70.4435      1.693     6.40    -1.945431     19.87931      41.7986        12     1.261     0.912 -57.28   0
       150    740.3504    305.9557 300.3494809 +22.6607436     908.9144     70.49733      1.919     5.48    -1.901439     19.87931     65.89196        18     1.323     1.156 -46.03   0
       151    665.3115    296.6713 300.3291230 +22.6355786     734.2597     70.62279      2.086     6.67    -2.195009     19.87931     44.78164        12     1.329     0.938 -54.08   0
       152    860.4727    288.0993 300.3927106 +22.6916233     660.8577     70.60488      1.818     7.20    -1.978871     19.87931     44.62303        16     1.268     1.146 -77.95   0
       153    591.0893    288.5266 300.3086567 +22.6109831     593.3848     70.62279      2.435     7.67    -2.036087     19.87931     31.95367        11     1.387     1.187 -39.46   0
       154    989.1044    277.5663 300.4362354 +22.7271454     686.0474     70.46145      2.185     3.41    -2.146745     19.87931     62.93501         8     1.053     0.747 -19.48   0
       155    223.6530    271.9647 300.1997328 +22.4960017     346.3648     70.47939      1.807     5.71    -1.948852     19.87931     32.99685         8     1.134     0.810 -42.87   0
       156     85.3636    265.6812 300.1588014 +22.4526939     1288.111     70.42554      2.135     7.17    -2.174525     19.87931     97.20131        26     1.744     1.185 -65.40   0
       157    907.7056    262.5113 300.4157427 +22.6984277     428.5976     70.64069      1.900     4.29    -1.977413     19.87931     24.71168         6     1.102     0.476   8.88   0
       158    242.6302    258.8862 300.2098777 +22.4979444     3200.928     70.46145      2.026     4.23    -1.929933     19.87931     241.8169        38     1.569     1.397 -82.62   0
       159     27.0814    253.4947 300.1446550 +22.4317034     708.2144     70.62279      1.784     5.17    -2.242752     19.87931     60.25031        17     1.394     1.130 -82.13   0
       160    227.0053    250.4195 300.2077695 +22.4908266     293.6138     70.42554      1.669     4.20    -1.861522     19.87931      26.3998         5     0.782     0.642  89.12   0
       161    886.3436    239.9714 300.4164014 +22.6855498     2014.358     70.46145      1.907     4.27    -1.936428     19.87931     137.9939        29     1.426     1.284  40.57   0
       162    989.9589    238.4763 300.4491938 +22.7161680     1544.586     70.42554      1.845     4.25    -2.217462     19.87931      97.0313        25     1.285     1.233  61.53   0
       163    360.4836    227.1974 300.2568097 +22.5242110     363.3928     70.38962      1.852     5.16    -1.762472     19.87931     32.17856         5     1.083     0.694 -10.11   0
       164    487.6630    222.9801 300.2977447 +22.5611478     1061.181      70.4435      2.175     6.87    -1.417197     19.87931     58.93768        21     1.483     1.276 -58.93   0
       165    261.5950    202.9439 300.2339327 +22.4875834     3301.037     70.42554      2.025     4.41    -1.767251     19.87931     211.4909        42     1.580     1.508  69.29   0
       166    113.2379    203.0959 300.1877764 +22.4431089     455.6113      70.4435      1.989     5.17    -1.892495     19.87931     38.58555         6     1.353     0.559 -23.06   0
       167    507.3874    187.9855 300.3152418 +22.5570160     3585.356     70.38962      2.108     4.95    -1.456123     19.87931      238.769        41     1.568     1.548  -3.89   0
       168    394.1716    188.4588 300.2798621 +22.5231974     374.7844     70.46145      1.483     3.63    -1.526732     19.87931     29.62424         5     1.033     0.368 -85.14   0
       169    635.7184    167.9376 300.3616986 +22.5897366     3469.515     70.55112      2.192     4.94    -1.549478     19.87931      185.254        40     1.590     1.513  67.45   0
       170    411.5559    167.4409 300.2920912 +22.5223782     676.3514      70.5332      1.941     5.98    -1.397748     19.87931     41.81792        12     1.209     0.833 -65.20   2
       171    676.3938    165.4194 300.3751830 +22.6012066     483.5887     70.42554      2.008     4.74    -1.525395     19.87931     41.43896         9     1.337     0.814  64.65   0
       172    206.9094    157.7207 300.2316105 +22.4581992     1806.798     70.60488      0.907     2.92    -1.545604     19.87931     490.3805         8     0.802     0.425 -26.14   0
       173    679.9022    152.8331 300.3803604 +22.5986430     1492.729      70.4435      2.097     5.17    -1.498471     19.87931     95.95274        29     1.439     1.422 -29.70   0
       174    694.2126    151.8337 300.3851419 +22.6026453     496.6491      70.4435      2.086     5.24    -1.495733     19.87931     33.04807         8     1.008     0.770  -3.55   0
       175    766.1797    144.6235 300.4099010 +22.6221437     929.9025     70.46145      1.993     5.40    -1.487325     19.87931     56.70402        21     1.396     1.166   5.36   0
       176    510.1778    137.9294 300.3323550 +22.5434800     574.7473     70.49733      1.893     3.35    -1.407878     19.87931     52.38015         6     0.783     0.660 -18.88   0
       177    415.0036    135.8480 300.3034160 +22.5143425     342.4222      70.4435      1.347     4.63    -1.397402     19.87931     47.23886         6     1.353     0.449 -41.98   0
       178    185.4075    125.4644 300.2353944 +22.4424920     2237.271      70.4435      2.031     4.49    -1.607178     19.87931     152.0102        34     1.549     1.357 -75.48   0
       179    754.7789    126.1828 300.4123331 +22.6134288     333.1646      70.4435      1.874     4.43    -1.487325     19.87931     25.63363         5     0.778     0.718  42.88   0
       180    301.7422    117.7310 300.2740679 +22.4751718      457.212     70.47939      1.761     7.08    -1.494604     19.87931     39.40939        12     1.390     1.011 -29.48   0
       181    804.3854    108.9152 300.4333930 +22.6233326     1213.827     70.42554      2.018     5.13    -1.484079     19.87931     81.64655        22     1.458     1.184   4.96   0
       182    187.9156    104.5398 300.2429628 +22.4372399     683.8047     70.56905      2.162     5.78    -1.598359     19.87931     59.00334        11     1.029     0.915 -42.81   0
       183    979.5424    102.3224 300.4901359 +22.6739131      415.417     70.49733      1.614     5.80    -1.545763     19.87931     35.40536         8     1.180     0.804 -33.32   0
       184    752.9802    101.3770 300.4198216 +22.6057626     495.4453     70.46145      2.124     6.88    -1.487325     19.87931      33.4785         8     1.296     1.025  74.02   0
       185    605.8127     87.0881 300.3786214 +22.5575496      483.447     70.40759      1.697     4.29    -1.477305     19.87931     37.97045         6     1.233     0.425 -35.55   0
       186    576.9252     79.5553 300.3720716 +22.5467266     1086.169      70.4435      2.147     5.15     -1.44889     19.87931     66.18955        22     1.332     1.285  85.63   0
       187    534.2178     73.6537 300.3606918 +22.5322289     621.7788      70.4435      1.784     5.64    -1.415924     19.87931     57.84227        13     1.111     1.000  -7.83   0
       188    640.2731     69.8020 300.3949597 +22.5629131     690.8406     70.37165      1.948     6.99    -1.484869     19.87931     49.34617        11     1.409     0.971 -45.72   2
       189    460.6634     64.5504 300.3407540 +22.5075625     1207.985     70.51527      2.006     4.00    -1.409537     19.87931     79.06264        18     1.317     0.906 -46.53   2
       190    107.4936     61.6203 300.2318959 +22.4007956     687.8174     70.38962      1.770     4.38    -1.666012     19.87931     74.19561        13     1.157     1.000 -19.79   0
       191    168.5358     44.0313 300.2565685 +22.4140612     732.6309     70.46145      1.960     6.04    -1.607626     19.87931     49.21218        13     1.187     0.919 -61.77   0
       192    388.9134     32.8564 300.3287122 +22.4769481     1527.298     70.55112      0.550     1.17    -1.531451     19.87931     844.1462         7     0.538     0.382 -11.12   0
       193    647.5882     22.6749 300.4125247 +22.5515661     1395.957     70.47939      2.021     4.67     -1.48807     19.87931     100.4757        29     1.393     1.378   4.38   0
       194    743.7284     22.9017 300.4423970 +22.5804404     637.3267     70.60488      2.007     5.54    -1.670586     19.87931     45.42143        10     1.243     0.695 -36.78   0
       195    769.4785   1021.6313 300.1257983 +22.8748535     685.9244     64.71748      1.315     3.59    -4.863328     19.87931     74.97252        12     1.005     0.889  -4.61  16
