#   1 NUMBER                 Running object number                                     
#   2 X_IMAGE                Object position along x                                    [pixel]
#   3 Y_IMAGE                Object position along y                                    [pixel]
#   4 ALPHA_J2000            Right ascension of barycenter (J2000)                      [deg]
#   5 DELTA_J2000            Declination of barycenter (J2000)                          [deg]
#   6 FLUX_APER              Flux vector within fixed circular aperture(s)              [count]
#   7 FLUXERR_APER           RMS error vector for aperture flux(es)                     [count]
#   8 FLUX_RADIUS            Fraction-of-light radii                                    [pixel]
#   9 FWHM_IMAGE             FWHM assuming a gaussian core                              [pixel]
#  10 BACKGROUND             Background at centroid position                            [count]
#  11 THRESHOLD              Detection threshold above background                       [count]
#  12 FLUX_MAX               Peak flux above background                                 [count]
#  13 ISOAREA_IMAGE          Isophotal area above Analysis threshold                    [pixel**2]
#  14 A_IMAGE                Profile RMS along major axis                               [pixel]
#  15 B_IMAGE                Profile RMS along minor axis                               [pixel]
#  16 THETA_IMAGE            Position angle (CCW/x)                                     [deg]
#  17 FLAGS                  Extraction flags                                          
         1    162.6488      1.2741 300.2564928 +22.4141588     232.5251     54.20449      0.925     2.29    -1.838262     19.76634     64.36903         5     0.718     0.437  -8.95  24
         2    463.0045   1019.0327 300.0190660 +22.7962877      665.678     70.04317      1.281     2.52    -5.356263     19.76634     105.9491        11     1.026     0.687  35.71  16
         3    569.3409   1022.5536 300.0510100 +22.8292286     810.4639     60.40097      1.081     2.17    -5.171465     19.76634      130.191        13     0.869     0.773 -39.96  24
         4     71.1048   1007.3160 299.9010603 +22.6751916     1806.173     70.23924     10.815    21.93     2.215821     19.76634     51.90919        90     4.873     2.740 -61.94  19
         5    107.1810   1018.6848 299.9085628 +22.6892901     1672.772      69.9896     15.452    21.36     7.662845     19.76634     45.53238        81     3.848     3.295  23.86  27
         6    117.4392   1017.2854 299.9122052 +22.6919721     1459.496     70.04317     10.319    13.98     7.399743     19.76634     58.61641        36     3.055     1.780 -12.46  27
         7     84.8310    999.6833 299.9078095 +22.6771306     2335.312     70.06102     15.195    32.46     3.517049     19.76634     58.08266       219     6.802     4.301  -8.88  19
         8     88.1804    986.7626 299.9130579 +22.6744362     2056.122     70.07886      9.797    23.05     2.412206     19.76634     63.70552       126     5.558     2.654 -17.34   3
         9     86.2998   1016.2119 299.9028822 +22.6823063     2809.077     69.97173     16.910    41.04     5.467622     19.76634     69.31267       429     8.844     5.285 -22.14  27
        10    426.2014   1003.6738 300.0126197 +22.7808322     220.2213     69.95387      1.076     2.64      -5.3291     19.76634      48.4424         7     0.814     0.587 -83.58   0
        11    108.6624   1006.6424 299.9129454 +22.6862859     883.3445     70.06102      4.473     4.47     6.084231     19.76634     37.97704         5     0.807     0.705 -88.50   0
        12    939.9288    995.5428 300.1752542 +22.9327067      1221.26     70.07886      1.093     1.72    -5.877316     19.76634     221.6851        14     0.851     0.768  44.41   0
        13    728.1619    983.3649 300.1132282 +22.8656672     360.5717     70.13236      1.331     4.58    -5.152192     19.76634     56.45952         8     0.973     0.685  60.92   0
        14    393.7706   1017.1755 299.9981343 +22.7749618     3740.801     70.06102      1.210     1.98    -5.333646     19.76634     622.9368        25     1.006     0.925  71.87  16
        15    540.8523    980.0245 300.0559961 +22.8084806     264.9683     70.07886      1.216     3.98    -5.317555     19.76634     39.33999         5     0.774     0.666  85.83   0
        16    763.5202    978.8049 300.1257279 +22.8749710     429.0157      69.9896      1.102     2.22    -5.208966     19.76634     102.9951         9     0.820     0.656  17.41   0
        17    785.7702    972.4431 300.1347320 +22.8798231     6618.397      70.0967      1.124     1.94    -5.236252     19.76634     1046.854        28     0.983     0.922  50.48   0
        18    976.7093    972.0953 300.1943600 +22.9370114     319.5824     70.23924      1.158     2.56     -5.30847     19.76634     70.02542         7     0.903     0.628  16.11   0
        19     97.3106    964.4462 299.9231615 +22.6707872     376.3398     70.04317      1.186     2.80    0.4275341     19.76634     59.05926         9     1.025     0.571  79.62   0
        20    490.9242    960.9603 300.0466677 +22.7880232     253.8138     70.02531      1.204     3.68    -5.295896     19.76634     48.83279         7     0.973     0.617  61.26   0
        21     87.2152    955.7560 299.9228556 +22.6652641     121.5008     70.07886      0.923     3.76    -1.268217     19.76634     30.85183         5     0.916     0.443 -45.69   0
        22    794.2040    954.4446 300.1432217 +22.8771902      790.746     70.07886      1.186     2.16    -5.237417     19.76634     120.3209        13     0.863     0.816 -12.70   0
        23    977.5372    953.8259 300.2005686 +22.9320161     228.5009     70.06102      1.048     3.43     -5.24628     19.76634     46.66502         5     0.767     0.443  68.57   0
        24    832.2485    947.9259 300.1571995 +22.8867355     471.3293     70.06102      1.192     2.24    -5.355262     19.76634     82.89259         8     0.780     0.629  60.60   0
        25    880.8201    939.4633 300.1750936 +22.8988801     284.9077     70.04317      1.192     2.73    -5.358699     19.76634     50.48034         7     0.832     0.578  70.88   0
        26    732.2646    938.2867 300.1291875 +22.8539672     401.8494     70.15018      1.145     2.11    -5.215377     19.76634     89.65886         7     0.802     0.531  60.77   0
        27    444.9152    934.7874 300.0408761 +22.7667041     2498.944     70.00746      1.267     2.13    -5.193616     19.76634     391.8909        21     1.040     0.910  23.76   0
        28    223.5739    923.4618 299.9757381 +22.6969803     285.3561     70.06102      1.255     3.62    -4.440541     19.76634     39.32116         6     1.042     0.470 -10.37   0
        29    170.0375    920.5800 299.9600395 +22.6800713     405.7314     70.07886      1.114     2.88    -4.274436     19.76634     73.71747         8     0.785     0.687  72.21   0
        30    147.1810    917.9099 299.9538071 +22.6724393     887.1868      69.9896      1.198     1.92    -4.272552     19.76634     180.7576        12     0.951     0.760  44.36   0
        31   1018.7938    906.1924 300.2289472 +22.9307171     1251.758     69.91811      1.160     1.77    -5.356709     19.76634     226.0954        16     1.040     0.786 -64.35  16
        32    973.0152    904.8251 300.2151161 +22.9165947     1144.825     70.07886      1.077     1.85    -5.254174     19.76634     248.9771        13     0.878     0.704 -68.40   0
        33    678.6295    904.3295 300.1235400 +22.8281293     190.9952     70.06102      1.151     3.84    -5.221114     19.76634     32.25845         5     1.024     0.413 -74.49   0
        34    756.3327    898.5626 300.1496204 +22.8497927      365.635     70.04317      1.274     3.46     -5.13203     19.76634      60.5218         6     0.724     0.671 -81.08   0
        35    624.8422    892.8527 300.1105283 +22.8086940     2775.344     70.06102      1.250     2.11     -5.18487     19.76634     436.4785        20     0.963     0.893  87.69   0
        36    114.6894    893.6602 299.9516079 +22.6557292     304.2574     70.15018      1.361     2.49    -4.489177     19.76634     38.89714         5     0.715     0.447  16.36   0
        37    426.9387    889.9154 300.0498943 +22.7484409     367.4737     70.18582      1.279     2.86    -4.875891     19.76634     44.15934         6     0.755     0.552  37.02   0
        38    175.1018    886.8765 299.9725860 +22.6719349     839.4604     70.20364      1.237     2.41    -4.542871     19.76634     136.9271        13     0.977     0.781  63.72   0
        39    645.1883    885.1599 300.1193680 +22.8125938     452.4003     70.04317      1.180     3.20    -5.190786     19.76634     73.66723        11     0.998     0.794   4.40   0
        40   1017.6109    872.6130 300.2395120 +22.9207220     623.2576     69.97173      1.053     2.12    -5.616443     19.76634     89.98016         8     0.811     0.562 -75.85   0
        41    800.8506    872.4756 300.1719841 +22.8556644     2310.122     70.06102      1.148     2.08    -4.931821     19.76634      361.514        17     0.919     0.831   6.10   0
        42    209.6790    866.9079 299.9898316 +22.6765988     334.4979     70.18582      1.256     3.17    -4.642781     19.76634     44.06979         7     0.829     0.607 -62.46   0
        43    517.8340    865.1200 300.0862480 +22.7686195     386.0933     70.00746      1.239     3.90    -4.998491     19.76634     52.58146         6     0.738     0.590 -62.23   0
        44    164.2338    863.5068 299.9768166 +22.6619730     463.5738     70.00746      1.044     2.12    -4.724624     19.76634     93.66096         9     0.800     0.632  80.85   0
        45    579.5731    858.3713 300.1076610 +22.7852160     321.0105     70.04317      1.507     4.52    -5.046748     19.76634     40.29609         6     1.034     0.562 -56.88   0
        46    313.9586    855.3286 300.0260167 +22.7045990     31101.58     70.04317      1.308     2.25    -4.660331     19.76634     4373.854        69     1.228     1.137  70.09   0
        47    571.7632    854.1604 300.1066007 +22.7816640     1105.173     70.13236      1.242     2.33    -5.023918     19.76634     150.8047        15     1.026     0.799 -55.28   0
        48    984.3181    853.1419 300.2354684 +22.9051476     595.9783     70.11453      1.294     2.22    -5.447067     19.76634     88.58287         7     0.673     0.655   4.30   0
        49    242.0046    853.5487 300.0042272 +22.6824792     349.7265     70.06102      1.256     3.69    -4.656513     19.76634     36.37529         6     0.789     0.495   4.31   0
        50    600.9123    850.1816 300.1169700 +22.7892715     495.5463     70.00746      1.192     2.34    -4.988341     19.76634     78.28929         8     0.746     0.668 -19.77   0
        51    611.6605    848.7592 300.1207793 +22.7920893     324.9297     70.06102      1.105     3.36    -4.984565     19.76634     56.31604         5     0.778     0.421  70.63   0
        52    716.7521    844.5297 300.1548823 +22.8224126     247.6386     70.04317      1.318     3.74    -4.985919     19.76634     40.42779         7     0.925     0.556  57.68   0
        53    754.2523    835.0779 300.1696406 +22.8309520     477.3864     70.07886      1.158     2.65    -4.847354     19.76634     64.32965         8     0.780     0.665 -36.89   0
        54    363.5909    832.5211 300.0488743 +22.7129639     18113.36     70.02531      1.312     2.33    -4.637016     19.76634     2338.161        50     1.189     1.076  73.88   0
        55    377.7937    833.0421 300.0531219 +22.7173778     1267.648      70.0967      1.426     2.45     -4.64809     19.76634     165.3477        19     1.090     0.949  33.89   0
        56    886.5205    828.0483 300.2131463 +22.8686127      1584.92     70.06102      1.208     2.20    -4.687406     19.76634     260.9425        18     0.992     0.868 -86.68   0
        57    374.7654    827.0209 300.0541399 +22.7147421     466.4771     70.07886      1.648     3.74    -4.645717     19.76634     39.26673         5     0.814     0.494 -34.72   0
        58    644.6415    824.4751 300.1389529 +22.7950203     571.7281     70.04317      1.202     2.32    -4.852569     19.76634     73.14312         9     0.799     0.711 -18.12   0
        59    481.1805    824.7589 300.0879802 +22.7460411     230.4013      70.0967      1.242     4.37    -4.581248     19.76634     35.01471         5     0.753     0.721  43.58   0
        60    246.1945    824.3360 300.0150380 +22.6753640     555.3356     70.04317      1.457     3.01    -4.695897     19.76634     73.13255         8     0.903     0.655  61.58   0
        61    492.0169    819.3876 300.0931004 +22.7477535     460.2472     70.00746      1.290     2.90    -4.585719     19.76634     65.13007        10     0.936     0.719  48.46   0
        62     50.5160    819.9899 299.9556549 +22.6153402     233.0961     70.02531      1.255     2.96    -4.845284     19.76634     56.67363         6     0.990     0.622  34.32   0
        63    892.6703    815.9462 300.2190026 +22.8669833     353.7018      70.0967      1.066     2.33     -4.63036     19.76634     54.58543         7     0.724     0.609 -77.21   0
        64    349.4987    814.6841 300.0502974 +22.7036183     156.9625     70.22144      1.036     3.46    -4.632079     19.76634     41.46215         5     0.958     0.477  48.53   0
        65    437.7595    813.9261 300.0779966 +22.7298996     164.0136     70.04317      1.068     2.58    -4.622568     19.76634     37.58147         5     0.758     0.488 -34.40   0
        66     79.1073    814.0897 299.9664552 +22.6222391     443.7093     70.22144      1.513     2.56     -4.77014     19.76634     55.27503         8     0.788     0.665 -45.91   0
        67    870.2054    810.5697 300.2137502 +22.8587019     312.7937     70.06102      1.061     3.44    -4.581895     19.76634     38.21398         5     0.761     0.450 -19.65   0
        68    243.7924    808.3536 300.0194930 +22.6700611     293.4979     70.07886      1.216     3.01    -4.716993     19.76634     51.80797         7     0.944     0.631  77.62   0
        69    536.5908    797.3878 300.1141322 +22.7548223      406.918     69.93599      1.320     3.02    -4.623303     19.76634     70.11105         8     0.859     0.718 -71.77   0
        70    558.6053    794.6803 300.1218653 +22.7606528     887.4576      69.9896      1.530     3.14    -4.641726     19.76634     99.41021        13     1.008     0.842 -87.48   0
        71    952.9555    793.4597 300.2451163 +22.8786073     2677.659     70.07886      1.190     2.08    -4.834291     19.76634      415.764        22     0.980     0.913   2.23   0
        72    941.4214    784.7899 300.2443418 +22.8726593     975.1586     70.04317      1.185     2.36    -4.588887     19.76634     156.9281        14     0.917     0.860 -44.81   0
        73    304.5830    779.0176 300.0479382 +22.6799055     380.9235     70.04317      1.277     2.62    -4.440042     19.76634     67.65709        10     0.859     0.767  24.53   0
        74    767.6240    776.2621 300.1929497 +22.8180841     1431.531     70.04317      1.374     2.47    -4.492048     19.76634     178.4962        16     0.952     0.905  22.68   0
        75    972.5366    774.8341 300.2572839 +22.8791311     1019.227     70.06102      1.191     2.01    -4.938607     19.76634     158.4688        16     0.975     0.818  53.52   0
        76    153.2713    762.9086 300.0061499 +22.6298482     402.2511     70.22144      1.291     3.60    -4.766987     19.76634     52.52452        11     0.992     0.757  -9.52   0
        77    849.9899    761.9191 300.2232832 +22.8386728     311.6452     70.00746      1.028     2.35    -4.238678     19.76634     47.38674         5     0.655     0.519 -89.71   0
        78    886.0609    753.0986 300.2373966 +22.8469586      86152.8     70.13236      1.305     2.19    -4.169467     19.76634     12867.85       104     1.248     1.174  82.93   0
        79    738.6042    753.4242 300.1913410 +22.8028240      397.703     70.02531      1.165     2.59    -4.577409     19.76634     64.42596         8     0.811     0.700  34.82   0
        80    919.3915    745.8221 300.2501548 +22.8548646     195.2305     70.06102      1.054     2.38    -4.115104     19.76634     46.67994         5     0.715     0.442 -68.49   0
        81    572.7283    742.1843 300.1433445 +22.7498305     995.0957     70.06102      1.412     2.60     -4.28557     19.76634     128.3786        18     1.152     0.933  29.88   0
        82    753.6239    739.4036 300.2005823 +22.8033053     5380.831     70.02531      1.322     2.45    -4.431506     19.76634     626.3499        29     1.075     1.038  72.75   0
        83    255.3551    734.7139 300.0470494 +22.6524214     2832.526     70.04317      1.376     2.50    -4.361804     19.76634      334.314        25     1.107     1.037  84.80   0
        84    337.3961    732.9287 300.0731377 +22.6765415     606.4816     70.00746      1.226     2.88    -3.886573     19.76634     92.22565        12     0.933     0.853 -14.59   0
        85    213.1087    730.3110 300.0353506 +22.6384736     374.0273     70.22144      1.325     4.60    -4.628132     19.76634     37.17814         8     1.228     0.490  20.18   0
        86    545.6022    727.7886 300.1395849 +22.7375602     479.8644     69.88233      1.625     2.98    -4.219097     19.76634     59.51675         8     0.888     0.653  32.14   0
        87    537.0989    720.3177 300.1393690 +22.7328650     1955.496     70.22144      1.415     2.84    -4.162258     19.76634     203.2963        20     1.088     0.967  55.50   0
        88    527.5189    713.9567 300.1384569 +22.7281652     850.1057     70.04317      1.472     3.02    -4.110602     19.76634     103.2723        14     1.080     0.821  68.59   0
        89    921.0607    711.3842 300.2618807 +22.8454766     260.2091     70.02531      1.441     4.41    -4.015333     19.76634     36.80509         5     1.035     0.534 -71.33   0
        90    190.5146    710.2527 300.0348543 +22.6259382     392.4343     70.07886      1.391     4.54    -4.508184     19.76634     56.79565        10     1.103     0.900 -43.03   0
        91    205.0948    708.7750 300.0398662 +22.6298927       301.26      69.9896      1.303     3.51    -4.488736     19.76634     43.65108         8     0.924     0.713 -79.44   0
        92    452.3494    704.1801 300.1182465 +22.7028015     1081.334     70.04317      1.560     2.86    -3.929285     19.76634     134.3482        17     1.267     0.888  77.95   0
        93    230.6096    705.4899 300.0488650 +22.6366122     367.5358     70.00746      1.610     3.82    -4.404723     19.76634     39.94708         5     1.067     0.393 -73.07   0
        94    974.2228    705.0615 300.2805139 +22.8596004     312.8103     70.04317      1.249     3.60    -4.315531     19.76634     46.57325         6     0.787     0.579 -11.50   0
        95    106.3227    698.9549 300.0123701 +22.5974160     11138.71     70.04317      1.352     2.44    -4.384873     19.76634     1301.945        42     1.201     1.070  78.53   0
        96     27.1622    700.6522 299.9872309 +22.5741264     400.2685     70.07886      1.387     3.86    -4.009467     19.76634     48.11429         6     0.742     0.642  88.00   0
        97    537.2957    699.0143 300.1463610 +22.7268119     642.8832      69.9896      1.593     3.74    -4.087523     19.76634      65.0593        11     1.075     0.742  55.88   0
        98    571.8754    698.6656 300.1572379 +22.7370879     217.0006     70.13236      1.220     3.15    -4.112925     19.76634     33.67602         6     0.739     0.622 -64.76   0
        99    954.9833    684.9977 300.2810420 +22.8480702     666.8547     69.97173      1.364     3.32    -4.102167     19.76634     102.1991        11     1.131     0.710 -44.71   0
       100     52.3763    683.1636 300.0007500 +22.5766874     866.1606     70.07886      1.705     5.06    -4.068299     19.76634     83.17423        18     1.617     0.822 -76.54   0
       101    821.7753    683.4253 300.2400298 +22.8076763     222.4567     70.02531      1.280     4.65    -3.819086     19.76634     31.25516         8     1.045     0.588  68.15   0
       102    500.3778    679.1609 300.1413299 +22.7100374     257.6186      70.0967      1.118     3.05    -3.908328     19.76634     34.10992         5     0.733     0.450  71.83   0
       103    895.2197    677.8105 300.2647476 +22.8280876     428.5854     70.04317      1.481     3.89    -3.894049     19.76634     40.28605         6     0.765     0.566 -40.33   0
       104    457.2827    671.6526 300.1303626 +22.6949507     360.3805      70.0967      1.438     4.93     -3.82955     19.76634     42.33061         9     0.887     0.795  50.85   0
       105    605.7344    670.1179 300.1770653 +22.7390546     333.4925     70.16801      1.328     4.80    -3.988285     19.76634     40.75105         7     0.858     0.761  44.00   0
       106    652.6159    668.8187 300.1920854 +22.7527461     269.1964     70.04317      1.284     3.35     -4.01021     19.76634     36.63654         5     0.809     0.403  67.15   0
       107    622.7047    668.5547 300.1828575 +22.7436972     282.1096     70.07886      1.490     4.74    -3.988573     19.76634     33.54871         7     1.059     0.834 -22.54   0
       108    501.6123    667.8615 300.1453896 +22.7071659     527.9038     70.02531      1.479     3.30    -3.855761     19.76634     55.14568         9     0.847     0.741 -34.22   0
       109    466.8723    663.4792 300.1360049 +22.6954837     1002.363     70.18582      1.530     3.19    -3.770109     19.76634      102.367        15     1.054     0.901 -83.42   0
       110    935.0131    663.1597 300.2819195 +22.8358113      1828.06     70.07886      1.296     2.37    -3.998546     19.76634     256.3329        18     0.983     0.872  49.56   0
       111     29.0228    657.1794 300.0019485 +22.5622254     2845.344     70.06102      1.352     2.47    -3.995896     19.76634     359.0518        25     1.105     0.990 -85.92   0
       112    330.4464    650.1669 300.0978987 +22.6507194     5287.714      70.0967      1.426     2.54    -3.933422     19.76634     622.9078        36     1.204     1.121  75.91   0
       113    452.8595    647.0851 300.1369772 +22.6865751     5069.452     70.16801      1.461     2.91    -3.676584     19.76634     530.0264        34     1.206     1.110  77.07   0
       114    864.2800    640.9241 300.2671019 +22.8082184     949.7161     70.16801      1.343     2.84    -3.661906     19.76634     118.6334        15     1.053     0.813  83.24   0
       115    948.9479    638.2271 300.2943743 +22.8328281     7233.502     70.07886      1.316     2.33    -3.986009     19.76634     978.9183        34     1.107     1.068  86.17   0
       116    513.3411    636.6658 300.1591862 +22.7017342     6593.034      70.0967      1.491     2.82    -3.623069     19.76634     716.6047        36     1.199     1.153  68.05   0
       117    240.9730    632.2256 300.0759162 +22.6187151     852.1758     70.02531      1.358     2.92    -4.139207     19.76634     98.44888        12     0.951     0.797  57.95   0
       118    445.1451    624.8973 300.1417932 +22.6778943     2572.427     70.15018      1.487     2.87    -3.554081     19.76634     253.3014        24     1.150     1.043  57.82   0
       119    787.9661    624.8126 300.2485597 +22.7807089     434.2424     70.04317      1.289     3.46    -3.766056     19.76634      56.3525         9     0.938     0.677  77.90   0
       120    423.5800    623.1922 300.1356386 +22.6709336      845.906     70.02531      1.674     3.59    -3.575755     19.76634     77.52967        15     1.055     0.988 -21.51   0
       121    177.9208    622.9151 300.0593474 +22.5971154     365.2651     70.20364      1.163     2.86    -4.166092     19.76634     75.71432        10     1.055     0.630 -86.02   0
       122    864.6278    620.1102 300.2739800 +22.8023455     802.6935     70.04317      1.458     2.86     -3.58342     19.76634     112.3796        13     1.005     0.820 -51.75   0
       123    561.6270    612.4187 300.1821006 +22.7092631     117576.5     70.07886      1.543     2.92    -3.417115     19.76634     11647.17       144     1.443     1.417 -37.33   0
       124    745.3588    617.1230 300.2377859 +22.7657238     524.4106     70.02531      1.586     2.78    -3.710328     19.76634     52.43246         8     0.881     0.648   8.54   0
       125    247.9150    612.5602 300.0844691 +22.6151593     2049.442     70.04317      1.525     2.70    -4.112034     19.76634     228.9102        23     1.150     1.057  82.73   0
       126    476.8342    604.4188 300.1583127 +22.6815273      1241.48     70.06102      0.671     0.82    -3.389065     19.76634     573.6978         5     0.493     0.420  89.48   0
       127    452.3525    592.8102 300.1544700 +22.6708505     1519.508     70.07886      1.637     3.13    -3.421508     19.76634     146.8736        23     1.320     1.016 -88.57   0
       128    849.0610    578.8795 300.2825365 +22.7858375     985.5889     70.13236      1.403     3.14    -3.563221     19.76634     131.9882        16     1.223     0.822  51.08   0
       129    720.2390    576.4915 300.2431738 +22.7465249     1595.202     70.06102      1.583     3.10    -3.570004     19.76634     141.7767        22     1.142     1.064 -17.66   0
       130    964.9315    572.6437 300.3206871 +22.8187809     323.2139     70.02531      1.603     4.14    -3.770115     19.76634     34.43719         5     0.836     0.585  82.82   1
       131    507.5561    572.3715 300.1782937 +22.6815483     362.3081      70.0967      1.550     4.87    -3.288018     19.76634     45.06713        11     1.098     0.915  69.84   0
       132    977.5755    570.4238 300.3253519 +22.8219329     792.1088     70.02531      1.442     2.78    -3.782979     19.76634     96.38749        14     1.011     0.823  53.61   0
       133    849.5184    569.1405 300.2858458 +22.7831776     1211.921     70.15018      1.457     3.18    -3.548839     19.76634     114.7333        19     1.204     0.997 -11.49   0
       134    963.2325    569.1805 300.3212834 +22.8172767     395.5501     70.06102      1.287     3.13    -3.744973     19.76634     56.42614         9     0.906     0.660 -23.98   0
       135    887.4633    563.8077 300.2994073 +22.7930214     2436.897     70.04317      1.356     2.61    -3.562353     19.76634     284.8665        21     1.048     0.973  71.67   0
       136    602.8267    563.7358 300.2107569 +22.7076490      346.204     70.04317      2.023     4.26    -3.302678     19.76634     34.41488         5     1.127     0.721  81.83   0
       137    979.4178    554.0938 300.3312362 +22.8177937     598.2562      69.9896      1.591     3.64    -3.710303     19.76634      70.5155        12     1.067     0.892  88.97   0
       138    119.8301    554.5323 300.0635318 +22.5600659     503.2403     70.04317      1.336     3.75     -4.01693     19.76634     81.71288        11     1.062     0.784 -89.32   0
       139    660.9264    534.5923 300.2383231 +22.7167080     608.5314     70.02531      1.714     3.60    -3.217862     19.76634     54.94979        11     0.975     0.825  11.96   0
       140    975.7271    527.1295 300.3388521 +22.8089407     344.6131     70.13236      1.453     4.20    -3.451116     19.76634     32.93794         6     0.771     0.653  14.00   0
       141    721.8298    526.4372 300.2599434 +22.7326298     435.5592     70.07886      1.426     4.50    -3.446237     19.76634     51.96815        10     1.075     0.725  85.53   0
       142    878.8886    522.8051 300.3100654 +22.7786734     611.7295     69.97173      1.508     3.23    -3.514499     19.76634     65.19531        11     0.956     0.791 -16.05   0
       143    863.2433    518.7279 300.3065141 +22.7728125     483.5985     70.04317      1.677     2.82    -3.515249     19.76634     44.19985         7     0.828     0.582  30.69   0
       144    607.5720    517.2801 300.2273374 +22.6957364     1877.532     70.07886      1.599     3.35     -3.09533     19.76634     163.7167        22     1.173     1.074   9.46   0
       145    447.5091    504.6172 300.1816356 +22.6440891     146.9243      69.9896      1.116     3.87    -3.091141     19.76634     30.63295         5     1.054     0.406  15.92   0
       146   1018.6416    496.1629 300.3623032 +22.8129035     749.0475     70.15018      1.282     2.93    -2.708642     19.76634     89.32701        11     0.876     0.806 -17.89  16
       147    890.3707    495.9288 300.3223817 +22.7743946     298.2574     70.06102      1.360     3.16    -3.514136     19.76634     49.73311         5     0.830     0.498 -32.98   0
       148    976.9587    494.8848 300.3497186 +22.8000454     571.0288     70.02531      1.459     2.91    -3.072393     19.76634     79.08549         8     0.971     0.522  56.87   0
       149    718.1990    491.1840 300.2702723 +22.7214178     605.7167     69.93599      1.459     2.79    -3.352631     19.76634     64.27412        10     0.867     0.738   5.68   0
       150    222.2499    490.2284 300.1162615 +22.5723676      543.169     70.07886      1.709     2.95    -3.689295     19.76634     59.99217         8     0.890     0.751 -69.19   0
       151    284.5893    485.4419 300.1371966 +22.5897031     2079.174     70.06102      1.543     3.18    -3.440774     19.76634     216.4492        22     1.126     1.068 -78.74   0
       152   1017.4686    483.3563 300.3661002 +22.8088719     2462.259     70.02531      1.342     2.48    -2.445729     19.76634     263.4803        23     1.059     1.001 -73.00  16
       153    231.8604    480.2175 300.1225024 +22.5723802     4330.072     70.00746      1.528     2.97    -3.586232     19.76634     418.2473        34     1.275     1.137  76.42   0
       154    372.5877    474.3140 300.1681783 +22.6129150     2750.668     70.00746      1.632     3.14    -3.104434     19.76634     264.8138        27     1.268     1.133  80.23   0
       155    997.3564    474.4500 300.3627223 +22.8002860     1106.717      70.0967      1.369     2.74    -2.654888     19.76634     134.5161        15     1.096     0.829 -78.74   0
       156    616.6494    470.8970 300.2452403 +22.6851421      10533.7     70.11453      1.596     3.18    -2.857493     19.76634     939.9415        49     1.333     1.278  65.05   0
       157    634.0094    471.1413 300.2505664 +22.6904181     445.4656     70.02531      1.583     5.14    -2.854686     19.76634     37.52338        12     1.250     0.747 -45.50   0
       158    950.1635    453.1876 300.3549161 +22.7800345     305.3678     70.04317      1.233     3.78    -3.091326     19.76634     46.20405         6     0.759     0.618  -4.78   0
       159    171.4464    451.3604 300.1131038 +22.5459703     1142.243     70.13236      1.552     3.38    -3.558408     19.76634     115.1488        19     1.192     1.014 -49.82   0
       160    557.2979    440.3078 300.2367040 +22.6585607     3733.234     70.23924      1.652     3.27    -2.922734     19.76634     338.2046        35     1.341     1.206  69.52   0
       161    970.7814    440.3755 300.3655093 +22.7825313     622.6599     70.07886      1.435     3.72    -2.856036     19.76634     69.02697        14     1.054     0.931 -84.53   0
       162    272.5087    440.1631 300.1481555 +22.5730869     371.7126     70.02531      1.559     4.36    -3.142895     19.76634     35.03271         8     0.881     0.693  40.42   0
       163    761.3685    429.2325 300.3038556 +22.7165674     704.9529     70.07886      1.861     4.87    -3.028099     19.76634      53.7627        15     1.244     1.000 -43.53   0
       164    670.3239    430.2365 300.2751688 +22.6895609     344.5828     70.02531      1.740     4.50     -2.82716     19.76634     34.43526         5     0.793     0.725 -71.03   0
       165    463.9587    426.7486 300.2120609 +22.6266736     3592.331     70.06102      1.613     3.31    -2.934046     19.76634     328.4914        28     1.271     1.127  70.88   0
       166    855.9172    420.6806 300.3360985 +22.7424503     825.8582     70.20364      1.551     3.89    -3.407353     19.76634     69.60065        14     1.081     0.908  84.53   0
       167    952.8921    420.7218 300.3663178 +22.7715231     186.6931     70.20364      1.091     2.62    -2.895831     19.76634     52.49652         5     0.759     0.410  16.51   0
       168    448.5710    415.7687 300.2108408 +22.6189063     121.9941     70.06102      1.079     3.78    -2.932951     19.76634     29.03832         5     1.006     0.407  -6.79   0
       169    828.7589    408.5217 300.3315851 +22.7308175     316.7194     70.04317      1.575     4.75    -3.189781     19.76634      30.7256         6     0.938     0.681 -81.02   0
       170    351.5742    406.2067 300.1837746 +22.5870652      1463.64     70.06102      1.678     3.64    -2.938343     19.76634     121.9862        22     1.265     1.089 -80.80   0
       171     70.1807    403.5029 300.0971915 +22.5018482     500.5534      69.9896      1.364     3.88    -3.467201     19.76634     65.00798        11     1.124     0.699  60.40   0
       172    320.9340    395.4725 300.1777335 +22.5747924     17028.41      70.0967      1.612     3.18    -2.967413     19.76634     1532.455        55     1.399     1.271  76.53   0
       173    855.5402    392.4060 300.3451686 +22.7342138     824.6323     70.02531      1.602     4.66    -3.251925     19.76634     82.75451        16     1.263     0.954 -32.75   0
       174     17.3081    383.4447 300.0872862 +22.4802244     2833.043     70.04317      1.461     2.73        -3.17     19.76634     285.9929        26     1.202     1.044 -87.94   0
       175    195.6246    382.7781 300.1429013 +22.5335513     251.2542     70.02531      1.156     3.70    -3.280454     19.76634     26.77696         5     0.971     0.405  -6.17   0
       176    770.7299    381.3498 300.3223310 +22.7056188     276.1965     70.06102      1.621     4.42    -2.938618     19.76634     27.03531         6     1.043     0.532 -31.74   0
       177    731.1593    374.9480 300.3120826 +22.6919189     1054.516     70.07886      1.516     3.46    -2.840332     19.76634     96.89606        19     1.161     0.990  25.75   0
       178    946.3602    367.5293 300.3815647 +22.7542795      316.673     70.02531      1.427     4.31    -2.894546     19.76634     32.80901         7     0.873     0.677 -62.15   0
       179    392.9973    359.8467 300.2117202 +22.5861847       1133.5     70.06102      1.747     4.52    -2.885056     19.76634     93.21898        20     1.325     1.099  54.51   0
       180    832.2537    352.5141 300.3508712 +22.7157732     343.2131     70.11453      1.345     3.08    -3.020906     19.76634     50.60966         7     0.943     0.701  45.04   0
       181    714.5942    350.0144 300.3150226 +22.6797911     203.4414     69.95387      1.448     4.28    -2.824894     19.76634     24.90752         5     0.816     0.640  -1.92   0
       182    468.9045    339.1595 300.2420563 +22.6030116     639.2292     70.06102      1.516     3.65    -2.880877     19.76634     61.49817        10     0.926     0.746 -13.59   0
       183    713.5607    330.7977 300.3209430 +22.6739611     1183.604     70.07886      1.522     3.36    -2.840385     19.76634      116.156        18     1.150     0.971  53.92   0
       184    974.8433    324.9205 300.4042887 +22.7505665     1700.321     70.04317      1.413     2.79    -2.777666     19.76634     200.4816        19     1.062     0.987  87.38   0
       185    421.7810    315.4724 300.2350882 +22.5820788     313.1144     70.06102      1.456     4.85    -2.898473     19.76634     31.07287         8     0.958     0.804  26.84   0
       186     97.1069    309.4605 300.1361035 +22.4829526     622.9543     70.15018      1.569     3.64    -3.129947     19.76634     78.98624        13     1.230     0.874 -48.57   0
       187    127.7822    309.2329 300.1457078 +22.4920924     226.3609     70.04317      1.297     3.82    -3.141857     19.76634     31.91413         5     0.942     0.445 -45.34   0
       188     36.4593    298.1281 300.1209450 +22.4615011     164.1285      70.0967      1.179     5.90    -2.946725     19.76634     28.37896         6     1.061     0.922  62.75   0
       189    785.1854    291.9813 300.3558656 +22.6842749     452.7645     70.04317      1.797     5.53    -2.964332     19.76634     32.58888        10     0.977     0.882 -27.31   0
       190    883.4045    280.9943 300.3900457 +22.7105472      1158.25     69.91811      1.544     3.42    -2.869292     19.76634     107.0398        20     1.204     1.034  68.60   0
       191    302.0132    278.7485 300.2097636 +22.5356150     1317.363      70.0967      1.647     4.12    -3.068937     19.76634     103.9771        20     1.343     0.963 -88.32   0
       192    379.6181    274.3437 300.2353292 +22.5576262     531.1958     70.04317      1.680     4.25     -2.92629     19.76634     45.10636        10     1.125     0.711  61.29   0
       193    197.0835    266.0295 300.1812735 +22.5004880     368.1087     70.07886      1.282     4.08    -3.099235     19.76634     44.06384         9     0.912     0.773   3.71   0
       194    734.3651    262.7740 300.3495168 +22.6606531     951.1799     70.07886      1.637     3.50    -2.870472     19.76634     79.61887        16     1.030     0.995  71.64   0
       195    799.4698    262.7282 300.3698170 +22.6801492     305.0903     70.13236      1.623     3.46    -3.031001     19.76634      34.6891         5     0.733     0.472 -73.24   0
       196   1006.1666    255.1508 300.4367180 +22.7398922     521.7417      70.0967      1.514     4.04       -2.798     19.76634     51.02525         9     0.896     0.743   8.39   0
       197    658.9762    253.5905 300.3290166 +22.6354205     697.0994     70.06102      1.555     3.57    -2.885592     19.76634     73.24242        16     1.153     0.985  34.92   0
       198    585.4319    245.5775 300.3087180 +22.6110745     470.1786     70.06102      1.496     3.49    -2.944594     19.76634     52.24079        12     0.924     0.905 -20.14   0
       199    854.5079    244.6479 300.3928414 +22.6914434     736.9465     70.07886      1.630     3.50    -3.038804     19.76634     81.24214        16     1.226     0.866  22.93   0
       200    866.2849    243.8645 300.3967667 +22.6947465     474.2777     70.15018      1.785     3.07     -3.03491     19.76634     47.10362         7     0.841     0.586  55.91   0
       201    983.1533    234.1543 300.4363585 +22.7269629     538.2656      70.0967      1.314     3.04    -2.811663     19.76634     63.46325         9     0.871     0.716  78.49   0
       202     79.4191    222.4664 300.1588560 +22.4526849     1233.922     70.02531      1.558     2.92    -2.989073     19.76634     141.9168        20     1.201     1.035 -77.95   0
       203    902.1201    218.7522 300.4160919 +22.6982633     469.3581     70.07886      1.701     4.73    -2.952109     19.76634     45.39983        10     1.198     0.698  38.74   0
       204    236.7027    215.7897 300.2099003 +22.4979532      3253.35     69.95387      1.631     3.03    -3.049004     19.76634     320.8956        32     1.295     1.170 -58.29   0
       205     20.8301    210.1057 300.1446704 +22.4315582     670.7893     69.97173      1.425     3.43    -2.817273     19.76634     85.88958        15     1.114     0.901  78.46   0
       206    220.5883    206.2863 300.2079763 +22.4903917     375.4145     70.00746      1.599     5.15    -2.959406     19.76634     37.24395         8     1.117     0.672  86.53   0
       207    880.6323    196.8966 300.4164889 +22.6855439       1871.4     70.02531      1.503     3.11    -2.957126     19.76634     180.3746        23     1.129     1.081  40.25   0
       208    984.0122    195.4730 300.4491855 +22.7160987     1635.049     70.07886      1.420     2.82    -2.703793     19.76634      192.465        24     1.172     1.137 -79.12   0
       209    354.6995    184.3210 300.2568063 +22.5243064     441.2471     70.18582      2.031     5.54    -2.732276     19.76634     30.09985         8     1.312     0.659 -25.42   0
       210    120.8078    181.3207 300.1850712 +22.4532947     429.6702     70.00746      1.855     4.76    -2.682519     19.76634     44.85972         7     1.184     0.595  83.00   0
       211    481.5416    179.7981 300.2977364 +22.5610372     1121.405     70.00746      1.740     3.81    -2.455608     19.76634     100.7783        21     1.226     1.144 -35.19   0
       212    255.6563    159.7403 300.2339866 +22.4875477     3481.003     70.13236      1.628     3.02    -2.586174     19.76634     369.4622        30     1.271     1.152 -86.57   0
       213    107.1659    158.9073 300.1881075 +22.4427697     464.6479     70.00746      2.188     4.31    -2.485846     19.76634     43.93282         8     1.104     0.757  81.73   0
       214    501.6253    144.9020 300.3153135 +22.5570340     3472.693     70.02531      1.670     3.49    -2.535112     19.76634     287.4784        38     1.369     1.288 -79.46   0
       215    387.3771    144.5387 300.2798832 +22.5226803     354.7443     70.04317      1.636     3.10    -2.501765     19.76634     41.23856         5     0.914     0.510 -43.49   0
       216    604.4300    137.6002 300.3496860 +22.5857482     1202.232     70.02531      0.803     0.89     -2.60963     19.76634     557.9513         5     0.644     0.367 -51.16   0
       217    754.2869    134.8434 300.3972561 +22.6298581     515.7097     70.04317      1.848     3.95    -2.532206     19.76634     40.53142        10     1.135     0.819 -49.34   0
       218    629.8424    124.8539 300.3617358 +22.5897009     3723.495     70.06102      1.688     3.43    -2.485153     19.76634     300.5713        30     1.290     1.187 -84.83   0
       219    405.0424    123.8705 300.2920864 +22.5220405      803.459     70.02531      1.655     5.37    -2.476946     19.76634     75.73592        17     1.335     1.077  12.84   0
       220    670.8317    122.5550 300.3752470 +22.6013225     482.2768     70.11453      1.500     3.94    -2.437182     19.76634     42.31691         9     0.901     0.699 -75.14   0
       221    153.8392    116.7777 300.2162825 +22.4446775     372.6376      70.0967      1.490     3.39    -2.328002     19.76634     34.99414         6     0.762     0.555  49.49   0
       222    956.7565    115.2249 300.4667341 +22.6848614     356.9542      70.0967      1.470     4.37    -2.674055     19.76634     32.88573         7     0.890     0.611  55.65   0
       223    674.1984    109.6706 300.3804770 +22.5986284       1495.6      69.9896      1.629     3.54    -2.313876     19.76634     147.6019        20     1.167     1.085  11.53   0
       224    688.9559    108.2003 300.3855507 +22.6026275     542.9904     70.06102      2.014     4.64    -2.280252     19.76634     40.20649         7     0.857     0.714  66.87   0
       225    760.4137    101.5399 300.4099733 +22.6221209      822.499     70.02531      1.647     3.41    -2.291448     19.76634      75.7356        17     1.136     1.016  65.12   0
       226    698.5150     94.2654 300.3930503 +22.6014864     403.6209     70.16801      1.884     5.55    -2.158321     19.76634      43.4965         9     1.283     0.676  15.51   0
       227    504.7390     94.0753 300.3327773 +22.5433660     500.8043     70.11453      1.367     2.84    -2.411488     19.76634     59.93943        10     0.882     0.734  -6.51   0
       228     77.0320     94.0089 300.1998063 +22.4151037      349.723     70.06102      1.369     3.65    -2.015248     19.76634     41.85972         7     0.902     0.612  76.62   0
       229    407.4101     92.0348 300.3031539 +22.5136064     481.0093     70.02531      1.896     5.93    -2.478693     19.76634     37.91619        12     1.145     0.865   4.84   0
       230    179.4285     82.2550 300.2354370 +22.4424415     2308.524     70.06102      1.660     3.13    -2.199893     19.76634     211.0813        30     1.265     1.193  71.59   0
       231    747.8694     82.3236 300.4123007 +22.6128394     367.3675     70.15018      1.763     4.62    -2.105586     19.76634     38.62344         7     1.003     0.626  20.77   0
       232    740.7283     74.3998 300.4126469 +22.6084224     526.5386     69.93599      1.731     4.21    -2.027063     19.76634     47.59787        11     1.022     0.871 -80.21   0
       233    295.5004     74.2117 300.2741302 +22.4749374     732.1508     69.97173      1.560     3.84    -2.641163     19.76634     72.58212        11     1.050     0.720  39.64   0
       234    779.4356     69.8417 300.4261863 +22.6187067     311.6723     70.11453      1.669     4.06     -2.18608     19.76634     35.80196         5     1.083     0.519  33.21   0
       235    798.4146     65.7540 300.4334268 +22.6232162     1245.576     70.07886      1.586     3.34    -2.250787     19.76634     112.6015        19     1.190     0.936  13.65   0
       236    182.0969     60.9511 300.2431783 +22.4371253     567.4829     70.11453      1.598     4.55    -2.129601     19.76634     60.64244        13     1.264     0.953 -73.30   0
       237    973.4709     58.9704 300.4902014 +22.6736882     469.3972     70.06102      1.472     4.20    -2.715916     19.76634     53.03292         8     0.867     0.674   5.54   0
       238    747.0828     58.3047 300.4198491 +22.6056992     510.9128     70.23924      1.446     2.97    -1.966855     19.76634     52.73949         9     0.933     0.634  50.11   0
       239    599.4739     43.2942 300.3787446 +22.5571636     288.3593     70.20364      1.166     3.00    -1.981031     19.76634     59.02775         6     0.868     0.456  -0.10   0
       240    208.4347     40.4682 300.2580096 +22.4391420     230.7211     70.06102      1.446     4.13    -2.125916     19.76634     36.09093         5     0.991     0.492   5.56   0
       241    762.4374     38.3207 300.4311168 +22.6045535     524.7455     70.02531      1.744     3.66    -1.918673     19.76634     47.87067        11     1.030     0.760 -19.95   0
       242    571.0311     36.2504 300.3721742 +22.5466171     956.4221      70.0967      1.557     3.61    -1.942856     19.76634     87.56753        19     1.173     1.020  43.30   0
       243    294.2477     33.8837 300.2868242 +22.4629802     422.5463     70.06102      1.833     3.22    -2.714236     19.76634      44.4129         7     0.932     0.636  -3.12   0
       244      8.8233     32.2007 300.1986723 +22.3769033       418.99      69.9896      1.532     3.93    -2.166368     19.76634     38.48483         6     0.804     0.549 -57.13   0
       245    528.3511     30.1071 300.3608811 +22.5320628     797.9868      70.0967      1.515     3.95    -1.896235     19.76634     69.53342        17     1.204     0.984   6.18   0
       246    633.8703     26.6077 300.3948686 +22.5626733     750.5796     70.04317      1.546     3.71    -1.946215     19.76634     78.58475        16     1.185     0.890 -89.55   0
       247    454.1515     20.6045 300.3408715 +22.5070965     1408.707     70.04317      1.771     3.34    -2.133565     19.76634     138.6776        21     1.210     1.079  48.11   0
       248    101.3833     18.6081 300.2318331 +22.4007633     750.6898     70.00746      1.383     3.38    -1.966933     19.76634     81.84107        16     1.042     0.998  85.12   0
