#   1 NUMBER                 Running object number                                     
#   2 X_IMAGE                Object position along x                                    [pixel]
#   3 Y_IMAGE                Object position along y                                    [pixel]
#   4 ALPHA_J2000            Right ascension of barycenter (J2000)                      [deg]
#   5 DELTA_J2000            Declination of barycenter (J2000)                          [deg]
#   6 FLUX_APER              Flux vector within fixed circular aperture(s)              [count]
#   7 FLUXERR_APER           RMS error vector for aperture flux(es)                     [count]
#   8 FLUX_RADIUS            Fraction-of-light radii                                    [pixel]
#   9 FWHM_IMAGE             FWHM assuming a gaussian core                              [pixel]
#  10 BACKGROUND             Background at centroid position                            [count]
#  11 THRESHOLD              Detection threshold above background                       [count]
#  12 FLUX_MAX               Peak flux above background                                 [count]
#  13 ISOAREA_IMAGE          Isophotal area above Analysis threshold                    [pixel**2]
#  14 A_IMAGE                Profile RMS along major axis                               [pixel]
#  15 B_IMAGE                Profile RMS along minor axis                               [pixel]
#  16 THETA_IMAGE            Position angle (CCW/x)                                     [deg]
#  17 FLAGS                  Extraction flags                                          
         1    109.3581      8.1029 300.2441201 +22.3928699     263.3488     70.31451      1.235     3.73    -1.248481     19.83786     36.89523         5     0.830     0.483  37.15   0
         2    644.4211      2.3152 300.4124192 +22.5515961     1233.413     59.84592      1.510     3.38    -1.139758     19.83786     123.5557        20     1.226     0.937  -3.98  24
         3    740.7929      1.9903 300.4425404 +22.5803725      542.469     58.11646      1.571     3.93     -1.31351     19.83786     55.84529        10     0.951     0.753  23.36  24
         4    107.3556   1004.8648 299.9195521 +22.6781147     1010.198     70.29659      7.916     9.28     1.948609     19.83786     42.88593        12     1.988     1.210 -68.23   3
         5     83.3486   1009.8214 299.9104817 +22.6723191     1352.562     70.31451      8.179    13.64    0.8672226     19.83786     40.99769        33     4.125     1.255 -48.40  19
         6     93.5319   1021.2865 299.9099104 +22.6786637     1996.574     65.99063     13.046    25.60     2.861761     19.83786     50.58548       133     6.601     2.756  -3.24  27
         7     89.1397   1010.1844 299.9121620 +22.6741637     1848.383     70.27867      7.700    13.25     1.500929     19.83786     56.47775        46     2.632     1.856 -60.92  19
         8     96.6541   1007.9851 299.9152121 +22.6757922     1671.367     70.33241      8.116    14.77     2.186965     19.83786     56.25848        49     2.879     2.107  62.11  19
         9    731.4073   1006.0059 300.1132782 +22.8658818     376.4837     70.17107      1.416     2.91    -4.835708     19.83786     69.01971         6     0.915     0.488 -85.91   0
        10    114.7014   1004.8278 299.9218458 +22.6803118     639.1548     70.24283      2.966     4.40     1.948609     19.83786     40.21655         5     1.335     0.413  81.07   0
        11    544.0278   1001.7161 300.0563390 +22.8083952     176.4091     70.31451      1.164     4.91    -4.892771     19.83786     36.99412         7     0.988     0.728 -89.18   0
        12    766.4200   1000.9066 300.1258449 +22.8749285     663.5948     70.24283      1.286     2.61    -4.805694     19.83786     102.6274        10     0.852     0.756 -33.43   0
        13    788.5159    994.7618 300.1347296 +22.8797976     6728.145     70.29659      1.172     2.04    -4.745998     19.83786     1040.984        34     1.113     0.995   4.82   0
        14    834.5609    994.5711 300.1491378 +22.8935617     211.4959     70.33241      1.120     2.89    -4.841091     19.83786     47.29491         7     0.801     0.668   9.90   0
        15     99.7206    986.8143 299.9230590 +22.6706496     335.3516     70.31451      0.979     2.19    0.5184717     19.83786     74.90411         6     0.695     0.598 -23.48   0
        16    840.3117    982.3542 300.1549088 +22.8917823     360.1966     70.29659      1.273     2.96     -4.71494     19.83786     53.54986         6     0.860     0.463 -88.03   0
        17    493.8297    982.8769 300.0468547 +22.7879196     279.3233     70.29659      1.210     2.46    -4.881063     19.83786     44.02287         6     0.725     0.554  33.49   0
        18    796.9389    976.6834 300.1432417 +22.8771390     816.1095     70.42188      1.226     2.18    -4.547081     19.83786     139.9821        11     0.961     0.741  16.00   0
        19    980.3611    975.6928 300.2007321 +22.9318917     301.3833     70.31451      1.029     2.46    -4.615576     19.83786     48.65779         5     0.702     0.457 -73.76   0
        20    649.3412    973.9675 300.0981574 +22.8320574     257.9684     70.33241      1.213     4.37    -4.744303     19.83786     31.75929         6     0.849     0.639 -53.70   0
        21    835.1856    970.6423 300.1571259 +22.8868836     501.5437     70.33241      1.207     2.17    -4.581272     19.83786      64.0337         7     0.744     0.595  23.10   0
        22    734.9037    960.6892 300.1291262 +22.8539322     498.1924     70.49338      1.272     2.38    -4.433926     19.83786     64.28381         7     0.793     0.552 -22.38   0
        23    746.6267    957.5726 300.1337925 +22.8565566     283.4494     70.27867      1.067     2.56     -4.38765     19.83786     52.68314         6     0.673     0.639 -61.64   0
        24    447.7018    957.1952 300.0408675 +22.7667042     2404.488     70.20696      1.259     2.11    -4.610328     19.83786     396.0081        21     1.042     0.903 -76.97   0
        25    172.9359    942.9583 299.9600831 +22.6800866      472.294     70.27867      1.231     2.26    -3.036122     19.83786     83.42252         9     0.822     0.674  14.40   0
        26    150.1465    940.2645 299.9538801 +22.6724672     859.5723     70.35031      1.267     2.51    -3.215776     19.83786     143.2374        15     1.030     0.815 -80.87   0
        27    777.1264    936.1216 300.1502785 +22.8595559     219.6039     70.42188      1.148     3.81    -4.126172     19.83786     26.20919         5     0.983     0.423  44.87   0
        28   1021.5706    928.5301 300.2289414 +22.9307159      1159.51     64.89375      1.030     1.99    -4.098527     19.83786     198.6496        14     0.869     0.753 -77.19  16
        29    975.7737    927.0563 300.2151407 +22.9165557     1247.974     70.31451      1.142     1.91    -4.364618     19.83786     240.4699        13     0.913     0.731 -52.68   0
        30    181.8811    922.0334 299.9696751 +22.6767785     334.9964     70.27867      1.342     4.82    -4.051183     19.83786      47.8737         9     1.002     0.818 -83.74   0
        31    759.6053    921.2491 300.1496632 +22.8500308     311.6251     70.29659      1.122     2.89    -4.084442     19.83786      60.1775         6     0.837     0.491  45.74   0
        32    627.5910    915.2222 300.1105150 +22.8086790     2759.985     70.31451      1.256     2.42    -4.531801     19.83786     388.2861        22     1.043     0.944  78.15   0
        33    429.7484    912.4385 300.0498557 +22.7484810     227.8735     70.31451      1.124     2.29    -4.149607     19.83786     60.32407         6     0.831     0.432 -86.98   0
        34    178.0188    909.2196 299.9726467 +22.6719463     825.6401     70.31451      1.222     2.61    -4.080344     19.83786     111.6491        10     0.860     0.729  80.03   0
        35    648.0686    907.4642 300.1194162 +22.8126005     458.9141     70.36821      1.104     2.44    -4.467091     19.83786     71.08913         7     0.730     0.612   3.91   0
        36    564.9632    898.7817 300.0963729 +22.7851632     229.0811     70.31451      1.721     3.89    -4.649866     19.83786     25.19342         5     0.849     0.511  55.82   0
        37    803.5485    894.8102 300.1719610 +22.8556310     2286.385     70.31451      1.243     2.29    -4.012836     19.83786     326.5283        22     1.068     0.930 -32.89   0
        38   1020.3342    894.8224 300.2395313 +22.9206683      713.044     68.88509      1.092     2.13     -4.24251     19.83786     119.4142         9     0.739     0.696  11.04  16
        39    212.2113    889.1022 299.9898202 +22.6764536     278.9062     70.20696      1.295     3.94    -4.100057     19.83786     36.33123         6     0.935     0.476  54.99   0
        40    520.8143    887.7327 300.0862306 +22.7687402     258.6618     70.31451      1.150     2.60    -4.584964     19.83786     41.79929         6     0.739     0.544  47.57   0
        41    167.1737    885.5613 299.9769786 +22.6619085     607.5052     70.33241      1.238     4.42    -4.119525     19.83786     81.69247        11     1.244     0.613  87.22   0
        42    316.7437    877.7949 300.0259922 +22.7046117     30857.66     70.27867      1.346     2.38    -3.962358     19.83786     4324.141        69     1.248     1.161  75.23   0
        43    574.6616    876.5947 300.1066143 +22.7817111     1039.523     70.29659      1.453     2.67    -4.469877     19.83786     112.1597        14     0.918     0.903 -59.94   0
        44    987.3402    875.3973 300.2355668 +22.9051958     466.4994     70.29659      1.032     2.12    -4.258054     19.83786     82.27767         7     0.759     0.585 -24.60   0
        45    603.8205    872.7128 300.1169543 +22.7893505     297.6185     70.24283      1.260     4.05    -4.229619     19.83786     55.88787         9     1.089     0.666 -71.94   0
        46      2.9620    872.4119 299.9302580 +22.6087988     501.9656     62.84313      1.272     3.27    -4.237104     19.83786     77.60877        12     1.048     0.853  21.85  24
        47    614.5220    870.8307 300.1208984 +22.7920228      354.825     70.29659      1.428     3.58    -4.175896     19.83786     46.79817         9     0.988     0.725  68.31   0
        48    757.0862    857.4254 300.1696570 +22.8309618     416.6873     70.27867      1.057     2.09    -4.097508     19.83786     64.34749         8     0.742     0.649 -90.00   0
        49    366.4217    854.9755 300.0488664 +22.7129890     18045.18     70.27867      1.375     2.53    -3.924764     19.83786     2337.897        48     1.195     1.126  71.34   0
        50    380.5989    855.4037 300.0531358 +22.7173691     1049.498     70.08129      1.296     2.65    -3.951684     19.83786     142.0832        13     0.951     0.824  53.20   0
        51    889.3494    850.4936 300.2131255 +22.8686541     1607.959     70.38611      1.182     2.33    -3.944458     19.83786     215.4219        16     0.980     0.861   7.24   0
        52    647.4098    846.9526 300.1389099 +22.7950438     543.4907     70.33241      1.247     3.14    -4.122585     19.83786     71.65273        12     0.987     0.825  64.93   0
        53    248.9823    846.7490 300.0150337 +22.6753601     467.4737     70.31451      1.270     1.99     -4.15035     19.83786     82.33651         7     0.672     0.636  52.01   0
        54    483.1251    846.2140 300.0880184 +22.7455181     164.0179     70.33241      1.410     4.32    -4.085089     19.83786     34.13239         5     1.040     0.512  33.67   0
        55    494.5138    841.8671 300.0929767 +22.7476905     556.1422     70.42188      1.556     3.12    -4.148518     19.83786     68.50655         9     0.913     0.681  17.08   0
        56     53.1203    842.3574 299.9556140 +22.6152609     260.2851     70.29659      1.370     4.43    -4.120759     19.83786      34.7056         6     0.891     0.626  36.16   0
        57     82.0294    836.2994 299.9665635 +22.6222112     291.3407     70.24283      1.321     2.01    -4.103964     19.83786      52.0184         7     0.670     0.654   4.03   0
        58    539.2493    819.5792 300.1141511 +22.7547272     397.3579     70.31451      1.788     5.03     -4.20588     19.83786     37.51715         8     1.130     0.633 -10.28   0
        59    561.2648    817.1418 300.1217961 +22.7606363     770.3433     70.35031      1.410     3.11    -4.168909     19.83786     86.14322        12     0.945     0.835  16.13   0
        60    955.6664    815.7886 300.2450946 +22.8785829      2688.12     70.29659      1.236     2.26    -3.992984     19.83786     371.3157        23     0.988     0.941 -24.25   0
        61    944.1875    807.2280 300.2443020 +22.8726824     989.4966     70.31451      1.221     2.33    -3.866048     19.83786     171.7904        14     0.977     0.784  65.61   0
        62    307.2002    801.5586 300.0478373 +22.6798898     567.0397     70.35031      1.551     2.75    -4.144505     19.83786     59.50439        11     0.930     0.742 -74.42   0
        63    770.3787    798.6083 300.1929414 +22.8180711     1585.637     70.31451      1.514     2.73    -4.097132     19.83786     156.9606        20     1.099     0.985  33.95   2
        64    975.1280    797.3904 300.2571503 +22.8791371     953.4261     70.29659      1.242     2.59    -4.114103     19.83786     126.9045        12     0.977     0.750 -54.13   0
        65    853.4514    784.5431 300.2234024 +22.8389549       249.37     70.36821      1.483     5.43    -3.719127     19.83786     34.98694         7     1.185     0.702  10.18   0
        66    156.2089    785.0204 300.0062926 +22.6298003     302.9312     70.29659      1.388     5.05    -4.213263     19.83786     37.45278         7     0.979     0.737  12.83   0
        67    888.8923    775.4513 300.2374066 +22.8469752     82962.53     70.36821      1.341     2.51     -3.67759     19.83786     10192.36       103     1.263     1.215 -86.83   0
        68    741.4415    776.1451 300.1912373 +22.8029425     320.0636     70.27867      1.262     3.43     -4.20341     19.83786      48.2764         9     0.896     0.723 -64.95   0
        69    921.9857    767.9971 300.2501477 +22.8547603     104.8689     70.15313      1.245     3.84    -3.704416     19.83786     33.10025         5     0.674     0.628 -89.96   0
        70    575.3105    764.5176 300.1432924 +22.7497552     879.7197     70.42188      1.388     3.36    -3.875707     19.83786     95.50928        15     1.030     0.971  43.39   0
        71    756.3871    761.7150 300.2005883 +22.8032849     5448.097     70.26075      1.435     2.81    -4.148345     19.83786     553.6246        32     1.169     1.115  32.59   0
        72    258.1687    757.1111 300.0470578 +22.6524223     2698.509     70.27867      1.402     2.80    -4.222048     19.83786     313.1175        25     1.164     1.037  52.56   0
        73    339.9916    755.1317 300.0731390 +22.6764242     704.0087     70.29659      1.513     3.37    -4.161519     19.83786     72.28131        12     1.065     0.849  14.69   0
        74    548.3566    750.3596 300.1395099 +22.7376040     462.0704       70.404      1.637     5.33    -3.794101     19.83786     52.51815         9     0.976     0.965 -20.12   0
        75    539.8732    742.6304 300.1393843 +22.7328405     1902.978     70.31451      1.552     3.41    -3.769941     19.83786     176.3769        22     1.130     1.092  46.09   0
        76    530.1769    736.3083 300.1384237 +22.7281166     952.7025     70.24283      1.532     3.94    -3.756974     19.83786     95.76926        15     1.183     0.864  12.28   0
        77    193.1239    733.0023 300.0346864 +22.6259767     328.0192      70.2249      1.452     4.00    -4.212414     19.83786     47.39689         9     1.225     0.743 -13.19   0
        78    207.8455    731.2061 300.0398454 +22.6298829     370.5892     70.33241      1.438     4.90    -4.212559     19.83786     43.77769         9     0.879     0.812  79.84   0
        79    233.7179    728.4911 300.0487691 +22.6368742     367.9516     70.42188      1.657     3.14    -4.218147     19.83786     64.96669         7     1.163     0.451 -52.19   0
        80    977.0573    727.3571 300.2805408 +22.8596055     237.5861     70.27867      1.381     3.90    -4.147581     19.83786     40.79708         7     0.863     0.717  66.17   0
        81    455.0665    726.2369 300.1183298 +22.7026834      1075.52     70.31451      1.527     3.79    -3.871179     19.83786     97.55431        17     1.172     0.965  51.54   0
        82    109.0793    721.4410 300.0123361 +22.5974201     11265.38     70.29659      1.378     2.67    -3.882957     19.83786     1222.897        45     1.219     1.139  72.56   0
        83     29.8141    723.2056 299.9871448 +22.5741154     380.6287     70.18902      1.596     3.35    -3.445538     19.83786     42.26972         8     0.916     0.723  17.85   0
        84    540.0065    721.5381 300.1462879 +22.7268291     677.1472     70.27867      1.514     3.93    -3.619375     19.83786     62.13481        13     1.081     0.896  61.24   0
        85    957.8984    707.2014 300.2811245 +22.8480725      540.178      70.2249      1.328     3.60    -3.953745     19.83786      60.9233        12     0.981     0.915 -24.96   0
        86     55.1041    705.3790 300.0007967 +22.5766035     887.5851      70.2249      1.681     6.01    -3.546971     19.83786     67.60766        18     1.483     0.910  85.82   0
        87    824.7375    705.7421 300.2400940 +22.8077204     309.8318     70.36821      1.331     3.91    -3.719087     19.83786     38.05199         6     0.762     0.574  51.19   0
        88    898.0704    700.2774 300.2647261 +22.8281441     444.7062     70.42188      1.345     2.80    -3.649694     19.83786      51.0537         7     0.710     0.673 -29.26   0
        89    608.1545    693.0856 300.1767553 +22.7391150     252.7419     70.29659      1.553     4.70    -3.362128     19.83786     30.49744         6     1.109     0.564 -65.45   0
        90    460.1778    694.0958 300.1303753 +22.6949976     383.4364      70.2249      1.337     4.28    -3.669936     19.83786     48.23786        10     1.067     0.760  15.41   0
        91    504.2119    690.6305 300.1452031 +22.7072192     464.8153     70.31451      1.766     4.25    -3.518449     19.83786     47.31944        11     1.114     0.856  74.71   0
        92    625.0861    690.9956 300.1827062 +22.7435955     353.9084     70.24283      1.518     5.04    -3.408728     19.83786     32.03378         8     1.023     0.703  -8.19   0
        93    469.7943    685.7916 300.1360683 +22.6955015     1015.083     70.17108      1.622     3.62    -3.605546     19.83786      89.9576        18     1.175     1.000 -89.42   0
        94    937.7291    685.4145 300.2819238 +22.8357682      1755.34     70.31451      1.365     2.73    -3.774214     19.83786     187.9216        21     1.080     0.973  21.88   0
        95     31.8300    679.6286 300.0019445 +22.5622319     2950.574     70.31451      1.419     2.51    -3.405918     19.83786     381.2064        28     1.187     1.036  79.25   0
        96    333.2159    672.5413 300.0978984 +22.6507044     5209.269     70.27867      1.548     2.99    -4.158701     19.83786     559.4955        33     1.277     1.133 -81.24   0
        97    455.6768    669.5410 300.1369617 +22.6866024     5163.466     70.36821      1.617     3.14    -3.541869     19.83786     520.5965        36     1.289     1.211  80.52   0
        98    867.1058    663.2803 300.2671095 +22.8082350     1024.104     70.43976      1.388     3.06    -3.529438     19.83786     115.0358        17     1.090     0.926  85.22   0
        99    951.6888    660.5414 300.2943666 +22.8328104     7347.671     70.38611      1.406     2.69    -3.820979     19.83786     768.1808        37     1.182     1.105 -75.99   0
       100    516.1187    659.0526 300.1591790 +22.7017322      6570.26     70.35031      1.596     3.35    -3.305872     19.83786     626.3102        38     1.261     1.226  35.54   0
       101    243.6369    654.7318 300.0758428 +22.6187030     738.2109     70.29659      1.535     2.84    -4.002256     19.83786     111.2293        17     1.163     0.928  79.61   0
       102    685.3349    654.3494 300.2133856 +22.7511529     414.3305     70.35031      1.700     5.72    -3.358533     19.83786     34.82877         7     1.058     0.872  65.27   0
       103    490.4968    651.9828 300.1535056 +22.6920148     278.4936      70.2249      1.284     4.12    -3.381131     19.83786     32.94173         6     0.969     0.501  12.07   0
       104    447.9123    647.3176 300.1417739 +22.6778963     2604.996     70.42188      1.597     3.24    -3.497611     19.83786     221.9294        28     1.327     1.115  50.85   0
       105    790.6962    646.8932 300.2486294 +22.7806150      304.265     70.49338      1.321     5.22    -3.362234     19.83786     45.79814        10     1.034     0.779  55.70   0
       106    426.0855    645.6920 300.1355127 +22.6708792     743.6559     70.47551      1.686     4.08    -3.568946     19.83786      76.6076        13     1.222     0.787  16.94   0
       107    180.4117    645.0421 300.0593454 +22.5969405     337.7655     70.31451      1.234     3.57    -3.777501     19.83786     50.64541         7     0.747     0.687 -79.65   0
       108    867.5192    642.4243 300.2740217 +22.8023700       885.58     70.29659      1.605     3.62    -3.495657     19.83786     75.18758        17     1.061     1.048 -36.56   0
       109    748.2224    640.0874 300.2376109 +22.7659222     488.6057     70.24283      1.549     4.68    -3.315195     19.83786     47.73812         9     0.983     0.718 -15.08   0
       110    564.4041    634.7479 300.1821106 +22.7092465     116995.1     70.31451      1.660     3.38    -3.180436     19.83786     10603.45       153     1.510     1.496  58.58   0
       111    250.7145    635.0784 300.0844338 +22.6151919     1982.822     70.43976      1.526     2.97    -3.830141     19.83786      220.359        23     1.185     1.057  84.49   0
       112    455.1654    615.0950 300.1545088 +22.6708280     1520.085     70.31451      1.768     3.76    -3.378579     19.83786     133.9945        25     1.382     1.122 -75.65   0
       113    851.8848    600.9221 300.2826457 +22.7857637     938.7483     70.42188      1.528     3.23    -3.353498     19.83786     89.65495        16     1.047     0.946  47.62   0
       114    723.0670    598.8344 300.2431904 +22.7465339     1507.721     70.31451      1.619     3.36    -3.150151     19.83786     119.8779        23     1.179     1.114 -81.33   0
       115    967.3108    595.8734 300.3202684 +22.8189192      361.301     70.47551      1.461     4.40    -3.558966     19.83786     48.97094         7     0.965     0.572 -40.15   0
       116    628.6536    595.8580 300.2147574 +22.7173601     276.1203     70.36821      1.422     3.90    -3.089688     19.83786     28.96964         6     1.028     0.424 -76.64   0
       117    511.0412    594.4222 300.1786160 +22.6816628     485.0083     70.35031      1.971     6.90    -3.108835     19.83786     34.47274         9     1.303     1.023 -45.83   0
       118    980.2856    592.6661 300.3253570 +22.8218873      729.384       70.404      1.361     2.89    -3.589532     19.83786     90.94299        13     0.939     0.881   4.65   0
       119    966.0342    591.8381 300.3211825 +22.8173773     463.7126     70.35031      1.571     3.97    -3.515029     19.83786      62.9344         9     0.953     0.807 -46.70   0
       120    852.1602    591.2348 300.2858815 +22.7830643     1437.469     70.35031      1.892     6.02    -3.329687     19.83786     102.5341        20     1.531     0.991  69.44   0
       121    605.9816    589.5311 300.2097562 +22.7087428     411.2031     70.31451      1.634     5.20    -3.033973     19.83786      38.6951         7     1.623     0.470 -83.23   0
       122    890.3255    586.1406 300.2994330 +22.7930441     2545.938     70.36821      1.522     3.08    -3.350068     19.83786     219.9319        23     1.151     1.079  17.10   0
       123    122.6334    577.2790 300.0634269 +22.5601612     489.5393     70.29659      1.468     2.75    -3.482944     19.83786     65.42464         9     0.895     0.849  82.76   0
       124    982.2353    576.2713 300.3312958 +22.8177619     486.1376     70.31451      1.514     3.64    -3.400979     19.83786     56.53514         7     0.955     0.614 -43.18   0
       125    783.6054    570.4484 300.2712785 +22.7565386     186.7361     70.29659      1.275     4.42     -3.08189     19.83786     29.41859         5     0.991     0.560  43.61   0
       126    663.4585    557.0485 300.2382125 +22.7166591     376.9359     70.36821      1.440     5.85    -2.935608     19.83786     43.91172         9     1.102     0.875  59.22   0
       127    724.2906    549.0061 300.2597722 +22.7325942     583.5731      70.2249      1.757     6.46    -2.931037     19.83786      42.2784        13     1.333     0.880  25.16   0
       128    978.1321    548.4236 300.3390704 +22.8085318      417.554     70.29659      1.689     4.41    -3.078018     19.83786     44.51955        10     1.187     0.640  76.23   0
       129    865.7379    541.9554 300.3061351 +22.7729816     370.8895     70.33241      1.466     4.94    -3.249116     19.83786     36.15784         9     1.007     0.687  61.15   0
       130    610.4257    539.7154 300.2273352 +22.6957762     1698.562     70.29659      1.626     3.66     -2.71082     19.83786     153.8876        23     1.213     1.110  62.80   0
       131    881.5313    545.1030 300.3100343 +22.7786206     493.3673     70.43976      1.458     5.46    -3.210472     19.83786     46.10321        11     1.188     0.709  53.10   0
       132   1021.4355    518.5015 300.3623019 +22.8129131     684.2982     65.35784      1.343     2.74     -2.63007     19.83786     91.13293        12     0.891     0.843 -72.62  16
       133    894.5175    518.7209 300.3226584 +22.7749353     225.6755     70.43976      1.318     3.41    -3.156813     19.83786     39.14038         5     0.766     0.440  67.77   0
       134    980.1620    517.3980 300.3497894 +22.8002264     409.1635     70.33241      1.426     4.00    -2.799584     19.83786     57.89862        11     1.008     0.792 -60.80   0
       135    721.3021    513.3580 300.2704295 +22.7214618      505.471     70.31451      1.654     5.81     -2.72771     19.83786     39.04528        12     1.122     0.847  81.52   0
       136    287.3756    507.7436 300.1372262 +22.5896728      2077.38     70.31451      1.639     3.28    -2.878179     19.83786     212.7092        27     1.283     1.143  60.80   0
       137   1020.1125    505.7368 300.3660385 +22.8088488     2391.303       69.522      1.392     2.76    -2.452032     19.83786      280.798        22     1.052     1.034 -25.07  16
       138    234.5310    502.5914 300.1224742 +22.5723339     4267.833     70.29659      1.673     3.06    -3.012865     19.83786     459.6028        34     1.351     1.202 -88.07   0
       139    375.4059    496.7859 300.1681599 +22.6129464     2759.722     70.18902      1.712     3.43    -3.043933     19.83786     275.2982        29     1.273     1.223 -57.34   0
       140   1000.1087    496.6732 300.3627461 +22.8002496     976.2177     70.47551      1.444     3.01    -2.475881     19.83786     104.5465        15     0.993     0.920 -39.52   0
       141    619.4349    493.2014 300.2452592 +22.6851248     10475.21     70.27867      1.752     3.83    -2.712213     19.83786     857.0629        47     1.401     1.339  66.45   0
       142    637.1946    493.7123 300.2506225 +22.6905979     487.9687      70.2249      1.824     5.29    -2.724486     19.83786     42.42147         7     1.244     0.636 -50.20   0
       143    952.6664    475.4796 300.3548410 +22.7799416     357.4863     70.42188      1.527     3.53    -2.721245     19.83786     53.24131         9     1.041     0.677 -46.29   0
       144    174.4023    473.6130 300.1132054 +22.5459730     1174.225     70.15313      1.614     3.41    -3.262687     19.83786     108.1968        18     1.166     0.989  68.79   0
       145    560.0589    462.7653 300.2366671 +22.6585781     3725.724     70.31451      1.768     4.01    -2.635863     19.83786     295.9022        32     1.361     1.251  84.38   0
       146    973.2996    462.6265 300.3654518 +22.7824321     616.9499     70.26075      1.453     4.63     -2.51448     19.83786     61.84243        12     1.006     0.848 -83.33   0
       147    275.0338    462.4408 300.1481120 +22.5729714     226.6256     70.36821      1.369     4.60    -2.511191     19.83786     36.37865         5     1.010     0.594  74.95   0
       148    132.8652    455.7256 300.1061121 +22.5283738       377.95     70.35031      1.445     3.47    -3.214418     19.83786     32.42779         5     1.003     0.348 -44.88   0
       149    764.2976    451.7852 300.3038342 +22.7166704     733.2612     70.20696      1.790     3.80    -2.588362     19.83786     56.25695        13     1.039     0.868 -14.72   0
       150    466.6571    449.0413 300.2120609 +22.6266217     3525.466     70.29659      1.798     4.11    -2.540941     19.83786     271.9604        34     1.432     1.266  74.37   0
       151    858.5289    443.4848 300.3358938 +22.7425341     775.3657     70.42188      1.625     3.73    -3.197638     19.83786     73.57217        17     1.152     0.970  81.83   0
       152    955.5331    443.1533 300.3662405 +22.7715122     369.9721     70.29659      1.482     5.39    -2.560939     19.83786     31.95723        10     1.161     0.706  65.87   0
       153    831.6356    430.8687 300.3316122 +22.7308485     351.0629     70.31451      1.754     4.12    -2.895476     19.83786     35.68952         5     1.105     0.468  35.46   0
       154    354.4118    428.4188 300.1838473 +22.5870280     1359.616     70.27868      1.668     3.48    -2.627743     19.83786     139.0643        22     1.185     1.164 -10.83   0
       155     73.0825    425.5742 300.0973380 +22.5017796     677.9838     70.29659      1.740     2.78    -3.125746     19.83786      81.1672        11     0.970     0.812  78.70   0
       156    323.6644    417.8070 300.1777339 +22.5747572     16828.56     70.29659      1.732     3.57    -2.496392     19.83786     1423.146        60     1.488     1.363  84.44   0
       157    857.9448    415.0042 300.3449662 +22.7341766      771.083     70.27867      1.635     3.97    -3.134579     19.83786     68.81512        15     1.122     0.927  35.54   0
       158     20.0362    405.8382 300.0872756 +22.4801943     2891.415     70.38611      1.456     2.81    -3.005445     19.83786     320.1936        24     1.143     1.053  76.57   0
       159    198.5171    404.2109 300.1432487 +22.5333015     355.3212     70.27867      1.389     3.42    -3.020973     19.83786     34.66521         5     0.749     0.450 -68.80   0
       160    733.8340    397.2333 300.3120697 +22.6918684     1056.023     70.38611      1.758     3.80    -2.380226     19.83786     86.20955        19     1.202     1.032  49.79   0
       161    948.8182    389.7442 300.3815008 +22.7541520     389.5107     70.29659      1.506     4.85    -2.490488     19.83786     35.44963         8     1.173     0.682  86.01   0
       162    395.9640    382.1871 300.2117901 +22.5862252     1082.815     70.29659      1.882     4.60    -2.458261     19.83786     78.32395        20     1.264     1.131 -87.27   0
       163    834.7521    374.5868 300.3508694 +22.7156129     390.7316     70.33241      1.733     4.73    -2.571257     19.83786     31.87433         8     0.980     0.647  15.03   0
       164    471.8306    361.7729 300.2420227 +22.6031214     567.3039     70.31451      1.664     4.66    -2.357866     19.83786     53.60903        13     1.145     0.942  22.87   0
       165    716.4814    353.2588 300.3209501 +22.6740348     1327.529     70.36821      1.877     3.95    -2.380226     19.83786     106.6745        20     1.271     1.072  62.25   0
       166    977.4259    347.3869 300.4041811 +22.7505502     1817.662     70.31451      1.585     3.43    -2.516553     19.83786      176.713        20     1.118     1.038  77.10   0
       167    424.9610    336.9403 300.2355068 +22.5819345     316.6125     70.31451      1.542     3.01    -2.357838     19.83786     38.55399         6     0.971     0.588 -49.42   0
       168     99.6179    331.5211 300.1361310 +22.4827658     840.7371     70.31451      1.792     3.85     -2.87954     19.83786     84.28223        19     1.236     1.040 -86.92   0
       169    129.8800    331.4712 300.1455484 +22.4918336     448.6204     70.42188      1.824     5.07    -2.886785     19.83786     30.58677         7     1.169     0.622 -20.94   0
       170    993.1277    328.0345 300.4153635 +22.7496918     252.7418     70.31451      1.585     5.66    -2.518869     19.83786      29.8103         6     1.513     0.596  50.85   0
       171    183.8224    323.4701 300.1649077 +22.5057255     212.4068     70.33241      1.167     3.33    -2.772126     19.83786       35.906         5     1.200     0.267  55.18   0
       172    788.2966    315.1645 300.3556953 +22.6846163     324.0468     70.31451      1.540     4.46    -2.357051     19.83786     32.03424         7     1.075     0.526 -22.61   0
       173    885.9443    303.5086 300.3899118 +22.7105291     1105.327     70.36821      1.634     4.49    -2.388209     19.83786     104.6671        19     1.287     1.050  39.61   0
       174    304.7094    301.0070 300.2097784 +22.5355485     1344.494      70.2249      1.825     4.43    -2.633499     19.83786     94.42534        22     1.369     1.160  81.64   0
       175    382.6355    296.3320 300.2355294 +22.5575814     490.9823     70.31451      1.742     5.35    -2.489239     19.83786     53.02787        11     1.276     1.002 -37.89   0
       176    134.6416    297.2238 300.1581493 +22.4834364     273.5815     70.35031      1.426     3.50    -2.624767     19.83786      31.1476         5     0.798     0.442 -73.69   0
       177    784.5702    295.6165 300.3608828 +22.6778827     312.8092     70.31451      1.601     5.09    -2.347509     19.83786     39.70726         9     1.101     0.790 -55.74   0
       178    200.1239    288.6989 300.1812650 +22.5006390     536.7891     70.45763      2.043     3.84    -2.615305     19.83786     52.29885         9     1.049     0.665  40.08   0
       179    737.1519    285.0309 300.3495479 +22.6606296     966.1929     70.35031      1.794     4.86    -2.381176     19.83786     61.79351        21     1.267     1.200  42.94   0
       180    221.3840    281.6941 300.1901469 +22.5050074       137.38     70.24283      1.081     4.06    -2.547016     19.83786     36.67064         5     0.970     0.485 -87.99   0
       181   1008.7625    277.2967 300.4367176 +22.7397899     530.2624     70.31451      1.510     4.79    -2.429252     19.83786      49.1473        10     1.096     0.748  16.63   0
       182    801.6319    285.1479 300.3695985 +22.6799877     343.9714     70.33241      1.601     4.54    -2.325281     19.83786     33.78753         5     0.854     0.685  33.11   0
       183    661.6531    275.9274 300.3289895 +22.6353844     747.2339     70.31451      1.855     4.83    -2.306972     19.83786     63.33747        15     1.276     1.010 -76.59   0
       184    857.2119    267.2072 300.3927448 +22.6914867     807.5092     70.18902      1.620     3.82    -2.256989     19.83786       65.617        16     1.074     1.042 -40.51   0
       185    587.7861    267.6895 300.3086657 +22.6108744     487.0255     70.26075      1.711     6.66    -2.052161     19.83786     36.00877        13     1.258     0.990   5.35   0
       186    869.1451    266.6816 300.3966348 +22.6949113     505.2977     70.35031      1.956     4.46    -2.251082     19.83786     39.39042         8     1.081     0.811  71.78   0
       187    985.5388    256.1577 300.4363394 +22.7267560     681.0853     70.29659      1.581     5.16    -2.211986     19.83786     58.37868        14     1.112     1.023 -41.31   0
       188    219.9112    250.0089 300.1999767 +22.4954718       256.42     70.24283      1.485     4.50    -2.207277     19.83786      35.7132         6     1.263     0.456  35.11   0
       189     82.2621    244.7683 300.1589087 +22.4526673     1187.309     70.33241      1.594     3.01    -2.287277     19.83786     128.8718        22     1.204     1.101 -50.34   0
       190    904.9344    241.2848 300.4160370 +22.6983342     402.2995     70.42188      1.498     4.29    -2.093156     19.83786     43.69191        11     1.050     0.827  -2.02   0
       191    239.4130    238.1289 300.2098952 +22.4979124     3069.427     70.31451      1.700     3.24    -2.175156     19.83786     306.2983        30     1.330     1.210  81.48   0
       192     23.5699    232.6609 300.1446105 +22.4315802     642.3204     70.35031      1.439     2.73     -2.09593     19.83786     95.70035        12     0.911     0.861 -74.37   0
       193    222.7890    228.2591 300.2079321 +22.4900925     339.3552     70.26075      1.802     6.25    -1.954352     19.83786     41.38153         9     1.092     1.004 -14.37   0
       194    883.2585    219.3248 300.4164099 +22.6855279     1966.599     70.36821      1.647     3.47     -2.03795     19.83786     199.0271        26     1.218     1.163 -16.09   0
       195    986.9018    217.9114 300.4491822 +22.7161684     1481.283     70.47551      1.533     3.29    -1.933152     19.83786     145.0296        22     1.158     1.100  85.64   0
       196    432.9917    215.7557 300.2773546 +22.5495474     359.4398     70.33241      1.810     5.10    -2.419939     19.83786     50.69489         6     1.261     0.582 -37.03   0
       197    357.6815    206.4397 300.2569537 +22.5242886     506.7949     70.27867      2.291     5.78    -2.462968     19.83786     32.60764         9     1.322     0.712 -18.31   0
       198    123.8086    204.0325 300.1850387 +22.4534442     426.8727     70.31451      1.553     3.12    -2.182493     19.83786     45.60628         6     0.912     0.428 -52.89   0
       199    484.0329    202.0097 300.2976973 +22.5609038     941.2291     70.29659      1.855     4.04    -2.052394     19.83786     81.41158        22     1.316     1.157 -76.99   0
       200    412.3226    202.0269 300.2753813 +22.5394072     448.1422     70.31451      2.049     3.04    -2.463436     19.83786     42.93599         5     0.987     0.524  49.67   0
       201    228.5687    197.1899 300.2198139 +22.4829082     374.3859     70.31451      1.737     3.48    -1.913484     19.83786     29.91303         5     0.754     0.463 -72.75   0
       202    258.3182    182.0431 300.2339776 +22.4874835      3386.14     70.27867      1.778     3.64    -2.089174     19.83786     283.2835        37     1.417     1.315 -78.39   0
       203    504.2107    167.1926 300.3152774 +22.5569527     3547.463     70.18902      1.837     3.78    -2.058321     19.83786     296.4472        33     1.385     1.305 -75.09   0
       204    389.8790    167.3423 300.2796581 +22.5227170     474.6314     70.35031      2.073     3.91    -2.240867     19.83786     30.48401         6     1.029     0.426  12.88   0
       205    756.4844    157.1929 300.3970727 +22.6296871     401.1902     70.24283      1.664     4.35    -1.927199     19.83786     37.99916         6     1.087     0.610  13.88   0
       206    632.5485    147.1895 300.3617189 +22.5896738     3563.492     70.31451      1.818     3.85    -1.957325     19.83786      301.171        34     1.384     1.297  27.28   0
       207    407.4915    146.5306 300.2918908 +22.5220211     881.4775     70.43977      1.823     4.10    -2.207874     19.83786      73.1376        17     1.258     1.058  -5.20   0
       208    674.0097    144.9405 300.3753598 +22.6014527     514.4984     70.27867      1.935     3.58    -1.942545     19.83786     50.48302         9     0.955     0.798  54.33   0
       209    156.9101    138.8247 300.2164864 +22.4446592     378.1616     70.26075      1.508     4.29    -1.812633     19.83786     52.61326         9     0.990     0.686  81.10   0
       210    959.7117    138.3040 300.4665441 +22.6851351     322.3701     70.49338      1.737     3.48    -1.927434     19.83786     48.65175         5     0.773     0.452  -7.78   0
       211    676.7590    131.9273 300.3804392 +22.5985369     1567.179     70.29659      1.802     3.89    -1.942545     19.83786     134.7942        27     1.395     1.217  72.15   0
       212    317.8425    133.3688 300.2682806 +22.4913600     333.2923     70.36821      1.582     3.88    -2.064568     19.83786     37.17602         5     0.899     0.480   3.37   0
       213    763.2263    123.6158 300.4100701 +22.6220562     890.4271     70.33241      1.658     3.92    -1.899251     19.83786     78.82135        17     1.122     1.037 -38.00   0
       214    507.0331    116.3412 300.3326584 +22.5431911     737.8721     70.33241      2.290     6.06    -2.054238     19.83786     53.70705        13     1.515     0.745  85.33   0
       215    411.0024    114.4269 300.3034008 +22.5138533     386.6865     70.26075      1.628     3.88    -2.165831     19.83786     52.08915         7     0.935     0.640  13.08   0
       216    182.1945    104.5708 300.2354582 +22.4424103     2260.122     70.31451      1.701     3.41    -1.600546     19.83786     211.3136        26     1.237     1.207  50.66   0
       217    750.3496    104.8175 300.4121586 +22.6127950     348.8705     70.31451      1.522     4.10     -1.91448     19.83786     40.95289         6     0.947     0.850  66.39   0
       218    298.2134     96.9766 300.2739858 +22.4750238     586.5822     70.31451      1.423     3.34    -1.905684     19.83786     73.13774        10     0.967     0.893  41.80   0
       219    743.4311     97.3210 300.4124358 +22.6085675     483.5908     70.31451      1.686     2.90    -1.928345     19.83786     46.38121         5     0.698     0.476  74.51   0
       220    781.2558     91.6823 300.4260496 +22.6182782     406.8524     70.36821      1.857     6.29    -1.813196     19.83786     33.95363         8     1.240     0.897  19.06   0
       221    801.2325     87.8428 300.4335199 +22.6231587     1215.921     70.36821      1.633     3.57    -1.752348     19.83786     118.1283        20     1.158     1.090 -39.21   0
       222    185.0862     83.7168 300.2431229 +22.4372907     417.0568     70.42188      1.507     2.86     -1.50638     19.83786     66.35478         9     1.060     0.553 -61.81   0
       223    975.8991     81.4614 300.4900374 +22.6736362     431.9348     70.38611      1.548     4.70    -2.019905     19.83786     36.68205         8     0.871     0.720 -43.32   0
       224    749.6451     80.5475 300.4198141 +22.6056076     541.9603     70.33241      1.816     4.97    -1.812755     19.83786     48.31446        12     1.245     0.945 -46.70   0
       225    602.3789     66.0485 300.3786546 +22.5573163     520.1983     70.33241      1.624     4.92    -1.685851     19.83786     41.70289        10     1.072     0.638 -31.83   0
       226    764.9489     60.5421 300.4310725 +22.6044413     383.7686     70.36821      1.668     5.14    -1.673444     19.83786     41.26624         7     0.904     0.827  62.71   0
       227    574.1186     58.4809 300.3723118 +22.5466730     972.2478     70.47551      1.749     4.17    -1.592069     19.83786     90.73532        18     1.276     1.066 -36.87   0
       228    296.7119     55.9275 300.2868365 +22.4627853     405.8961     70.47551      1.711     4.90    -1.672207     19.83786     41.81152        10     1.285     0.907 -15.32   0
       229     11.5714     55.0952 300.1985051 +22.3770271     404.7645      70.2249      1.483     3.91    -1.660252     19.83786      45.5724         5     0.724     0.652  28.09   0
       230    531.2319     52.3161 300.3609625 +22.5320491     727.7195     70.29659      1.692     4.94    -1.634548     19.83786     59.60119        17     1.198     1.046  40.56   0
       231    636.4072     48.8347 300.3948340 +22.5625657     750.9545     70.31451      1.629     4.56     -1.54387     19.83786     62.26911        16     1.256     1.017  42.56   0
       232    232.4401     48.2729 300.2693389 +22.4413151     307.3346     70.29659      1.586     4.81    -1.380243     19.83786     37.78506         5     1.066     0.615  28.93   0
       233    456.9774     43.0213 300.3408706 +22.5071234     1242.022     70.31451      1.744     3.97    -2.046654     19.83786     107.0844        21     1.296     1.059 -18.94   0
       234    104.2222     40.6948 300.2319535 +22.4006862     793.2365      70.2249      1.569     4.06    -1.435005     19.83786     83.63879        17     1.239     1.007 -62.60   0
       235    165.4453     22.5364 300.2568656 +22.4138347     585.9257     70.33241      1.412     3.90    -1.279147     19.83786     74.54827        12     1.043     0.861 -11.49   0
       236     84.3033   1020.2409 299.9073848 +22.6755904      1853.31     69.14056      6.321    15.98     1.604944     19.83786     45.95996        54     3.385     2.098  78.47  27
       237    942.6938   1017.9357 300.1752292 +22.9327137     1127.152     70.42188      1.081     2.00    -4.963341     19.83786     226.6646        12     0.874     0.656 -82.14  16
