#   1 NUMBER                 Running object number                                     
#   2 X_IMAGE                Object position along x                                    [pixel]
#   3 Y_IMAGE                Object position along y                                    [pixel]
#   4 ALPHA_J2000            Right ascension of barycenter (J2000)                      [deg]
#   5 DELTA_J2000            Declination of barycenter (J2000)                          [deg]
#   6 FLUX_APER              Flux vector within fixed circular aperture(s)              [count]
#   7 FLUXERR_APER           RMS error vector for aperture flux(es)                     [count]
#   8 FLUX_RADIUS            Fraction-of-light radii                                    [pixel]
#   9 FWHM_IMAGE             FWHM assuming a gaussian core                              [pixel]
#  10 BACKGROUND             Background at centroid position                            [count]
#  11 THRESHOLD              Detection threshold above background                       [count]
#  12 FLUX_MAX               Peak flux above background                                 [count]
#  13 ISOAREA_IMAGE          Isophotal area above Analysis threshold                    [pixel**2]
#  14 A_IMAGE                Profile RMS along major axis                               [pixel]
#  15 B_IMAGE                Profile RMS along minor axis                               [pixel]
#  16 THETA_IMAGE            Position angle (CCW/x)                                     [deg]
#  17 FLAGS                  Extraction flags                                          
         1    164.4636     14.7594 300.2567291 +22.4137880     701.6913      70.2024      1.718     4.57    -2.406535     19.81128     59.80733        16     1.144     1.021  51.38   0
         2    118.9924   1021.8084 299.9152948 +22.6889884     567.5949     63.63338      3.723     4.94     5.898384     19.81128     25.94213         5     1.189     0.581 -79.56  16
         3    102.4100   1019.8915 299.9107691 +22.6834558     1378.642     69.69967      5.732    10.37     5.679753     19.81128      53.7105        25     2.659     1.127 -81.71  19
         4     72.6100   1021.5963 299.9009598 +22.6749881      1301.89     64.53491      4.577    12.39     2.179091     19.81128     42.24282        33     2.811     1.521  42.63  27
         5     88.5183   1002.4111 299.9121480 +22.6742733     1956.609     70.18451      9.796    26.18     2.684369     19.81128     53.73724       156     6.079     3.131 -26.86  19
         6     89.8744   1014.9448 299.9084872 +22.6782713     2259.731     70.25605     13.309    28.52     4.114408     19.81128     55.34058       203     7.548     2.992 -21.45  19
         7    941.9689   1010.0058 300.1752066 +22.9327196     1240.989     70.22029      1.209     1.96    -5.522351     19.81128      243.109        15     0.940     0.794  58.09   0
         8    136.7630   1019.2491 299.9216478 +22.6935954     462.0304     70.22029      3.314     4.37     5.558113     19.81128     36.15555         5     1.657     0.328  29.36  16
         9    592.2673   1007.4122 300.0671288 +22.8270221     315.9348     70.22029      1.262     3.43    -5.538879     19.81128     37.58849         5     0.785     0.433  20.87   0
        10    730.9121    998.9469 300.1130502 +22.8662129     539.5743     70.23817      1.477     6.20    -5.480844     19.81128     51.93769        11     1.746     0.620  59.57   0
        11     94.9519   1022.8138 299.9075012 +22.6820515     1179.916      59.1744      9.545    10.95     5.703407     19.81128     46.73938        33     3.024     1.104 -11.71  27
        12    787.8282    986.8407 300.1347205 +22.8798212     6575.176     70.23817      1.194     1.99    -5.341075     19.81128     1145.547        29     1.000     0.965 -60.96   0
        13    833.3820    986.6553 300.1489724 +22.8934379     354.2079      70.2024      1.187     2.68    -5.324519     19.81128     43.50638         5     0.700     0.468 -75.39   0
        14    979.1097    986.1165 300.1945661 +22.9370049     342.1192     70.36324      1.245     2.00    -5.346772     19.81128     60.87648         5     0.712     0.480 -41.63   0
        15    765.6700    993.0356 300.1258008 +22.8749488     609.7545     70.22029      1.175     2.11    -5.414885     19.81128     93.96666         7     0.705     0.618 -82.90   0
        16    839.6783    974.2675 300.1549688 +22.8917724     211.4198     70.32752      1.455     3.40    -5.192944     19.81128     52.77866         5     1.040     0.321  52.76   0
        17    493.0710    975.2064 300.0467512 +22.7880029     359.4792     70.18451      1.321     2.20    -5.163585     19.81128     59.28809         7     0.686     0.646  89.58   0
        18    796.4996    968.7949 300.1432990 +22.8772455     949.3624     70.11289      1.213     2.39    -5.114432     19.81128     127.7297        10     0.846     0.694  20.00   0
        19    979.3808    967.8358 300.2006046 +22.9318388     288.6107     70.23817      0.925     2.35    -5.159582     19.81128     48.97711         5     0.717     0.440 -68.75   0
        20    648.7368    966.4083 300.0980606 +22.8322135      218.235      70.2024      1.111     2.69    -5.103714     19.81128     53.45403         6     0.892     0.603 -62.32   0
        21    834.3345    962.5295 300.1571265 +22.8868005     439.5529     70.25606      1.085     2.35    -5.076739     19.81128     65.00058         5     0.669     0.473 -19.52   0
        22    882.9286    953.7443 300.1751296 +22.8988593     408.7632     70.23817      1.216     2.77    -5.042829     19.81128     54.54613         7     0.895     0.616  86.48   0
        23    734.2867    952.3901 300.1292636 +22.8538688     352.2434     70.16661      1.110     3.11    -4.965729     19.81128     52.19321        10     0.862     0.804  87.68   0
        24    446.9214    949.3320 300.0408213 +22.7667261     2459.452     70.32752      1.322     2.35    -4.628259     19.81128     360.0114        24     1.080     0.992  44.25   0
        25    745.5723    949.8659 300.1336004 +22.8565314      344.033      70.2024      1.156     3.17    -4.934955     19.81128      51.6007         7     0.898     0.574 -32.56   0
        26    172.3969    935.0667 299.9601300 +22.6801813     445.7568      70.2024      1.384     3.00    -3.874892     19.81128     68.97286         9     0.909     0.727  83.40   0
        27    149.3396    931.9940 299.9539677 +22.6723734     937.0078     70.18451      1.266     2.34    -4.140625     19.81128     130.4523        12     0.944     0.767  24.78   0
        28   1020.8403    920.6974 300.2288821 +22.9307415     1067.332     67.37233      1.131     1.93    -4.672101     19.81128     201.5065        13     0.874     0.752 -86.66  16
        29    975.0760    919.1886 300.2151044 +22.9165824     1184.792     70.23817      1.162     1.87    -4.736675     19.81128     226.0045        13     0.883     0.751 -30.56   0
        30    452.1623    919.1805 300.0522688 +22.7596539     113.0556     70.23817      1.035     3.65     -4.53113     19.81128     51.28216         5     1.062     0.362  35.57   0
        31    758.8058    912.9645 300.1497379 +22.8499141     369.5103     70.23817      1.207     4.21    -4.655715     19.81128     50.73197         8     0.977     0.610 -63.98   0
        32    181.1733    913.3943 299.9699124 +22.6766070     425.1523      70.2024      1.213     2.59    -4.493468     19.81128     61.53743         6     0.721     0.600 -85.59   0
        33    626.8395    907.2839 300.1104960 +22.8086802     2761.277     70.18451      1.315     2.35    -4.678669     19.81128     387.8867        24     1.053     0.983  65.88   0
        34    429.1574    904.4188 300.0499195 +22.7485134     441.7494     70.23817      1.575     3.33    -4.509933     19.81128     51.95228         6     0.813     0.594  36.48   0
        35    176.9800    901.4056 299.9725124 +22.6719113     764.8209      70.2024      1.279     2.72    -4.482787     19.81128     127.2461        15     0.980     0.880   8.96   0
        36    647.1910    899.6521 300.1193162 +22.8125990     599.5709     70.22029      1.446     2.40    -4.654046     19.81128     64.91002         7     0.721     0.620  16.39   0
        37    802.8781    886.8773 300.1719597 +22.8556514     2435.538     70.32752      1.279     2.23    -4.596973     19.81128     372.8775        22     0.999     0.958 -87.46   0
        38   1019.7137    886.8217 300.2395607 +22.9206771     612.0686     69.95148      1.102     1.83    -4.632915     19.81128     129.9531        11     0.865     0.726  38.22  16
        39    211.5493    881.4537 299.9897479 +22.6765772     238.9535     70.25606      1.268     3.72    -4.489463     19.81128     45.50257         6     0.961     0.413  71.38   0
        40    519.8835    879.6926 300.0861922 +22.7686607     233.5355     70.39893      1.297     2.75     -4.56003     19.81128     60.84543         8     0.910     0.698  82.73   0
        41    166.3294    877.8146 299.9768831 +22.6619506     559.4554     70.22029      1.226     2.52    -4.468574     19.81128     83.49583        12     0.921     0.785  32.34   0
        42    316.0056    869.7646 300.0260171 +22.7045991     30849.15     70.22029      1.343     2.36    -4.584585     19.81128     4082.217        72     1.270     1.186  67.21   0
        43    581.5273    872.9299 300.1075763 +22.7852246     213.4526      70.2918      1.046     3.74    -4.608105     19.81128     35.59321         6     0.806     0.498 -87.48   0
        44    573.9039    868.6239 300.1066054 +22.7817011     881.6288     70.11289      1.244     2.39     -4.59458     19.81128     125.8771        13     0.902     0.817  48.35   0
        45    986.5601    867.6165 300.2354757 +22.9052200     507.0704     70.23817      1.147     2.16    -4.612295     19.81128     75.52972         7     0.760     0.588  18.56   0
        46    244.2529    867.5029 300.0044514 +22.6824012     165.9161      70.2918      1.000     2.96    -4.509846     19.81128     41.74396         5     0.727     0.443  23.75   0
        47    602.8667    864.8201 300.1168579 +22.7893029      442.869      70.2024      1.127     2.23    -4.611758     19.81128     84.47797         6     0.736     0.528  53.15   0
        48      2.4360    864.3350 299.9303739 +22.6088467     526.7997     60.43446      1.350     4.06    -4.850026     19.81128     57.98018        12     1.076     0.858 -47.90  24
        49    613.7095    862.9654 300.1208367 +22.7920251     384.4695      70.2024      1.376     3.56    -4.602586     19.81128     52.44253        11     0.997     0.834  72.95   0
        50    933.7284    860.0200 300.2214786 +22.8871941     159.3848     70.25606      0.701     3.62    -4.579418     19.81128     47.92387         6     0.878     0.595  48.08   0
        51    718.7297    859.3917 300.1546974 +22.8225154     169.5057      70.2024      1.195     3.42     -4.58462     19.81128     32.11112         5     0.730     0.465 -15.44   0
        52    365.6864    846.9919 300.0488751 +22.7129879     18262.59     70.13081      1.380     2.44    -4.430921     19.81128     2470.958        51     1.212     1.121  51.26   0
        53    756.7256    849.3015 300.1698155 +22.8310202     529.2286     70.34538      1.275     2.37    -4.525558     19.81128     69.33363         8     0.819     0.618   6.11   0
        54    379.9423    847.5695 300.0531199 +22.7174341     1133.858     70.23817      1.373     2.62    -4.416149     19.81128     132.8616        16     1.018     0.881  64.87   0
        55    888.6543    842.5686 300.2131107 +22.8686646     1619.907     70.23817      1.229     2.31    -4.450285     19.81128     227.8023        16     0.926     0.876  43.36   0
        56    646.4496    838.7576 300.1389082 +22.7949050     547.2355     70.23817      1.451     3.49    -4.509618     19.81128      68.3901         8     0.916     0.648  22.94   0
        57    482.7901    838.8243 300.0879545 +22.7458033     245.8149     70.22029      1.284     4.52    -4.321551     19.81128     38.51505         6     1.032     0.564  23.96   0
        58    248.4680    838.7672 300.0151141 +22.6754294     455.3653     70.22029      1.188     2.71    -4.367948     19.81128     76.41612         8     0.773     0.747 -11.13   0
        59    493.4276    833.6765 300.0929393 +22.7475199      540.632     70.22029      1.589     4.70    -4.291218     19.81128     54.13655        12     1.070     0.964  17.46   0
        60     52.9047    834.4030 299.9557845 +22.6154341      242.072     70.13081      1.207     4.22    -4.650532     19.81128     55.22508         7     1.140     0.480 -37.85   0
        61     81.2379    828.7219 299.9664316 +22.6223182     330.4975      70.2024      1.349     5.75    -4.497226     19.81128     47.77803        10     1.172     0.795  57.12   0
        62    872.1615    824.7771 300.2137619 +22.8586100     168.6734     70.23817      1.181     3.98    -4.313296     19.81128     39.08105         6     0.759     0.637  82.86   0
        63    245.9938    822.7974 300.0195426 +22.6701080     327.1676     70.04121      1.421     4.03    -4.277903     19.81128     39.75791         6     0.903     0.515 -89.87   0
        64    569.2219    813.5424 300.1230764 +22.7644937     257.2876     70.22029      1.260     3.51    -4.196861     19.81128     31.86411         5     0.785     0.452 -19.08   0
        65    538.5099    811.6006 300.1141510 +22.7547191     313.7587     70.11289      1.442     3.26     -4.14037     19.81128     39.60503         7     0.837     0.660  24.22   0
        66    560.6469    809.1536 300.1218361 +22.7606610     627.9919     70.23817      1.328     3.26    -4.145096     19.81128     89.38168        14     1.094     0.837  13.37   0
        67    954.9242    807.8551 300.2450654 +22.8785730     2554.822     70.25605      1.266     2.10    -4.456259     19.81128     409.2801        22     0.966     0.946 -54.48   0
        68    642.4955    803.2743 300.1492257 +22.7835367     210.1922     70.36324      1.550     5.41    -4.352295     19.81128     33.49848         5     1.029     0.803 -23.01   0
        69    943.4685    799.2648 300.2442900 +22.8726710     996.6126     70.27393      1.175     2.16    -4.340744     19.81128     139.1866        14     0.977     0.756 -51.46   0
        70    306.4288    793.6927 300.0477979 +22.6799112     517.2589     70.16661      1.426     3.29    -4.127773     19.81128     56.95487         8     0.938     0.579  20.48   0
        71    769.7307    790.6343 300.1929605 +22.8180832     1411.575     70.22029      1.351     2.75    -4.180117     19.81128     163.7867        17     1.023     0.931   7.00   0
        72    974.7593    789.3679 300.2572658 +22.8792122     984.6071     70.27393      1.241     2.55    -4.517284     19.81128     123.2842        12     0.876     0.827  64.27   0
        73    811.6149    790.4883 300.2060558 +22.8306054     746.7487     70.16661      0.817     1.78    -3.978405     19.81128      214.595         5     0.595     0.462  30.39   0
        74    155.3994    777.5187 300.0061276 +22.6299188     299.6095     70.09498      1.221     3.63    -4.206941     19.81128     45.19566         8     0.907     0.679 -87.96   0
        75    888.2147    767.5229 300.2373976 +22.8469865     83927.98     70.23817      1.311     2.35    -4.087921     19.81128     10127.81       111     1.310     1.226  59.29   0
        76    740.5319    768.1191 300.1911927 +22.8028611     361.9786     70.32752      1.375     4.59    -4.207201     19.81128     42.45602         8     1.269     0.472  82.05   0
        77    574.6499    756.4742 300.1433362 +22.7497485     994.7785     70.22029      1.471     2.74    -3.877543     19.81128     104.6603        13     0.915     0.848 -81.63   0
        78    755.7217    753.7339 300.2006045 +22.8032885     5370.439     70.32752      1.388     2.55    -4.052755     19.81128      646.772        32     1.146     1.081  47.73   0
        79    257.4168    749.1669 300.0470511 +22.6524267     2804.829      70.2024      1.399     2.60    -4.143642     19.81128     342.0615        23     1.064     1.047  54.27   0
        80    339.4344    747.3262 300.0731450 +22.6765240     605.6285      70.2024      1.323     3.37    -4.158424     19.81128     77.12936        10     0.974     0.758  49.97   0
        81    215.1648    744.7537 300.0353564 +22.6384738     311.5478     70.25606      1.189     2.82    -4.136716     19.81128     47.26064         7     0.981     0.489  66.74   0
        82    547.8786    742.7399 300.1394733 +22.7377738     331.0124     70.25606      1.350     3.50    -3.780598     19.81128     54.94387         7     0.891     0.550 -26.59   0
        83    539.1833    734.7012 300.1393828 +22.7328578     1776.285     70.13081      1.421     2.89    -3.719326     19.81128     195.1643        21     1.090     1.034  70.33   0
        84    529.4901    728.4492 300.1384005 +22.7281550     802.5077     70.22029      1.469     3.21    -3.658291     19.81128     85.98148        12     0.898     0.874 -12.77   0
        85    192.4457    725.0762 300.0346985 +22.6260094      475.072      70.2024      1.942     4.46     -4.12432     19.81128     51.54174         8     1.141     0.497 -88.76   0
        86    207.3429    722.8469 300.0400525 +22.6298436     390.2722     70.27393      1.490     5.53    -4.118382     19.81128     39.65667         8     1.060     0.813 -41.23   0
        87    976.1409    719.7090 300.2803628 +22.8596206     386.5804      70.2918      1.272     3.91    -4.169373     19.81128     45.50752         7     0.878     0.573  40.77   0
        88    232.4917    719.8275 300.0488495 +22.6365293     308.8574     70.16661      1.204     2.18    -4.114745     19.81128     55.55309         6     0.786     0.663 -73.21   0
        89    454.1983    718.2144 300.1183057 +22.7026226     1025.871     70.05914      1.602     3.35    -3.648086     19.81128      100.154        17     1.121     0.945  40.23   0
        90    553.7670    718.5948 300.1491610 +22.7326125     144.7206      70.2024      1.069     3.40    -3.655524     19.81128     35.00484         5     0.787     0.424  21.89   0
        91    108.3776    713.4511 300.0123644 +22.5974298     11347.41     70.22029      1.400     2.54    -4.184095     19.81128     1228.991        43     1.188     1.149  51.50   0
        92     29.2571    714.9840 299.9872958 +22.5741048     483.8816      70.2024      1.585     3.85    -4.113641     19.81128     43.64615         7     0.929     0.588 -72.83   0
        93    539.1979    713.2606 300.1463625 +22.7267100     706.4988      70.2024      1.608     3.63    -3.606997     19.81128     70.83704        12     1.117     0.701  68.92   0
        94    957.1476    699.2412 300.2811002 +22.8480474     671.8682     70.22029      1.326     2.71    -4.064822     19.81128     79.20422        10     0.919     0.686  21.51   0
        95     54.3660    697.6618 300.0007265 +22.5766814     896.2237     70.23817      1.770     5.06    -3.943006     19.81128     77.83266        17     1.408     0.829  89.09   0
        96    824.1031    697.6411 300.2401561 +22.8076940      263.951     70.23817      1.156     2.62    -3.759958     19.81128     40.11246         6     0.728     0.603  61.18   0
        97    897.3603    691.9128 300.2648479 +22.8280167     391.8563      70.2024      1.481     2.75     -3.87798     19.81128     54.33134         9     0.893     0.650  17.42   0
        98    459.5860    686.2766 300.1303706 +22.6950763     368.9206     70.23817      1.414     4.92    -3.581745     19.81128     36.32215         9     0.941     0.728 -13.33   0
        99    654.7841    683.2194 300.1921120 +22.7527679     224.1617      70.2024      1.477     3.94    -3.520863     19.81128     32.18013         6     0.771     0.577 -50.62   0
       100    503.7100    682.4501 300.1453424 +22.7072197     485.0481     70.22029      1.630     4.36    -3.478379     19.81128     49.81968        12     1.045     0.919  42.92   0
       101    937.0649    677.4684 300.2819223 +22.8357727     1892.286     70.27393      1.420     2.81    -3.876653     19.81128     203.8939        19     1.065     0.946  59.96   0
       102    469.0520    677.7422 300.1360912 +22.6954684     973.6946     70.27393      1.451     3.14    -3.538668     19.81128     107.0209        17     1.088     0.956  39.70   0
       103     31.0891    671.7028 300.0019417 +22.5622487     2792.052     70.39893      1.355     2.62    -3.396784     19.81128     303.1703        25     1.095     1.021  76.07   0
       104    332.5226    664.6320 300.0978953 +22.6507301     5440.155      70.2024      1.558     2.76    -4.100209     19.81128     606.2302        37     1.279     1.178  71.06   0
       105    454.9149    661.5901 300.1369468 +22.6865913     5102.913     70.16661      1.524     3.05      -3.5261     19.81128     468.1488        32     1.254     1.130  81.66   0
       106    866.4576    655.3223 300.2671190 +22.8082422     987.0347     70.25606      1.372     3.13    -3.742505     19.81128        108.5        18     1.115     0.960 -66.65   0
       107    926.6723    656.4822 300.2855089 +22.8266291     1484.172     70.34538      0.787     1.84    -3.685525     19.81128     594.7616         6     0.644     0.413 -34.66   0
       108    951.0255    652.5879 300.2943671 +22.8328115     7180.956     70.22029      1.400     2.55    -3.731215     19.81128     821.1556        35     1.160     1.088  50.66   0
       109    515.4177    651.1326 300.1591710 +22.7017458     6527.099     70.22029      1.592     3.21     -3.28592     19.81128     608.4009        39     1.279     1.231  47.32   0
       110    243.0982    646.7115 300.0759265 +22.6187454     783.7866     70.38108      1.421     2.58    -3.895953     19.81128      100.058        12     0.916     0.800 -14.40   0
       111    447.1278    639.3684 300.1417515 +22.6778782     2411.478     70.22029      1.558     3.24    -3.461228     19.81128     220.5995        22     1.191     1.055  63.98   0
       112    789.9688    639.4130 300.2484610 +22.7807375     375.6013      70.2024      1.385     2.93    -3.448277     19.81128     53.70129         8     0.812     0.662 -81.69   0
       113    425.4720    637.7325 300.1355475 +22.6709101     688.6807     70.25606      1.561     4.05    -3.610827     19.81128     71.09509        12     1.076     0.857  68.35   0
       114    866.6912    634.6489 300.2739155 +22.8023748     933.5675     70.23817      1.500     3.13    -3.668699     19.81128     108.9305        16     1.257     0.822 -84.64   0
       115    179.8407    637.0916 300.0593984 +22.5969948      423.133     70.22029      1.403     4.02    -3.919714     19.81128     51.90345         8     0.861     0.648  47.10   0
       116    563.6946    626.8377 300.1820950 +22.7092577     117224.2      70.2024      1.619     3.22    -3.144481     19.81128     10737.55       150     1.506     1.480  32.79   0
       117    747.5355    631.5242 300.2378087 +22.7657469     440.0641      70.2918      1.407     4.28    -3.392094     19.81128     52.85243         8     0.878     0.768 -68.64   0
       118    249.9309    627.0119 300.0844561 +22.6151464     1919.713     70.25605      1.465     3.20    -3.761622     19.81128     192.9313        23     1.225     1.034  74.95   0
       119    454.3643    607.5026 300.1543647 +22.6709057     1550.456     70.22029      1.710     4.07     -3.25617     19.81128     124.6125        24     1.564     1.061  74.67   0
       120    851.0040    592.9730 300.2825797 +22.7857014     994.1175     70.18451      1.560     3.50    -3.437147     19.81128      92.4341        20     1.242     0.974  44.02   0
       121    722.5053    590.8375 300.2432435 +22.7465577     1474.157      70.2024      1.633     3.37    -3.234776     19.81128     133.8673        20     1.145     1.040  35.64   0
       122    509.8756    587.1533 300.1782513 +22.6817211     433.4439     70.22029      1.799     3.76    -2.947036     19.81128     42.16964         6     0.766     0.561 -40.54   0
       123    979.7670    584.6559 300.3254195 +22.8219114      766.079     70.23817      1.572     2.94     -3.03422     19.81128     81.45959        14     1.018     0.845  25.80   0
       124    965.4290    583.6805 300.3212664 +22.8173336      468.121     70.23817      1.452     3.84    -3.078917     19.81128     48.37206        10     1.110     0.697  60.86   0
       125    851.4595    583.2824 300.2858726 +22.7830546     1277.005     70.30966      1.619     4.03    -3.379571     19.81128     123.0218        20     1.271     1.023  80.47   0
       126    889.5310    578.2979 300.2993579 +22.7930363     2423.896     70.34538      1.482     2.99    -3.294033     19.81128     225.3204        23     1.132     1.050 -70.38   0
       127    122.1057    568.9757 300.0636092 +22.5601262     658.3152     70.13081      1.483     2.89    -3.588465     19.81128     71.46897        10     0.965     0.671  75.19   0
       128    981.3101    568.6409 300.3311079 +22.8177725     443.6035     70.22029      1.534     3.47     -2.94283     19.81128     46.64479        10     0.949     0.726  46.41   0
       129    662.9281    548.9576 300.2383074 +22.7166653     467.0673      70.2024      1.482     4.75     -3.14221     19.81128     48.82652         8     1.161     0.551  29.59   0
       130    977.6254    541.1483 300.3388973 +22.8087687     371.8319     70.23817      1.474     4.76    -2.812387     19.81128     39.44906         9     1.059     0.776  83.09   0
       131    723.5934    540.7325 300.2598725 +22.7324956     411.6565     70.18451      1.469     5.72    -3.163814     19.81128     47.62794        11     1.005     0.919  66.58   0
       132    881.1049    537.0562 300.3101402 +22.7786629      571.937     70.27393      1.509     3.36    -3.078032     19.81128     63.07873        14     1.188     0.734  67.91   0
       133    865.1135    533.9701 300.3061597 +22.7729827     253.2288     70.22029      1.350     2.46    -3.102642     19.81128     39.90462         6     0.944     0.602 -44.01   0
       134    609.7083    531.8263 300.2273079 +22.6957853     1933.761     70.16661      1.716     3.57    -2.929587     19.81128     158.8444        27     1.250     1.232  57.51   0
       135    970.0265    530.0203 300.3401457 +22.8032938     226.9634     70.22029      1.203     2.87    -2.815418     19.81128     38.36235         5     0.634     0.583 -89.50   0
       136   1020.8367    510.5103 300.3623311 +22.8129140     650.0614     67.33503      1.276     2.55    -2.623502     19.81128     93.58965        11     0.856     0.818  79.06  16
       137    979.2454    509.2006 300.3497879 +22.8000740     684.8482     70.22029      1.563     3.55    -2.745904     19.81128     70.60607        11     1.076     0.764  24.52   0
       138    515.9922    506.8045 300.2062744 +22.6604923     286.4032     70.07706      1.681     4.74    -2.743754     19.81128     25.95813         5     0.965     0.661 -31.45   0
       139    719.9465    505.5288 300.2701801 +22.7212919     651.2806     70.23817      1.917     5.80    -3.100275     19.81128     51.61384        13     1.244     0.889   7.39   0
       140    224.5079    504.3997 300.1164150 +22.5723429     351.0137     70.09498      1.468     4.88    -3.233375     19.81128     39.05455         6     0.905     0.746  87.50   0
       141    286.7090    499.8225 300.1372352 +22.5896970     2032.923     70.14871      1.642     3.69    -3.222486     19.81128     175.7326        25     1.259     1.090  70.98   0
       142   1019.5099    497.8035 300.3660477 +22.8088646     2444.014     70.13081      1.428     2.79    -2.603538     19.81128     265.8982        23     1.057     1.045 -26.72  16
       143    233.9367    494.6152 300.1225251 +22.5723656     4260.801     70.18451      1.655     3.38    -3.208876     19.81128     374.9605        32     1.360     1.164  73.91   0
       144    999.5770    489.0230 300.3626859 +22.8003682     1099.516     70.18451      1.454     3.16    -2.645535     19.81128     120.2266        16     1.080     0.916  15.63   0
       145    374.6316    488.7605 300.1681664 +22.6129051     2727.983     70.25606      1.743     3.69    -3.052298     19.81128     214.0924        32     1.333     1.215  47.99   0
       146    618.7036    485.2600 300.2452437 +22.6851123     10479.64      70.2918      1.730     3.63    -2.787151     19.81128     794.5638        52     1.452     1.342  56.87   0
       147    952.1549    467.3176 300.3549548 +22.7799198     397.8528     70.18451      1.525     4.13    -2.653836     19.81128     49.72809         7     1.056     0.767 -13.86   0
       148    173.5556    465.8137 300.1131221 +22.5459804     1057.876     70.23817      1.660     3.68    -3.272134     19.81128      120.745        19     1.247     1.041  85.88   0
       149    559.4271    454.8172 300.2366865 +22.6585941     3861.235     70.23817      1.767     3.63    -2.626925     19.81128     294.5412        35     1.366     1.262  36.85   0
       150    973.0007    454.8716 300.3654988 +22.7825897     671.3596     70.11289      1.388     3.20    -2.493692     19.81128     72.28506        10     1.004     0.656  81.88   0
       151    273.9704    454.3978 300.1480372 +22.5728400     518.6188     70.18451      2.101     7.01    -2.946586     19.81128     39.00103         9     1.448     0.952  28.07   0
       152    673.2422    445.2436 300.2752282 +22.6899741     410.1467     70.30966      1.785     4.75    -2.778616     19.81128     31.82325         6     1.172     0.545 -62.25   0
       153    763.6956    443.5074 300.3039632 +22.7165933       691.21     70.39893      1.873     6.56    -2.705865     19.81128     44.09542        15     1.302     1.034  54.31   0
       154    466.0247    440.9747 300.2121214 +22.6266059     3475.302     70.18451      1.794     3.84     -2.59478     19.81128     264.2841        38     1.389     1.379  18.33   0
       155    857.8168    435.2009 300.3359874 +22.7424188     768.2171     70.11289      1.574     4.26     -2.51451     19.81128     67.07766        16     1.155     1.013  74.74   0
       156    955.0533    435.0987 300.3663288 +22.7715292     353.6392     70.30966      1.479     4.18    -2.384663     19.81128     36.31472         7     0.918     0.543  42.05   0
       157    831.1457    422.7824 300.3317116 +22.7308569     289.6278      70.2024      1.405     4.00    -2.515472     19.81128     31.75183         6     1.129     0.405  61.58   0
       158    353.6566    420.4029 300.1838565 +22.5869928     1464.995     70.18451      1.691     4.18      -2.6409     19.81128     112.1461        22     1.233     1.125  49.41   0
       159     72.2304    418.0703 300.0971599 +22.5018712     554.8525     70.22029      1.415     3.70    -3.083295     19.81128     69.20432         9     0.934     0.705  82.88   0
       160    322.9403    409.8763 300.1777261 +22.5747562     16878.96     70.27393      1.725     3.45    -2.555772     19.81128     1431.626        60     1.466     1.373  71.85   0
       161    857.3919    407.0126 300.3450141 +22.7341918      650.803     70.11289      1.550     4.39    -2.383336     19.81128     56.12887        15     1.122     0.944  44.10   0
       162     19.4099    397.9860 300.0872823 +22.4802546     2762.952     70.13081      1.469     2.77    -2.831767     19.81128     321.2019        25     1.208     1.033  78.60   0
       163    733.3357    389.2348 300.3121407 +22.6919012     1133.511     70.22029      1.650     4.43    -2.423755     19.81128      87.1339        17     1.275     0.936 -55.78   0
       164    948.2181    382.1266 300.3814093 +22.7542564     310.2375     70.22029      1.338     4.51    -2.148088     19.81128     39.61543         8     0.799     0.725 -49.03   0
       165    395.2284    374.3315 300.2117516 +22.5862383     1222.545      70.2024      1.866     4.59    -2.531182     19.81128     81.72839        21     1.354     1.100  75.06   0
       166    833.8554    366.2183 300.3509331 +22.7154156      224.927      70.2024      1.469     3.49     -2.42139     19.81128     28.21661         5     1.034     0.339  43.84   0
       167    470.9316    353.6060 300.2420318 +22.6029928     648.6533     70.18451      1.699     4.27    -2.474506     19.81128     60.71845        15     1.120     1.069 -41.51   0
       168    715.6686    345.3402 300.3208973 +22.6739948     1116.181     70.23817      1.655     3.76    -2.432045     19.81128     96.53622        20     1.161     1.093 -51.41   0
       169    976.8950    339.3765 300.4042374 +22.7505595     1721.739     70.11289      1.559     3.28    -1.719019     19.81128     159.7707        22     1.126     1.090  66.56   0
       170    424.4430    329.4308 300.2354222 +22.5821093     454.6087     70.25606      2.091     5.50    -2.457219     19.81128     34.58795         7     1.197     0.714  89.63   0
       171     99.1893    323.6742 300.1361942 +22.4828810    -724.1256     70.23817    -10.517     3.77    -3.020798     19.81128     87.41566        15     1.127     1.008  67.11   0
       172    129.7872    323.5314 300.1457451 +22.4920220      404.566     70.23817      1.686     5.14    -3.061368     19.81128     32.96318         8     1.024     0.730  25.01   0
       173    992.8000    320.0704 300.4154675 +22.7497739     238.2824     70.13081      1.202     3.72    -1.533642     19.81128     36.58514         5     0.827     0.481 -30.27   0
       174    182.8325    315.6888 300.1647723 +22.5056880     375.7646     70.18451      1.588     4.31    -2.914455     19.81128     35.53605         5     1.153     0.458  -3.59   0
       175    885.3574    295.7806 300.3898615 +22.7106038     1174.891     70.23817      1.625     3.85    -2.432309     19.81128     92.17186        17     1.225     0.900  76.81   0
       176    304.2149    293.3710 300.2097457 +22.5356963     1294.737     70.23817      1.747     3.80    -2.501888     19.81128     103.6551        21     1.184     1.136  59.96   0
       177    381.9108    288.8248 300.2353807 +22.5576944     557.9486     70.16661      1.748     5.89    -2.483595     19.81128     53.24992        12     1.103     1.011 -25.88   0
       178    783.5740    287.5947 300.3608037 +22.6777533     282.3377      70.2024      1.811     5.08    -2.457334     19.81128      26.5308         5     1.357     0.538 -46.59   0
       179    199.3894    280.7312 300.1812686 +22.5006225     574.6492     70.22029      1.826     4.33    -2.664952     19.81128     45.85249         7     1.111     0.480  85.11   0
       180    736.5644    277.0400 300.3495874 +22.6606326     969.2455     70.27393      1.650     3.83    -2.433008     19.81128     83.93241        16     1.145     0.974  41.06   0
       181    220.6729    273.4603 300.1902435 +22.5049205     379.6921     70.25606      1.603     4.33    -2.551163     19.81128     31.80353         5     1.005     0.532  43.24   0
       182   1008.1704    269.4317 300.4367060 +22.7398184     395.5855     70.22029      1.418     4.00    -1.466522     19.81128     48.28489         9     0.868     0.789 -42.12   0
       183    741.3894    268.2726 300.3539372 +22.6595592      519.507     70.22029      1.988     7.00    -2.434248     19.81128     36.43262        12     1.214     1.131  66.78   0
       184    661.1626    268.1996 300.3289762 +22.6354942     671.9302     70.22029      1.750     4.72    -2.421618     19.81128     59.23762        16     1.225     0.950  35.88   0
       185    856.2378    259.2101 300.3926619 +22.6913674     789.1606     70.23817      1.675     4.29    -2.489237     19.81128     73.80274        16     1.165     0.978  28.97   0
       186    587.1348    259.4106 300.3087835 +22.6107797     547.9885     70.16661      1.829     6.33    -2.361634     19.81128     31.95658        13     1.109     1.017 -18.93   0
       187    868.7835    258.7006 300.3967371 +22.6949796      393.625     70.13081      1.682     5.59    -2.467311     19.81128     31.53754        10     1.052     0.838  22.22   0
       188    984.9512    248.5735 300.4362385 +22.7268665     542.9404     70.23817      1.567     3.58    -1.688007     19.81128     65.74424        15     1.078     0.998  53.95   0
       189      8.9784    245.4180 300.1335890 +22.4333554     289.2247     70.22029      1.820     4.79    -2.160347     19.81128     22.63852         5     1.023     0.637  89.19   0
       190    220.0450    242.5055 300.2000985 +22.4958467     344.4521     70.23817      1.447     3.79    -2.302081     19.81128     40.31111         5     0.712     0.649  74.60   0
       191     81.3301    236.9500 300.1588059 +22.4526362     1376.756     70.22029      1.689     3.45    -2.566707     19.81128     136.7046        22     1.285     1.032  82.73   0
       192     31.0320    234.0093 300.1441403 +22.4366998     251.0803      70.2024      1.347     4.54    -2.279574     19.81128     31.66402         7     1.044     0.560 -55.66   0
       193    903.9736    233.5737 300.4158635 +22.6982983     418.4979     70.18451      1.820     4.49    -2.095008     19.81128      36.6231         7     0.904     0.671  64.88   0
       194    238.7679    230.3568 300.2098613 +22.4979753     3064.053     70.25606      1.688     3.40    -2.151488     19.81128     278.3041        32     1.319     1.237  84.58   0
       195     22.8633    224.8694 300.1445708 +22.4316259     826.2146     70.25606      1.632     3.21    -2.228798     19.81128     71.80035        15     1.021     0.964 -67.23   0
       196    882.6991    211.4374 300.4164192 +22.6855614     2123.001     70.22029      1.633     3.26    -2.146322     19.81128     181.8944        26     1.256     1.150  38.96   0
       197    986.1455    210.0979 300.4491029 +22.7161606     1586.788     70.30966      1.602     3.39    -1.722327     19.81128     140.3362        20     1.149     1.036 -83.13   0
       198    122.7843    195.8108 300.1850364 +22.4532665     371.8234     70.16661      1.405     4.77    -2.331002     19.81128     33.50724         7     0.970     0.666  78.05   0
       199    483.4998    194.1872 300.2977065 +22.5609761     911.0281     70.13081      1.694     4.01    -1.824199     19.81128      96.5667        21     1.283     1.150 -88.50   0
       200    257.6295    174.2549 300.2339343 +22.4875255     3146.055     70.22029      1.685     3.44    -2.008775     19.81128     299.2703        30     1.297     1.175  69.25   0
       201    108.8743    173.5784 300.1879313 +22.4427122     398.5791     70.22029      1.547     4.93    -2.305499     19.81128     42.55972         8     0.880     0.827 -77.81   0
       202    503.6500    159.3327 300.3152891 +22.5570037     3414.903      70.2024      1.781     3.74    -1.864501     19.81128      279.821        36     1.395     1.349 -75.11   0
       203    389.4194    159.5919 300.2796694 +22.5228336     273.7568     70.18451      1.191     4.59    -1.928224     19.81128     30.25904         8     0.947     0.671 -89.65   0
       204    756.1779    148.8425 300.3973146 +22.6296645     376.2997     70.25606      1.375     4.60    -1.674534     19.81128     37.27973         7     0.982     0.753 -60.76   0
       205    631.8778    139.3331 300.3616909 +22.5896877     3571.042     70.30966      1.767     3.63    -1.901667     19.81128     305.8109        34     1.379     1.264  58.14   0
       206    406.9640    138.6352 300.2919272 +22.5220741     824.9124      70.2918      1.746     5.10    -2.004974     19.81128     68.44319        18     1.201     1.135 -51.96   0
       207    673.4608    136.8106 300.3754571 +22.6014230     372.7586     70.16661      1.758     5.21    -1.947801     19.81128     36.01962         6     1.095     0.702 -64.95   0
       208    688.9501    133.2652 300.3814311 +22.6050450     374.3098     70.25606      1.559     5.16    -1.860721     19.81128     33.32893         7     1.213     0.619  14.72   0
       209    156.2657    131.4262 300.2163333 +22.4448278     390.5289      70.2024      1.384     3.38    -2.111121     19.81128     45.67515         8     0.950     0.576 -71.18   0
       210    676.2516    124.0657 300.3804622 +22.5985961     1519.172     70.25606      1.732     3.94    -1.864584     19.81128     128.7207        23     1.311     1.108  60.31   0
       211    691.1586    122.4833 300.3856179 +22.6026077     547.6868     70.18451      2.052     5.29    -1.806599     19.81128     34.10733         7     1.393     0.567 -75.04   0
       212    762.3878    115.5145 300.4100648 +22.6219441     910.9051     70.16661      1.921     6.86    -1.657701     19.81128     66.00267        19     1.442     1.261 -89.89   0
       213    700.8065    108.6015 300.3931271 +22.6015081     374.8817     70.04121      1.493     5.48    -1.731186     19.81128     34.08358         7     1.038     0.845 -20.77   0
       214    506.1420    108.4097 300.3325900 +22.5431201     592.7243     70.18451      1.874     6.37    -1.932708     19.81128     45.19115        13     1.370     0.831  50.49   0
       215     79.3906    108.7217 300.1998196 +22.4152510     397.8969     70.18451      1.630     3.06    -2.335397     19.81128     39.21967         5     0.706     0.479 -79.83   0
       216    410.3126    106.8789 300.3032736 +22.5139559     440.2635     70.36324      1.670     3.22    -2.125761     19.81128     40.83553         7     0.983     0.521 -17.19   0
       217    181.5659     96.5999 300.2354946 +22.4424169     2179.411     70.18451      1.792     3.64    -2.151529     19.81128     191.0487        29     1.348     1.265 -18.90   0
       218    749.7991     97.0663 300.4121297 +22.6128694     380.4262      70.2024      1.816     3.82    -1.648943     19.81128     33.63249         5     0.810     0.516  37.76   0
       219    297.6609     88.9451 300.2740617 +22.4750315     743.5224     70.27393      1.686     4.60    -2.188429     19.81128     60.18654        13     1.232     0.833  32.75   0
       220    742.5502     89.2346 300.4124129 +22.6084464      488.916     70.23817      1.576     3.15    -1.619994     19.81128      42.0836        10     0.921     0.727   0.97   0
       221    780.2798     83.7527 300.4259449 +22.6181723     440.0789     70.23817      1.739     5.98      -1.5994     19.81128     33.14128        10     1.186     0.849 -71.33   0
       222    800.4830     80.0577 300.4334382 +22.6231613     1091.446     70.30966      1.614     3.86    -1.583753     19.81128      105.174        21     1.199     1.145  50.37   0
       223    184.0140     75.7937 300.2430056 +22.4371769     563.6939     70.11289      1.633     4.29    -2.216836     19.81128     55.56657         9     1.067     0.748  45.65   0
       224    975.3172     73.6612 300.4900071 +22.6736786     495.0518     70.30966      1.736     3.77    -1.615494     19.81128     41.29553         9     1.012     0.612  -3.25   0
       225    748.7844     72.5011 300.4197841 +22.6055031      420.119     70.13081      1.649     4.73    -1.560785     19.81128     43.15347         9     1.035     0.998 -21.69   0
       226    601.4612     57.9202 300.3786381 +22.5571754     483.4741      70.2918      1.791     5.16    -1.629924     19.81128     53.70804        10     1.656     0.617  -7.51   0
       227    764.5571     52.3913 300.4312217 +22.6044459     379.3918     70.23817      1.611     4.34    -1.483232     19.81128     44.97387         7     1.064     0.608  22.05   0
       228    573.3437     50.6438 300.3722462 +22.5466592     985.3016     70.22029      1.692     4.06    -1.635912     19.81128     92.76286        19     1.150     1.125  86.22   0
       229     11.0304     47.0044 300.1986126 +22.3770289     479.3898      70.2024      1.764     4.97    -2.358713     19.81128     38.28606         9     0.994     0.703  75.71   0
       230    530.5613     44.6292 300.3608819 +22.5321108      638.925     70.23817      1.598     5.01    -1.713483     19.81128     65.43279        15     1.180     0.981  59.02   0
       231    635.8138     41.1170 300.3947840 +22.5626381     755.3169      70.2024      1.689     4.26    -1.573942     19.81128     58.93247        16     1.124     1.003 -53.55   0
       232    456.2679     35.0182 300.3408827 +22.5070846     1352.965     70.22029      1.908     4.19    -2.141466     19.81128     93.24132        26     1.379     1.207 -39.59   0
       233    103.4945     33.1286 300.2318297 +22.4007789     869.4748     70.32752      1.734     4.13    -2.364661     19.81128     83.30763        15     1.188     0.919  71.07   0
