#   1 NUMBER                 Running object number                                     
#   2 X_IMAGE                Object position along x                                    [pixel]
#   3 Y_IMAGE                Object position along y                                    [pixel]
#   4 ALPHA_J2000            Right ascension of barycenter (J2000)                      [deg]
#   5 DELTA_J2000            Declination of barycenter (J2000)                          [deg]
#   6 FLUX_APER              Flux vector within fixed circular aperture(s)              [count]
#   7 FLUXERR_APER           RMS error vector for aperture flux(es)                     [count]
#   8 FLUX_RADIUS            Fraction-of-light radii                                    [pixel]
#   9 FWHM_IMAGE             FWHM assuming a gaussian core                              [pixel]
#  10 BACKGROUND             Background at centroid position                            [count]
#  11 THRESHOLD              Detection threshold above background                       [count]
#  12 FLUX_MAX               Peak flux above background                                 [count]
#  13 ISOAREA_IMAGE          Isophotal area above Analysis threshold                    [pixel**2]
#  14 A_IMAGE                Profile RMS along major axis                               [pixel]
#  15 B_IMAGE                Profile RMS along minor axis                               [pixel]
#  16 THETA_IMAGE            Position angle (CCW/x)                                     [deg]
#  17 FLAGS                  Extraction flags                                          
         1    164.2155     12.2119 300.2567274 +22.4137464     766.5197     70.28178      1.722     4.06    -2.058988      19.8438      68.5985        13     1.074     0.952  82.61   0
         2    428.4953   1016.6383 300.0124244 +22.7812242     343.9314     70.31763      1.185     3.28    -5.671788      19.8438     46.32314         5     0.733     0.456  69.04   0
         3    104.4888   1016.5411 299.9117495 +22.6838454     1353.182     70.40717     10.246    13.86     5.578085      19.8438     59.47211        32     2.734     2.125  71.90  19
         4     74.6698   1019.8950 299.9013962 +22.6758434     1672.698     69.95831      8.115    23.20     2.492544      19.8438     37.45747        82     4.413     3.388 -78.47  27
         5     95.1233   1021.7397 299.9071475 +22.6825195     1612.196     64.24979      7.009    13.51       5.8261      19.8438     51.80786        53     2.744     1.851  -5.31  27
         6     86.6007   1023.0875 299.9040617 +22.6803439     1072.755     57.76419      4.217     9.76     4.647789      19.8438     45.35313        24     2.434     1.091  12.71  27
         7     91.5388    998.2897 299.9136715 +22.6747252      1873.35     70.42507      9.665    19.98     2.872208      19.8438     49.37386        89     4.825     2.299 -23.95  19
         8     87.5712   1012.3450 299.9078618 +22.6775587     2185.762     70.33555     12.175    24.99     3.746005      19.8438     55.58255       151     5.317     3.262 -22.63  19
         9    941.8851   1007.5064 300.1752638 +22.9327272     1144.864     70.51447      1.026     1.83    -5.264836      19.8438     236.3309        13     0.807     0.734  79.48   0
        10    591.8228   1004.9548 300.0670494 +22.8269236     190.1541     70.37137      1.142     3.34    -4.807556      19.8438     40.92817         5     0.791     0.504 -35.47   0
        11    440.0986   1003.8497 300.0201989 +22.7810434     283.7742     70.40717      1.212     3.13    -5.501762      19.8438      37.4481         6     0.747     0.565 -39.39   0
        12    624.0469   1002.0123 300.0780387 +22.8357550     80.51271     70.33555      1.017     3.69    -4.575843      19.8438     28.20564         5     0.646     0.607  -0.68   0
        13    730.8581    996.5198 300.1130867 +22.8662446     471.4028     70.37137      1.425     4.26    -4.573388      19.8438     62.94781        10     1.392     0.615  52.20   0
        14     99.0063   1008.2469 299.9127480 +22.6798218     1569.625     70.35346      8.268    10.21     4.582946      19.8438     49.18719        31     1.982     1.467 -69.28   3
        15    542.8430    991.7302 300.0561127 +22.8084245     168.5429     70.29971      1.024     2.80    -5.281013      19.8438     40.84248         6     0.746     0.551  47.74   0
        16    765.4034    990.6625 300.1257545 +22.8749334     566.5001     70.33555      1.027     2.08    -4.809611      19.8438     96.64832         9     0.753     0.684  73.62   0
        17    922.2352    988.1971 300.1754279 +22.9212902     181.2245     70.33555      1.120     3.43    -5.284344      19.8438     36.36583         5     0.972     0.350 -44.52   0
        18    787.6998    984.3904 300.1347431 +22.8798259     6482.917     70.24592      1.058     1.79    -4.967101      19.8438     1185.762        30     0.953     0.900  30.00   0
        19    833.1210    984.7069 300.1487917 +22.8935481      358.569     70.46085      1.173     3.00    -5.250549      19.8438     53.09351         6     0.870     0.451 -38.49   0
        20    978.2314    983.8904 300.1942877 +22.9368545     315.5128     70.28178      0.925     2.18    -5.264836      19.8438     53.25116         6     0.690     0.566 -33.90   0
        21     82.8545   1002.7266 299.9095294 +22.6733860     1883.224     70.31763      7.172    16.35     2.237221      19.8438     69.91859        53     3.673     2.023 -75.21  19
        22    493.1447    973.0052 300.0467466 +22.7881318     313.1956     70.31763      1.229     3.78    -5.071846      19.8438     49.97757         6     0.794     0.522  60.26   0
        23    839.6189    972.0969 300.1549233 +22.8918800     291.9717     70.24592      1.189     2.88     -5.21336      19.8438     41.82627         7     0.804     0.614  64.32   0
        24     69.6717    969.6355 299.9162114 +22.6599452     53.80758     70.33555      1.113     4.35    -1.635066      19.8438     36.50195         5     1.138     0.473   4.81   0
        25    796.1727    966.4306 300.1432320 +22.8772162     768.4751     70.33555      1.041     1.97    -4.920127      19.8438     156.3302        11     0.818     0.688 -67.93   0
        26    979.5173    965.4985 300.2006788 +22.9319616     315.3737      70.4966      1.164     3.26    -5.264836      19.8438     47.30626         6     0.879     0.457 -15.74   0
        27    648.7816    963.6396 300.0982366 +22.8321757     337.2926     70.35346      1.237     3.14    -4.569513      19.8438     36.52471         6     0.709     0.644 -69.81   0
        28    834.3903    959.8948 300.1572680 +22.8868099     457.2507     70.26385      1.111     2.16     -5.10751      19.8438     83.27441         8     0.738     0.665 -11.02   0
        29    882.8413    951.1600 300.1752115 +22.8988418     383.4548     70.42507      1.240     2.56    -5.250253      19.8438     58.29086         6     0.721     0.563 -54.75   0
        30    734.0613    950.0631 300.1292143 +22.8538795        379.9     70.37137      1.155     2.48    -4.573388      19.8438     60.07254         7     0.808     0.545  53.30   0
        31    446.7786    946.8633 300.0408350 +22.7667129     2423.983     70.29971      1.241     2.26    -4.738435      19.8438     390.1528        18     0.924     0.895  15.20   0
        32    745.4059    947.0427 300.1337313 +22.8564178     243.2308     70.35346      1.120     3.25    -4.604841      19.8438     64.08328         7     0.741     0.665  49.76   0
        33    225.0389    935.3989 299.9756252 +22.6968225     148.9939     70.35346      1.428     3.94    -3.901582      19.8438     27.95192         5     0.910     0.489  -2.05   0
        34    172.0717    932.8727 299.9599892 +22.6801847     440.0595     70.38927      1.207     2.63     -3.63478      19.8438     80.24725         9     0.812     0.708  63.36   0
        35    149.1308    929.8663 299.9538408 +22.6724302     1016.888     70.38927      1.267     2.19    -3.925379      19.8438     157.5029        13     0.872     0.837  17.09   0
        36     80.0746    930.6454 299.9321373 +22.6519024     262.3944     70.31763      1.502     5.37    -4.153273      19.8438     33.35608         6     1.160     0.701   8.11   0
        37   1020.7470    918.2001 300.2289381 +22.9307522     1254.042       67.688      1.027     1.66     -5.06556      19.8438     289.8854        16     0.858     0.789  35.20  16
        38    974.9489    916.6246 300.2151702 +22.9165626     1260.038     70.35346      1.075     1.68    -5.048035      19.8438     243.5795        13     0.791     0.782  35.92   0
        39    180.7428    911.1633 299.9697512 +22.6765692     264.2759     70.33555      1.299     4.90    -4.039306      19.8438     54.02589         8     1.275     0.534  60.64   0
        40    758.5824    910.7222 300.1496623 +22.8499518     332.4598     70.33555      0.995     2.22    -4.546177      19.8438     55.66237         6     0.655     0.612  -9.61   0
        41    626.5952    904.7903 300.1104918 +22.8086361     2783.844     70.19208      1.212     2.20    -4.453653      19.8438     441.4389        22     1.020     0.913  34.66   0
        42    116.1410    905.9919 299.9513654 +22.6556770     191.3239     70.29971      1.110     3.76    -4.249879      19.8438     40.40835         5     0.667     0.608   0.86   0
        43    428.9284    901.9005 300.0499221 +22.7484612     394.4655     70.47872      1.265     2.27    -4.443534      19.8438     66.27245         8     0.780     0.649 -47.76   0
        44    647.2657    897.4144 300.1193286 +22.8127249     490.7314     70.31763      1.301     3.39    -4.466796      19.8438     72.43997         9     1.062     0.615 -83.18   0
        45    177.0010    898.9177 299.9725751 +22.6719359     700.3937     70.22797      1.181     2.30    -4.025144      19.8438     124.4073        10     0.797     0.739 -13.40   0
        46    196.2505    895.8522 299.9795542 +22.6768406      303.235     70.37137      1.212     3.01    -4.051939      19.8438     52.06782         6     0.912     0.630  82.85   0
        47   1019.7330    884.5798 300.2395686 +22.9207961     635.7266     70.12023      1.061     2.05     -4.46778      19.8438     102.7267         7     0.686     0.581  18.03  16
        48    802.6684    884.4046 300.1719648 +22.8556294     2338.826     70.29971      1.123     2.05    -4.421721      19.8438     366.4165        18     0.903     0.863 -83.06   0
        49    211.6143    879.1854 299.9897538 +22.6766796     344.7878     70.26385      0.985     2.25    -4.041177      19.8438     49.84309         5     0.681     0.471 -75.41   0
        50    519.9150    877.2425 300.0862563 +22.7687097     378.0931     70.29971      1.385     4.29    -4.254169      19.8438     47.61087        10     0.987     0.863 -39.58   0
        51    166.2316    875.2830 299.9769228 +22.6619275     565.4979     70.33555      1.179     2.35    -4.008085      19.8438     84.91035         9     0.812     0.671 -63.61   0
        52    581.4463    870.4831 300.1076062 +22.7852428     215.9194     70.31763      1.007     2.78    -4.227107      19.8438     52.60969         6     0.850     0.456 -74.04   0
        53    315.8651    867.3566 300.0260078 +22.7046031     30896.81     70.31763      1.276     2.24    -4.192252      19.8438     4608.196        64     1.162     1.116  68.98   0
        54    573.6076    866.1973 300.1065616 +22.7816605     952.0759     70.15617      1.248     2.42    -4.207039      19.8438     147.4304        14     0.914     0.849  51.42   0
        55    986.7330    865.0612 300.2356325 +22.9052949      387.319     70.37137      0.991     1.88    -4.107739      19.8438     98.53521         8     0.710     0.642  31.50   0
        56      2.1770    862.1716 299.9302387 +22.6088764     388.8498     59.20771      1.268     2.83    -4.616889      19.8438     71.95297        11     0.871     0.839  41.14  24
        57    602.5889    862.1418 300.1169027 +22.7891965     509.5296     70.29971      1.290     2.32    -4.187026      19.8438     81.40693         8     0.811     0.627 -37.41   0
        58    613.2211    860.3683 300.1207897 +22.7918791     273.9668     70.33555      1.303     4.38     -4.19383      19.8438     48.04716         9     0.947     0.684 -67.08   0
        59    933.9311    857.4764 300.2216393 +22.8872800     196.2759     70.42507      0.998     3.73    -4.107811      19.8438     31.77868         6     0.803     0.499   1.68   0
        60    718.7446    856.6790 300.1548480 +22.8224905     296.3293     70.37137      1.270     4.02    -4.377252      19.8438     37.09303         5     0.746     0.687  43.77   0
        61    756.8081    846.8087 300.1699167 +22.8310801     496.6071     70.19208      1.480     3.17    -4.283003      19.8438     62.16795         8     0.908     0.631 -54.67   0
        62    365.5502    844.5841 300.0488687 +22.7129956     18221.09     70.37137      1.276     2.27    -4.159422      19.8438     2442.752        48     1.153     1.064  73.19   0
        63    379.8303    845.1260 300.0531330 +22.7174391     1097.304     70.35346      1.289     2.44    -4.188641      19.8438     168.3402        15     0.932     0.879  -0.76   0
        64    888.4843    840.0256 300.2131536 +22.8686383     1695.581     70.31763      1.152     2.07    -4.180066      19.8438     261.5685        15     0.855     0.806 -67.81   0
        65    376.7056    839.1415 300.0541091 +22.7147849      466.249     70.40717      1.537     4.42    -4.157417      19.8438     47.89643         8     1.083     0.876 -65.72   0
        66    646.4741    836.5944 300.1388807 +22.7950393     448.5895     70.28178      1.169     2.69    -4.190711      19.8438     81.38715        10     0.953     0.696  42.45   0
        67    247.8776    836.3958 300.0149511 +22.6753080     524.2617     70.24592      1.350     2.96    -4.041309      19.8438     68.78161        13     1.058     0.793 -30.03   0
        68     52.4800    831.7515 299.9557583 +22.6152767      336.491     70.35346      1.057     2.63    -4.611397      19.8438     64.67801         6     0.855     0.473  47.28   0
        69    493.6652    830.9883 300.0931443 +22.7475635     430.0365     70.28178      1.269     2.90    -4.036193      19.8438      61.3307         8     0.780     0.690  17.24   0
        70    894.4680    827.6050 300.2190615 +22.8668678     292.5881     70.29971      1.416     4.15    -4.147337      19.8438     47.08134         6     1.070     0.459  31.71   0
        71     81.2036    825.9745 299.9665586 +22.6222517     314.5608     70.29971      1.341     4.30    -4.609408      19.8438     47.72201         7     0.786     0.671  66.17   0
        72    872.7295    822.6631 300.2138947 +22.8589284     211.9211     70.37137      1.358     3.14    -4.165994      19.8438      39.2144         5     0.726     0.460  11.34   0
        73    245.7418    820.8176 300.0193572 +22.6702009     306.0106     70.29971      1.209     3.42    -4.023076      19.8438     52.79168         9     0.899     0.730  14.71   0
        74    954.8080    805.3227 300.2451237 +22.8785690      2516.03     70.29971      1.160     2.10    -4.084616      19.8438     428.5111        20     0.951     0.872  65.02   0
        75    560.4392    806.6114 300.1218571 +22.7606156      731.195     70.31763      1.239     2.62    -3.916564      19.8438     85.35863        13     0.933     0.818 -58.93   0
        76    943.3547    796.8164 300.2443214 +22.8726918     1071.788     70.35346      1.272     2.38    -4.081251      19.8438     143.3642        18     1.050     0.957 -33.72   0
        77    306.6123    791.0504 300.0479653 +22.6799479     531.6759     70.38927      1.291     1.92    -3.978524      19.8438     89.51629         6     0.729     0.470  76.75   0
        78    769.5543    788.1035 300.1929939 +22.8180570     1430.098     70.35346      1.360     2.56    -4.047959      19.8438     181.0435        17     0.972     0.911  53.91   0
        79    974.3506    786.7448 300.2572630 +22.8790956     921.8257     70.37137      1.196     2.27    -4.080698      19.8438       146.59        12     0.881     0.795  80.60   0
        80    852.0352    774.1539 300.2232326 +22.8387958     327.0243     70.37137      1.376     4.95    -4.070121      19.8438     40.11811         9     1.001     0.825 -26.21   0
        81    888.0599    765.0577 300.2374200 +22.8469898     85185.29     70.40717      1.292     2.25    -4.072305      19.8438      12529.3       105     1.247     1.175  72.97   0
        82    740.6544    765.4751 300.1913551 +22.8028920     373.6071     70.37137      1.273     3.01    -4.049996      19.8438     55.66124         5     0.964     0.323  67.39   0
        83    920.8596    757.4022 300.2501350 +22.8546289     261.6867     70.31763      1.291     3.37    -4.060521      19.8438     34.00309         5     0.778     0.422 -22.43   0
        84    574.4796    754.1258 300.1433062 +22.7497721     945.0189     70.44296      1.265     2.59    -3.896837      19.8438     137.0711        12     0.917     0.779  12.70   0
        85    755.5685    751.2829 300.2006187 +22.8032930     5504.414     70.33555      1.366     2.55     -4.02223      19.8438     657.1456        31     1.101     1.069  53.85   0
        86    257.2802    746.7641 300.0470396 +22.6524360     2866.136     70.28178      1.316     2.46    -3.959236      19.8438     397.7868        24     1.065     1.014  84.31   0
        87    339.3456    744.9442 300.0731442 +22.6765561     639.1122     70.37137      1.330     2.85    -3.908766      19.8438      80.6936        10     0.931     0.695 -57.65   0
        88    215.2595    742.4006 300.0353994 +22.6385659     202.3743     70.29971      1.023     2.64    -4.017799      19.8438     41.94244         5     0.710     0.456  19.37   0
        89    547.5551    739.9483 300.1395390 +22.7376241       391.36     70.35346      1.396     4.65    -3.890863      19.8438     57.56284         8     0.985     0.786 -72.48   0
        90    539.1075    732.1609 300.1394436 +22.7328546     1851.166     70.33555      1.453     2.94    -3.854833      19.8438     192.1282        20     1.066     1.004  11.02   0
        91    529.4290    726.1406 300.1383902 +22.7282226      790.087     70.33555      1.364     2.76    -3.812738      19.8438     104.9109        13     0.951     0.873  72.77   0
        92    192.8034    722.3600 300.0349406 +22.6260764     443.7593     70.35346      1.513     2.78    -4.052218      19.8438     66.50999        10     0.870     0.826  53.86   0
        93    232.7937    718.1072 300.0487516 +22.6368665     327.9929     70.24592      1.370     4.07    -4.007223      19.8438     48.06026         6     1.003     0.553 -40.34   0
        94    975.5856    716.8359 300.2803958 +22.8593909     302.2534     70.33555      1.225     1.79    -4.073802      19.8438     57.95063         5     0.672     0.439  63.96   0
        95    454.1510    715.8788 300.1183061 +22.7026848     1127.568     70.33555      1.470     3.45    -3.783488      19.8438     140.3328        18     1.102     0.979  28.70   0
        96    552.9605    716.5330 300.1488391 +22.7325282     308.0373     70.29971      1.356     4.19    -3.774256      19.8438     35.97223         6     1.016     0.493  -4.86   0
        97    108.2258    711.0163 300.0123541 +22.5974225     11452.41     70.35346      1.324     2.43    -4.108984      19.8438     1410.899        41     1.168     1.081  79.23   0
        98    539.1673    711.0938 300.1463158 +22.7268282     599.0103     70.28178      1.561     3.54    -3.712774      19.8438     53.65681        11     0.908     0.829  25.43   0
        99    956.9212    696.9222 300.2810548 +22.8480757     577.1767     70.44296      1.280     2.24    -4.063603      19.8438     100.9016         9     0.771     0.700  28.02   0
       100     54.2834    695.0307 300.0007999 +22.5766377      820.827     70.35346      1.632     4.45    -4.116373      19.8438     81.37476        16     1.292     0.864  81.80   0
       101     29.2551    712.4884 299.9873494 +22.5741228     408.5542     70.37137      1.237     2.93    -4.171404      19.8438     58.71458         6     0.825     0.575 -73.83   0
       102    897.0352    689.6620 300.2647478 +22.8280335     401.5779     70.35346      1.301     4.29    -4.048572      19.8438     39.93745         7     0.755     0.695   3.28   0
       103    459.3509    684.6738 300.1300745 +22.6952937     346.4071     70.33555      1.432     3.86    -3.633103      19.8438     40.72839         7     0.937     0.654 -86.47   0
       104    625.0309    680.7203 300.1829229 +22.7438776     319.5591     70.33555      1.226     4.68    -3.918081      19.8438     36.21275         7     0.965     0.645   3.62   0
       105    503.5188    679.8384 300.1453894 +22.7071622     420.6962     70.29971      1.287     3.22    -3.502371      19.8438     64.92745         7     0.949     0.492  84.02   0
       106    937.0363    675.1088 300.2819513 +22.8358488     1877.583     70.31763      1.292     2.35    -4.052866      19.8438       276.91        20     1.026     0.938  32.61   0
       107    468.9398    675.1292 300.1361622 +22.6954334     877.8571     70.37137      1.387     3.01    -3.533444      19.8438     98.87887        14     1.004     0.847  13.36   0
       108     30.9469    669.2610 300.0019343 +22.5622416     2819.654     70.38927      1.362     2.40     -4.04814      19.8438     379.5866        25     1.159     0.998 -84.60   0
       109    332.4023    662.2125 300.0978967 +22.6507447     5146.043     70.17413      1.442     2.63    -3.883729      19.8438     614.7068        31     1.168     1.082  74.42   0
       110    454.7600    659.1232 300.1369566 +22.6865857     5061.979     70.31763      1.484     2.95    -3.555481      19.8438      541.443        31     1.180     1.127  64.23   0
       111    866.2818    652.8483 300.2671371 +22.8082401     1086.769     70.35346      1.359     2.82    -3.984507      19.8438     134.1221        15     1.028     0.906  63.49   0
       112    950.8713    650.1545 300.2943813 +22.8328301     7193.507     70.31763      1.334     2.44    -4.034122      19.8438      905.853        35     1.105     1.068  47.56   0
       113    515.2355    648.6346 300.1591842 +22.7017252     6794.777     70.40717      1.526     2.94    -3.407288      19.8438     765.3198        36     1.260     1.151  41.85   0
       114    684.7936    644.4921 300.2133146 +22.7514085     230.4579     70.24592      1.185     4.37    -3.646282      19.8438     41.19091         9     0.871     0.797  55.69   0
       115    242.7765    644.3738 300.0758360 +22.6187213     765.1016     70.29971      1.498     3.34    -4.009284      19.8438      93.2728        14     1.006     0.931  -9.82   0
       116    447.0061    636.9225 300.1417644 +22.6778892     2637.515     70.24592      1.497     2.99     -3.51544      19.8438     278.2635        26     1.183     1.106 -40.75   0
       117    789.8721    636.6418 300.2485981 +22.7806722     368.9272     70.31763      1.403     4.45    -3.789911      19.8438     44.71904         9     0.917     0.714 -77.29   0
       118    425.0518    635.4126 300.1354261 +22.6708670     658.2859     70.37137      1.472     3.97    -3.589597      19.8438      78.1274        16     1.274     0.883   9.28   0
       119    179.7281    634.7172 300.0593828 +22.5970215     469.1286     70.46085      1.303     2.70    -4.096881      19.8438      68.4737        11     0.953     0.769  28.91   0
       120    866.5905    632.1421 300.2739677 +22.8023866     961.4967     70.29971      1.382     3.27    -3.918458      19.8438     100.0524        17     1.045     1.012  39.35   0
       121    563.5182    624.3425 300.1821105 +22.7092418     117032.3     70.38927      1.571     3.15    -3.387357      19.8438     11301.09       146     1.450     1.427  53.65   0
       122    747.2385    628.9999 300.2378018 +22.7656916     507.0611     70.31763      1.484     4.71    -3.815458      19.8438     50.80077         9     0.944     0.729 -79.17   0
       123    249.7825    624.5804 300.0844501 +22.6151483     1983.655     70.31763      1.474     2.83    -3.985309      19.8438     227.6524        23     1.132     1.030 -60.85   0
       124    815.3497    620.7497 300.2617046 +22.7837496     292.6259     70.37137      1.080     2.01    -3.801755      19.8438     52.35083         5     0.699     0.438 -69.72   0
       125    298.0933    607.2612 300.1050993 +22.6246841     259.0112     70.42507      1.377     3.92    -3.850383      19.8438     35.10532         5     0.877     0.501  51.43   0
       126    454.1693    604.7144 300.1544663 +22.6707977     1545.084     70.33555      1.540     2.97    -3.393262      19.8438     167.4308        20     1.121     1.065 -40.79   0
       127    771.4987    593.4082 300.2569332 +22.7627484       388.87     70.21003      1.389     4.08    -3.671069      19.8438     49.80879         6     1.205     0.395 -44.81   0
       128    851.0365    590.7651 300.2825757 +22.7858401     872.0053     70.40717      1.323     3.07    -3.793281      19.8438     99.24092        13     0.947     0.864  57.22   0
       129    722.2360    588.5521 300.2431668 +22.7465800     1448.048     70.35346      1.494     3.22    -3.472082      19.8438     139.3239        17     1.019     0.995 -18.58   0
       130    965.3391    582.3192 300.3209525 +22.8176824     601.0396     70.42507      2.296     6.82    -3.960792      19.8438     61.88372        13     2.010     0.649  83.92   0
       131    509.8845    584.7390 300.1782966 +22.6817839     491.9196     70.46085      1.566     4.61    -3.281244      19.8438     51.75787         7     0.982     0.616  14.38   0
       132    851.3372    581.1151 300.2858072 +22.7831588     1306.251     70.44296      1.634     2.98    -3.773931      19.8438     108.6367        20     1.139     1.000  35.30   0
       133    979.5345    581.9617 300.3254950 +22.8218348     666.1937     70.31763      1.287     3.12    -3.999459      19.8438     82.15234        13     0.962     0.860 -10.53   0
       134    889.5397    575.7715 300.2994513 +22.7930779     2473.536     70.35346      1.448     2.85    -3.810858      19.8438     267.9224        25     1.096     1.079  86.31   0
       135    121.9689    566.7446 300.0635378 +22.5601875     622.4912     70.35346      1.435     3.47    -3.834377      19.8438     83.32278        12     1.144     0.728  62.28   0
       136    981.0397    566.0948 300.3311234 +22.8177278     366.3235     70.33555      1.265     2.54    -3.991436      19.8438     55.11913         7     0.846     0.513 -53.68   0
       137    663.5698    546.3235 300.2386260 +22.7168605     426.2907     70.31763      1.681     3.42    -3.144398      19.8438     43.92204         5     0.727     0.465 -72.22   0
       138    977.6971    538.4913 300.3390556 +22.8087955     386.6722     70.51447      1.351     3.41    -3.894736      19.8438     50.92039         7     0.856     0.663  11.02   0
       139    880.7904    534.4926 300.3101447 +22.7785982     630.4897     70.28178      1.509     3.93    -3.714167      19.8438     64.55472        11     0.926     0.869 -35.50   0
       140    865.1977    531.0614 300.3064002 +22.7729381     343.0612     70.31763      1.522     4.54    -3.707872      19.8438     46.05123         9     1.218     0.777 -64.38   0
       141    609.4304    529.2964 300.2273045 +22.6957337     1842.434     70.28178      1.601     3.39    -3.139635      19.8438     168.1561        25     1.185     1.127  14.95   0
       142    723.6552    538.5131 300.2598775 +22.7326380     473.2559     70.38927      1.546     3.75    -3.067557      19.8438     48.65286        11     0.983     0.846  46.31   0
       143   1020.7743    507.8384 300.3624537 +22.8128986     775.7356     67.72522      1.320     3.15    -3.546458      19.8438     100.9968        16     1.085     0.940  32.34  16
       144    979.1356    506.6725 300.3498477 +22.8000847     502.3369     70.37137      1.253     3.39    -3.588107      19.8438     59.95586         9     0.891     0.686  61.48   0
       145    720.0960    503.3321 300.2702049 +22.7214683     575.2552     70.46085      1.603     3.39    -2.971799      19.8438     59.04114        11     1.012     0.769  10.13   0
       146    224.4598    501.5284 300.1165824 +22.5722524     374.0982     70.37137      1.458     5.39     -3.38608      19.8438     46.74112         9     1.213     0.742  78.26   0
       147    286.6838    497.3739 300.1372742 +22.5897366     2036.303     70.31763      1.554     3.00    -3.555351      19.8438     217.0101        24     1.186     1.078 -86.68   0
       148   1019.2601    495.1645 300.3661011 +22.8088029     2606.206     70.35346      1.413     2.76    -3.336635      19.8438     271.5247        25     1.095     1.084 -11.80  16
       149    233.7777    492.0612 300.1225553 +22.5723334     4346.504     70.31763      1.556     3.14    -3.327989      19.8438     427.8457        32     1.244     1.160  65.49   0
       150    374.5540    486.2626 300.1682078 +22.6129177     2791.437     70.37137      1.649     3.16    -3.387237      19.8438     263.3443        29     1.307     1.182 -21.32   0
       151    999.3658    486.3383 300.3627656 +22.8003048     1136.398     70.35346      1.384     2.70     -3.28384      19.8438     125.0032        16     0.989     0.932   7.45   0
       152    618.5920    482.8553 300.2452518 +22.6851485     10625.15     70.33555      1.630     3.37    -2.953551      19.8438     956.8136        44     1.302     1.278  25.88   0
       153    636.0917    483.3051 300.2505540 +22.6905260     395.2188     70.51447      2.113     4.95     -2.95296      19.8438     40.65463         7     1.603     0.509 -34.95   0
       154    816.1475    472.6272 300.3101081 +22.7414485     231.8791     70.35346      1.435     5.02    -3.158156      19.8438     29.50935         6     1.163     0.613  77.84   0
       155    951.9566    465.2467 300.3548376 +22.7800361     478.9801     70.37137      1.331     3.14    -3.368188      19.8438     51.87899        10     0.906     0.750 -66.13   0
       156    173.3668    463.2122 300.1131566 +22.5459250     1197.553     70.31763      1.563     3.21    -3.136245      19.8438     136.2622        20     1.149     1.035 -89.92   0
       157    559.3525    452.4626 300.2366879 +22.6586552     3816.114     70.35346      1.681     3.38    -3.089272      19.8438     326.8616        38     1.373     1.245  14.23   0
       158    972.7177    452.2889 300.3655221 +22.7825346     666.5376     70.44296      1.467     3.29    -3.253945      19.8438     80.62774        12     1.037     0.843 -31.99   0
       159    274.2764    451.8802 300.1482013 +22.5729605     358.1826     70.44296      1.571     4.04    -3.253053      19.8438     43.32862         9     0.967     0.784 -41.58   0
       160    763.7125    441.1673 300.3039948 +22.7166922     676.8327     70.31763      1.733     4.48    -2.925252      19.8438     51.93451        14     1.146     0.877 -25.91   0
       161    465.9404    438.7118 300.2120872 +22.6266883     3502.133     70.40717      1.699     3.49     -3.06008      19.8438     327.2141        30     1.301     1.200  19.55   0
       162    857.8712    432.7623 300.3360656 +22.7425036     793.1661     70.31763      1.481     3.64    -3.047087      19.8438     78.57858        15     1.121     0.907 -65.25   0
       163    955.2574    432.8846 300.3663836 +22.7717261     229.9408     70.44296      1.348     4.40    -3.156234      19.8438     39.62733         9     0.920     0.711  21.83   0
       164    830.6619    420.4670 300.3315812 +22.7308155     277.2601     70.37137      1.206     4.00    -2.908632      19.8438      41.5919         5     0.939     0.488  -7.46   0
       165    353.3998    418.1277 300.1837693 +22.5870174      1345.86     70.21003      1.602     3.30    -2.974247      19.8438     157.5081        21     1.157     1.089  80.30   0
       166     72.2098    415.5917 300.0972036 +22.5019004     627.4232     70.22797      1.414     3.44    -2.987622      19.8438     71.85529        12     1.017     0.812  74.43   0
       167    322.8009    407.4015 300.1777393 +22.5747583     16862.34     70.12023      1.678     3.46    -2.936443      19.8438     1458.563        53     1.391     1.306  68.28   0
       168    857.3583    404.5113 300.3450853 +22.7342332     724.2421     70.33555      1.525     3.07    -2.881041      19.8438     78.71471        12     0.978     0.795  50.88   0
       169    812.4021    402.1907 300.3318295 +22.7200916     243.4068     70.15617      1.478     4.85    -2.890121      19.8438     25.90925         5     1.071     0.623  24.90   0
       170     19.2508    395.4669 300.0872945 +22.4802299      2836.02     70.31763      1.453     2.61    -3.044873      19.8438     291.6352        26     1.117     1.048  65.30   0
       171    772.4626    393.0898 300.3223423 +22.7055050      314.163     70.42507      1.464     4.32    -2.893781      19.8438     35.40268         6     1.102     0.482 -17.39   0
       172    733.1520    387.0596 300.3120553 +22.6919884     967.9562     70.38927      1.549     3.73    -2.898324      19.8438        84.23        16     1.116     0.961   5.93   0
       173    947.8865    379.6452 300.3813838 +22.7542177     409.9777     70.31763      1.384     3.50    -2.954831      19.8438     53.01859         8     0.866     0.680  64.49   0
       174    395.0317    372.0718 300.2116793 +22.5862883     1208.406     70.33555      1.742     3.87    -2.623792      19.8438     114.1486        21     1.244     1.076 -73.97   0
       175    834.1498    364.2001 300.3509488 +22.7156950     472.7439     70.28178      2.050     4.27    -2.880728      19.8438     43.20008         7     1.030     0.892  68.67   0
       176    471.0750    351.0750 300.2421558 +22.6030697     791.0446     70.42506      1.805     4.36    -2.479093      19.8438     58.76903        19     1.238     1.057 -31.91   0
       177    715.5922    342.5753 300.3210364 +22.6739459     1142.651     70.33555      1.631     3.86    -2.859057      19.8438     110.7272        20     1.207     1.027  85.38   0
       178    976.6919    336.9496 300.4042352 +22.7505773     1777.032     70.37137      1.439     2.89    -2.784905      19.8438     187.6008        20     1.096     0.978 -39.06   0
       179    423.9807    326.7968 300.2353898 +22.5819746      402.501     70.26385      1.742     5.40    -2.439933      19.8438     36.29597         8     1.080     0.763 -51.56   0
       180     98.9101    321.1740 300.1361654 +22.4828306     742.7046     70.28178      1.694     4.23    -2.831796      19.8438     72.29183        19     1.209     1.089 -27.60   0
       181    129.9160    321.2038 300.1457880 +22.4921444     414.9002     70.26385      1.434     2.81    -2.831796      19.8438     46.41345         6     0.741     0.561 -53.42   0
       182    787.2106    303.9126 300.3559045 +22.6843045     374.5223     70.28178      1.268     5.15    -2.710541      19.8438     37.60578         9     1.058     0.710  13.23   0
       183    885.1877    293.1352 300.3899379 +22.7105678     1140.699     70.28178      1.560     3.69    -2.714022      19.8438     103.7077        20     1.219     1.028  38.22   0
       184    304.0834    290.9455 300.2097449 +22.5357186      1188.73     70.37137      1.657     3.37    -2.521985      19.8438     111.1482        22     1.197     1.076  80.48   0
       185    381.9312    285.9267 300.2355829 +22.5576290     479.5356     70.40717      1.500     4.35    -2.466695      19.8438     63.37948        12     1.281     0.801 -73.84   0
       186    783.7285    284.6431 300.3610774 +22.6777240     486.4315     70.29971      2.259     6.22    -2.658526      19.8438     31.58791        10     1.344     0.808 -34.77   0
       187    198.8109    278.2479 300.1811444 +22.5004915     377.0465     70.35346      1.445     3.38    -2.657384      19.8438     51.47352         9     0.884     0.807 -34.49   0
       188    736.2230    274.7337 300.3494956 +22.6606391     1049.347     70.31763      1.594     3.78    -2.682909      19.8438     106.2162        17     1.113     1.055  19.54   0
       189    801.3406    274.0207 300.3700144 +22.6799495     331.1073     70.28178      1.701     5.76    -2.636412      19.8438     31.53325         7     1.133     0.824  57.49   0
       190    220.4898    271.4612 300.1900856 +22.5050481     263.3392     70.42507      1.345     3.75    -2.583889      19.8438     32.67276         6     0.944     0.429 -72.20   0
       191   1007.5857    266.9740 300.4365957 +22.7397165     422.8034     70.35346      1.378     3.73    -2.137338      19.8438       65.216        14     1.133     0.883  36.37   0
       192    740.5391    266.2372 300.3535991 +22.6594914     421.5368     70.35346      1.468     5.44    -2.653869      19.8438     51.90175         8     1.360     0.699  14.07   0
       193    661.0051    265.5112 300.3290635 +22.6354442     752.8183     70.24592      1.616     3.81    -2.512983      19.8438     72.18233        13     0.982     0.958 -30.66   0
       194    587.3296    257.1703 300.3088328 +22.6109623     637.4299     70.33555      1.757     6.27    -2.464605      19.8438      48.0791        13     1.202     0.919  36.81   0
       195    856.2015    256.6740 300.3927434 +22.6914034      870.902     70.22797      1.593     4.19    -2.705642      19.8438     82.91725        14     1.058     1.024 -51.09   0
       196    868.2336    255.6439 300.3968281 +22.6947124     413.7935     70.38927      1.569     4.73    -2.712709      19.8438     32.44025         8     1.024     0.620  69.83   0
       197    984.7902    245.9288 300.4363205 +22.7268379     551.1372     70.31763      1.320     3.40    -2.282639      19.8438       74.328        12     1.039     0.819 -19.72   0
       198      9.0540    243.4280 300.1335020 +22.4335581     233.0104     70.33555      1.375     3.61    -2.628402      19.8438        35.01         5     0.773     0.587  82.94   0
       199    219.8416    240.1372 300.2000542 +22.4958633     449.1929     70.31763      1.566     2.01    -2.593017      19.8438      53.7928         6     0.712     0.537 -46.08   0
       200     81.2141    234.4015 300.1588430 +22.4526236     1267.769     70.17413      1.603     3.48    -2.763977      19.8438     120.1634        19     1.147     1.033 -23.87   0
       201    904.1962    231.4160 300.4159044 +22.6985228     334.9564     70.24592      1.287     4.03    -2.662706      19.8438     53.05019         7     0.804     0.653  10.87   0
       202    238.6544    227.7776 300.2099140 +22.4979593     3267.654     70.35346      1.665     3.04    -2.575257      19.8438     344.9472        33     1.322     1.222 -78.27   0
       203     22.8852    222.3219 300.1446487 +22.4316538      730.689     70.44296      1.541     3.45    -2.655646      19.8438     75.58978        14     1.107     0.839  73.11   0
       204    882.4873    208.9811 300.4164210 +22.6855701     2041.711     70.28178      1.645     3.38      -2.6836      19.8438     156.8952        25     1.247     1.123  16.93   0
       205    986.0693    207.5179 300.4491903 +22.7161774     1749.923     70.44296      1.536     2.84    -2.271231      19.8438     181.7665        20     1.068     1.035  77.22   0
       206    483.5086    191.7910 300.2977453 +22.5610576     1015.467     70.26385      1.700     3.97    -2.495721      19.8438     84.97852        19     1.217     1.074  -9.50   0
       207    122.9884    193.4309 300.1851195 +22.4534010      391.398     70.33555      1.422     2.66    -2.714993      19.8438     50.43749         5     0.750     0.553 -88.52   0
       208    257.4987    171.6387 300.2339942 +22.4874963     3346.431     70.35346      1.657     3.19    -2.601647      19.8438     373.9526        34     1.313     1.241  75.40   0
       209    108.6451    171.0668 300.1879221 +22.4426793     389.6591     70.33555      1.347     3.66    -2.677738      19.8438     42.47671        13     1.002     0.909  82.88   0
       210    503.4707    156.8426 300.3153005 +22.5570037     3611.658     70.29971      1.690     3.51    -2.501546      19.8438     315.5174        32     1.274     1.264 -38.01   0
       211    389.5004    157.3682 300.2796718 +22.5229848     335.5668     70.31763      1.361     3.14     -2.45946      19.8438     60.50896         6     0.920     0.430 -15.57   0
       212    756.0557    146.5484 300.3972878 +22.6297454     482.7704     70.37137      1.766     3.28    -2.247825      19.8438     48.70657         7     0.863     0.692 -68.85   0
       213    631.7668    136.8245 300.3617335 +22.5897072     3663.844     70.33555      1.704     3.59    -2.464206      19.8438     281.8206        34     1.346     1.262 -85.24   0
       214    406.8269    135.9852 300.2920007 +22.5220388     748.7828     70.35346      1.585     3.95    -2.262043      19.8438     72.24756        17     1.134     1.042 -78.98   0
       215    673.2322    134.0294 300.3755528 +22.6013301      458.581     70.33555      1.548     5.56    -2.394047      19.8438     46.13464        12     1.083     1.001   9.02   0
       216    688.7684    130.3109 300.3815981 +22.6049171     421.4902     70.29971      1.806     4.82    -2.321119      19.8438     32.01547         7     1.050     0.628  16.60   0
       217    156.3558    128.5014 300.2165589 +22.4447749     423.2269     70.33555      1.652     4.06    -2.430168      19.8438     52.40424         7     1.026     0.731 -55.17   0
       218    958.6693    126.5436 300.4669296 +22.6846875     227.0882     70.35346      1.480     4.26    -2.367749      19.8438     37.55576         5     1.101     0.470  88.72   0
       219    316.4019    123.3090 300.2679917 +22.4912848     355.3299     70.24592      1.712     3.94     -2.28347      19.8438     32.18233         5     1.024     0.434  75.78   0
       220    675.8895    121.6139 300.3804095 +22.5985585     1654.775     70.28178      1.763     3.88    -2.289026      19.8438     133.6361        26     1.340     1.172  65.14   0
       221    690.9261    120.2795 300.3855255 +22.6026807     581.1713     70.44296      1.862     3.00    -2.246908      19.8438     51.96065         9     0.902     0.694  68.58   0
       222    762.5281    113.3269 300.4100856 +22.6221357     724.3103     70.38927      1.529     3.83    -2.083729      19.8438     81.63058        13     1.046     0.878  87.57   0
       223    700.0862    106.2443 300.3929329 +22.6013916     424.3723     70.31763      1.491     5.69    -2.143872      19.8438     38.50742        12     1.216     0.750  70.89   0
       224    506.5135    105.9561 300.3327610 +22.5432975      624.636     70.31763      1.715     4.23    -2.073331      19.8438     70.48125        15     1.211     1.033 -44.76   0
       225    409.9732    104.3835 300.3032341 +22.5139056     422.7138     70.35346      1.338     4.69    -1.957675      19.8438     64.40907         8     1.188     0.561 -43.04   0
       226    749.5207     95.3041 300.4118815 +22.6130581     389.2046     70.44296      1.590     3.74    -2.028233      19.8438     41.40354         6     0.907     0.671  73.42   0
       227    181.3765     94.2717 300.2354405 +22.4424534     2263.762     70.37137      1.699     3.23    -2.246325      19.8438     214.5674        31     1.353     1.230  17.32   0
       228    742.5056     86.5245 300.4125449 +22.6084328     410.4203     70.47873      1.492     3.25    -1.966379      19.8438     51.60604         9     0.988     0.772   3.54   0
       229    297.4509     86.1785 300.2741470 +22.4749396      735.968     70.33555      1.603     3.50    -2.043082      19.8438     78.75776        12     1.117     0.836   5.59   0
       230    780.6346     81.3830 300.4260921 +22.6183774     352.6067     70.33555      1.576     3.73    -1.817975      19.8438     39.35946         5     0.951     0.428 -74.97   0
       231    800.3710     77.4892 300.4335051 +22.6231702     1145.343     70.31763      1.567     3.43    -1.744288      19.8438     111.0089        17     1.082     1.009  88.74   0
       232    184.0844     73.6664 300.2429672 +22.4373499     548.8761     70.44296      1.430     4.11    -2.200214      19.8438     70.51056         9     1.291     0.565 -74.57   0
       233    975.3764     71.2130 300.4900937 +22.6737785     392.6334     70.33555      1.400     4.24    -2.259567      19.8438     46.64493        10     1.025     0.806  26.24   0
       234    748.7892     70.3468 300.4197514 +22.6056649     547.7538     70.33555      1.835     5.71    -1.780634      19.8438     47.34147        11     1.136     0.808   7.76   0
       235    601.6793     55.0531 300.3788985 +22.5571926     425.4767     70.37137      1.536     5.10     -2.19503      19.8438     43.91113         8     1.148     0.827  25.73   0
       236    211.0456     52.4841 300.2582180 +22.4393537     296.7148     70.31763      1.462     3.71    -2.145858      19.8438     33.83338         6     0.793     0.499  -3.26   0
       237    572.9721     48.1381 300.3722049 +22.5466029     1090.929     70.33555      1.726     4.04    -2.093127      19.8438      84.7747        20     1.246     1.047 -53.66   0
       238    296.4128     46.1671 300.2868047 +22.4631378     423.6487     70.31763      1.467     3.79    -1.894939      19.8438     57.85188         8     1.235     0.648 -86.44   0
       239     10.3148     44.5781 300.1984218 +22.3768764     514.6749     70.28178      1.805     4.38    -3.043647      19.8438     45.76495         7     1.109     0.491   2.81   0
       240    530.4537     41.9618 300.3609740 +22.5320862     785.0853     70.33555      1.629     3.90    -1.957299      19.8438     85.90741        18     1.288     1.024 -34.95   0
       241    635.4759     38.4778 300.3947984 +22.5625557     865.1689     70.44296      1.738     4.65    -2.097837      19.8438     78.38554        18     1.222     1.114  86.49   0
       242    456.2136     32.6422 300.3408946 +22.5071580     1141.729     70.35346      1.536     3.11    -1.859956      19.8438     118.0453        20     1.121     1.051 -70.20   0
       243    103.4123     30.4125 300.2319324 +22.4007363     777.3904     70.26385      1.661     3.29     -2.30312      19.8438     88.27632        14     1.177     0.763 -80.31   0
       244    298.2985     17.4327 300.2967117 +22.4554505     262.9887     70.31763      1.224     3.44    -1.787535      19.8438      34.7531         5     0.783     0.437  21.08   0
