#   1 NUMBER                 Running object number                                     
#   2 X_IMAGE                Object position along x                                    [pixel]
#   3 Y_IMAGE                Object position along y                                    [pixel]
#   4 ALPHA_J2000            Right ascension of barycenter (J2000)                      [deg]
#   5 DELTA_J2000            Declination of barycenter (J2000)                          [deg]
#   6 FLUX_APER              Flux vector within fixed circular aperture(s)              [count]
#   7 FLUXERR_APER           RMS error vector for aperture flux(es)                     [count]
#   8 FLUX_RADIUS            Fraction-of-light radii                                    [pixel]
#   9 FWHM_IMAGE             FWHM assuming a gaussian core                              [pixel]
#  10 BACKGROUND             Background at centroid position                            [count]
#  11 THRESHOLD              Detection threshold above background                       [count]
#  12 FLUX_MAX               Peak flux above background                                 [count]
#  13 ISOAREA_IMAGE          Isophotal area above Analysis threshold                    [pixel**2]
#  14 A_IMAGE                Profile RMS along major axis                               [pixel]
#  15 B_IMAGE                Profile RMS along minor axis                               [pixel]
#  16 THETA_IMAGE            Position angle (CCW/x)                                     [deg]
#  17 FLAGS                  Extraction flags                                          
         1    162.1014      3.1689 300.2566969 +22.4138148     714.9941     63.47797      1.503     3.55    -2.123375     19.75064     68.39804        13     1.063     0.851 -78.13  24
         2    462.7680   1021.9427 300.0191250 +22.7962652     670.8361     63.06366      1.153     2.51    -5.746136     19.75064     96.60541         9     0.865     0.631  57.50  16
         3    119.5622   1019.3059 299.9133052 +22.6923946     1708.957     69.98755      9.673    14.64     6.997832     19.75064     49.82666        47     2.727     2.184  59.89  27
         4    109.2458   1020.5105 299.9097088 +22.6896390     1465.143     68.10738     14.875    18.93     7.293567     19.75064     39.84655        52     3.799     2.621  55.75  27
         5     85.5926   1018.4398 299.9030373 +22.6819367     2786.989     70.04104     17.957    41.40     4.973246     19.75064     67.38327       383     9.811     4.848 -11.53  27
         6     69.0818   1015.1035 299.8989964 +22.6760187     1617.662     70.14789      9.329    17.04     1.677165     19.75064     47.53255        62     4.987     1.619 -63.90  27
         7     79.3415    996.2486 299.9083215 +22.6737032     1940.413     70.05885      9.404    20.52     1.686422     19.75064     48.62734        80     4.456     2.626 -77.84  19
         8    939.6570    998.4614 300.1752713 +22.9326909     1397.166     70.07667      1.095     1.77    -6.031387     19.75064     233.1786        15     0.860     0.814  48.05   0
         9    426.3061   1006.8651 300.0126937 +22.7809928     215.0676     70.11229      1.297     4.34    -5.605671     19.75064      51.8624         6     0.979     0.549 -28.89   0
        10    393.4824   1020.1027 299.9981751 +22.7749269     3817.991     69.28846      1.175     2.04    -5.849904     19.75064     574.5631        26     1.015     0.971  84.63  16
        11    728.4853    987.2302 300.1131325 +22.8660965     548.6692     70.00539      1.808     4.95     -5.12744     19.75064     49.66137        10     1.302     0.632  70.61   0
        12     84.8465   1004.3076 299.9074071 +22.6776656     2135.172     70.02321     15.525    28.70     3.342836     19.75064     68.26506       171     8.309     2.751 -20.22  19
        13    763.2944    981.7487 300.1257589 +22.8749724     541.6741     70.07667      1.061     2.17    -5.158214     19.75064     89.25626         8     0.788     0.607  87.26   0
        14    785.4969    975.3950 300.1347437 +22.8798137     6478.139     69.91617      1.069     1.93    -5.208065     19.75064     992.1006        29     1.002     0.909  67.13   0
        15    831.3627    975.1686 300.1491065 +22.8935134     185.3997     70.00538      0.970     2.79    -5.294474     19.75064     44.03286         5     0.724     0.452  73.04   0
        16     96.8126    967.6874 299.9230457 +22.6707747     316.0935     69.95187      1.235     3.26    0.6143406     19.75064     57.33921         8     0.884     0.680 -26.21   0
        17    837.2304    963.0261 300.1548883 +22.8917911     342.4176     70.00539      1.369     2.88    -5.284955     19.75064     57.62203         6     0.968     0.477   8.44   0
        18     88.0839    989.9423 299.9130896 +22.6745248     2025.724     70.09448      9.919    21.27     2.272442     19.75064     61.23108       114     4.588     2.740 -17.87   3
        19    794.0574    957.4423 300.1432557 +22.8772334     793.1021     69.96971      1.081     1.98    -5.187499     19.75064     139.1601        10     0.787     0.680 -86.75   0
        20    977.4477    956.5718 300.2006924 +22.9320094     412.0012     70.02321      1.169     2.43    -5.689879     19.75064     60.19055         5     0.702     0.466  70.79   0
        21    832.1415    950.8170 300.1572778 +22.8867616     377.6375     69.95187      1.123     2.45    -5.262838     19.75064     63.97457         8     0.815     0.607  42.57   0
        22    940.6830    948.1522 300.1919724 +22.9185641     286.9385     70.00539      1.190     2.91    -5.546521     19.75064     41.77645         5     0.706     0.674  14.73   0
        23    624.9839    943.0750 300.0952824 +22.8223654     158.5371     70.00538      1.054     3.79     -4.77502     19.75064     32.00908         5     0.660     0.626  88.45   0
        24    880.2542    941.9672 300.1751514 +22.8986594     370.2832     70.02321      1.157     1.99    -5.356011     19.75064     57.16708         5     0.727     0.460  31.21   0
        25    732.0418    941.0609 300.1292722 +22.8539229     386.5028     69.98755      0.946     2.13    -4.747057     19.75064     82.29645         8     0.757     0.638  39.56   0
        26    444.5529    937.7389 300.0408749 +22.7666610     2310.352     70.04104      1.170     2.16    -4.702818     19.75064      345.909        20     0.970     0.920  34.08   0
        27    743.1935    938.3166 300.1336388 +22.8564827     253.4316     69.93402      1.023     2.93    -4.763758     19.75064     61.70245         5     0.780     0.502  49.88   0
        28    487.9413    925.8683 300.0582362 +22.7762873     195.2641     70.02321      1.274     3.71    -4.590824     19.75064     42.46583         5     0.656     0.603 -83.35   0
        29    105.9043    926.3797 299.9393157 +22.6616758     253.0254     69.91617      1.343     3.45    -4.260346     19.75064     34.40285         5     0.761     0.452 -16.70   0
        30    169.9764    923.4984 299.9601560 +22.6801027     485.1613     69.93402      1.379     2.45    -3.758576     19.75064     69.50903         8     0.811     0.642  54.80   0
        31    146.9852    920.7954 299.9538935 +22.6724204      977.704     69.86259      1.299     2.36    -3.874546     19.75064     138.2297        16     1.123     0.814  90.00   0
        32   1018.5534    909.2923 300.2289016 +22.9307712     1222.693     70.02321      1.111     1.97    -5.260505     19.75064     203.8374        12     0.781     0.763  60.47  16
        33    972.8106    907.7440 300.2151430 +22.9166063     1254.086     70.00539      1.042     1.79    -5.088884     19.75064     254.5374        12     0.825     0.683 -59.40   0
        34    756.4020    901.2974 300.1498036 +22.8498282     317.8861     69.91617      1.076     2.74    -4.587329     19.75064     54.86645         7     0.807     0.575  13.37   0
        35    624.5048    895.7439 300.1105404 +22.8086490     2745.265     70.05885      1.233     2.16    -4.674893     19.75064     377.4099        25     1.106     0.929  73.22   0
        36    426.5607    892.9680 300.0498516 +22.7484248     277.5108     70.04104      1.225     3.32     -4.49284     19.75064     54.23473         9     0.893     0.712  22.99   0
        37    174.8441    889.8970 299.9726045 +22.6719389     623.1579     70.02321      1.234     2.35    -3.930916     19.75064     122.8956        12     0.961     0.754 -45.12   0
        38    645.2442    888.2547 300.1194344 +22.8127264     472.9801     70.02321      1.166     3.29    -4.650719     19.75064       64.979        10     0.981     0.677 -44.21   0
        39   1017.1766    875.4239 300.2394967 +22.9206373     633.9744     69.96971      1.092     2.53    -5.071327     19.75064     99.48445         9     0.805     0.679  16.80   0
        40    800.4484    875.4033 300.1719525 +22.8556169     2304.845     70.00539      1.116     2.03    -4.223122     19.75064     324.5919        18     0.914     0.848  35.33   0
        41    164.1062    866.3577 299.9769289 +22.6619689     513.3423     70.02321      1.144     2.48    -4.058317     19.75064     77.48486         7     0.719     0.637  -2.61   0
        42    579.4407    861.1697 300.1077661 +22.7852072     378.5079     70.00538      1.138     2.43     -4.54842     19.75064     60.41501         5     0.783     0.526  38.14   0
        43    313.7024    858.3340 300.0260299 +22.7046053     31019.65     70.09448      1.262     2.21    -4.207565     19.75064     4427.587        68     1.204     1.126  64.24   0
        44    571.4926    857.3345 300.1065405 +22.7817215     927.2688     70.11229      1.245     2.78    -4.510116     19.75064      118.684        14     0.983     0.811  68.55   0
        45    984.1911    856.2524 300.2354512 +22.9052415     668.8932     70.00539      1.258     2.31    -4.544665     19.75064     102.8152        11     0.925     0.710 -89.59   0
        46    600.2717    853.1492 300.1168598 +22.7891598     515.4804     70.00539      1.176     3.07    -4.648458     19.75064     81.53804         9     0.911     0.740  30.27   0
        47    611.2952    851.1483 300.1209423 +22.7918947     370.8376     70.07667      1.354     3.05    -4.689247     19.75064     54.91975         7     0.848     0.595  34.76   0
        48    717.0035    847.7674 300.1549550 +22.8226497     213.3128     70.00539      1.376     2.68    -4.415837     19.75064     37.36552         5     0.780     0.480 -56.23   0
        49    363.3653    835.5728 300.0488770 +22.7129955      18174.7     70.02321      1.267     2.28    -4.219833     19.75064     2251.033        51     1.167     1.099  57.47   0
        50    754.2908    837.9929 300.1697491 +22.8310344     427.7114     69.91617      1.128     2.07    -4.197589     19.75064     84.78437         7     0.782     0.535  66.15   0
        51    377.6166    836.0510 300.0531528 +22.7174121     1172.474     70.00539      1.280     2.45    -4.212646     19.75064     173.7447        16     0.991     0.924 -49.06   0
        52    886.2750    831.0218 300.2131394 +22.8686308     1576.689     69.98755      1.206     2.19    -3.913973     19.75064     276.4478        16     0.905     0.883  30.59   0
        53    374.6222    829.8093 300.0542526 +22.7147237      371.326     70.00538      1.169     3.40    -4.164134     19.75064     36.74313         5     0.727     0.464  75.38   0
        54    644.0867    827.1570 300.1389574 +22.7948555     631.6682     69.98755      1.316     2.68    -4.671455     19.75064     80.43496         9     0.870     0.672 -12.92   0
        55    480.7831    827.4357 300.0880442 +22.7459175     273.6958     70.00539      0.937     2.85    -4.167879     19.75064     45.57131         5     0.732     0.434 -24.06   0
        56    245.9151    827.3263 300.0150494 +22.6753592     351.8325     70.11229      1.251     2.06    -3.954515     19.75064     78.09065         7     0.679     0.647  46.11   0
        57    491.4312    822.0958 300.0930945 +22.7475830     506.7892     69.95187      1.170     2.26     -4.17374     19.75064     84.50597         8     0.753     0.664   0.56   0
        58    892.1757    818.5160 300.2190479 +22.8668118     259.7303     69.96971      1.170     3.75     -3.89906     19.75064     45.20309         6     0.808     0.499   2.55   0
        59    437.1776    817.2309 300.0778001 +22.7299002     225.9531     70.00538      1.317     4.11    -4.063949     19.75064     51.73962         5     0.978     0.493 -61.87   0
        60     78.9360    816.9973 299.9665350 +22.6222392      325.992     70.00538      1.101     2.86    -4.609268     19.75064      47.8922         5     0.767     0.507  63.99   0
        61    242.9494    811.8128 300.0191751 +22.6700225     281.1361     70.05885      1.305     4.11    -3.931398     19.75064     44.30555         6     1.105     0.590 -13.43   0
        62    536.2047    799.9919 300.1142175 +22.7546847     363.9858     69.86259      1.268     2.59    -4.319571     19.75064     58.73479         8     0.831     0.602  50.83   0
        63    445.7771    799.3730 300.0862852 +22.7273618     105.5799     69.98755      1.366     3.40    -3.954467     19.75064     28.57841         5     0.749     0.447 -17.92   0
        64    558.3685    797.6055 300.1218912 +22.7606529     850.8553     70.00539      1.367     2.27    -4.416303     19.75064     104.0354        12     0.831     0.799  32.09   0
        65    952.5991    796.3665 300.2450894 +22.8785773     2552.412     69.96971      1.080     1.98     -3.89149     19.75064     429.7402        18     0.882     0.861  60.50   0
        66    941.1354    787.7925 300.2443054 +22.8726781     851.7178     69.98755      1.140     1.98    -3.911911     19.75064     167.0791        13     0.917     0.707  29.04   0
        67    303.9975    782.0052 300.0478475 +22.6798128     505.7312     69.82684      1.246     3.30    -3.935289     19.75064      69.9409        10     0.909     0.742   7.03   0
        68    767.3046    779.0110 300.1929940 +22.8180159     1489.295     69.93402      1.274     2.27    -4.028618     19.75064     204.5541        17     0.938     0.901  29.35   0
        69    972.1827    777.8473 300.2572203 +22.8791342     802.5652     70.04104      1.108     1.96    -3.928705     19.75064     161.5279        11     0.849     0.712  89.42   0
        70    849.9698    765.1431 300.2232604 +22.8388341     260.5293     70.02321      1.260     4.49    -3.980233     19.75064     42.68723         7     1.074     0.533  56.21   0
        71    152.7381    765.9676 300.0060588 +22.6297886     262.5447     70.02321      1.134     1.92    -4.064689     19.75064     75.46792         7     0.693     0.624  51.31   0
        72    885.8474    756.0084 300.2374128 +22.8469732     85112.73     70.02321      1.260     2.07    -3.992675     19.75064     13872.93       116     1.253     1.185  88.57   0
        73    738.3170    756.1389 300.1914058 +22.8027564     354.7657     70.09448      1.229     3.58    -4.040362     19.75064     57.82829        10     0.915     0.822 -43.07   0
        74    572.3732    745.1251 300.1433224 +22.7498037     928.8307     70.00538      1.301     2.44    -3.969621     19.75064     117.5373        13     0.905     0.851  40.94   0
        75    753.3230    742.2097 300.2006108 +22.8032613     5373.556     69.96971      1.297     2.38    -4.045537     19.75064     641.4547        35     1.147     1.024  52.40   0
        76    255.0391    737.7332 300.0470304 +22.6524205     2830.467     69.96971      1.337     2.41    -3.947721     19.75064     366.7463        25     1.090     1.020 -29.05   0
        77    337.4995    735.7272 300.0733162 +22.6766056     611.4217     70.14789      1.334     2.85    -4.010284     19.75064     76.00451        10     0.911     0.739 -70.96   0
        78    212.9865    732.9899 300.0355043 +22.6384324     201.2949     69.89832      1.067     2.58    -3.963132     19.75064     42.11044         5     0.634     0.571 -89.90   0
        79    545.3466    730.9637 300.1395176 +22.7376307     323.4729     70.02321      1.135     3.72     -3.75701     19.75064     56.00085        11     1.017     0.836 -60.51   0
        80    536.9095    723.1749 300.1394254 +22.7328645     1926.351     69.95187      1.397     2.66    -3.739673     19.75064     221.0988        21     1.073     0.975  42.84   0
        81    527.1328    717.0441 300.1383770 +22.7281718     817.8391     69.98755      1.373     2.85    -3.729434     19.75064     83.87915        11     0.943     0.700  87.85   0
        82    920.9056    714.1730 300.2619484 +22.8454781     212.7287     69.93402      1.203     4.27    -4.023657     19.75064     39.93012         6     0.845     0.615  -8.93   0
        83    190.4290    713.3049 300.0348971 +22.6260159     415.8751     69.93402      1.386     3.29    -4.025727     19.75064     61.06252         7     1.025     0.462  28.30   0
        84    204.7865    711.8457 300.0398329 +22.6299094     380.1872     70.00538      1.453     2.27    -3.992065     19.75064     56.33464         7     0.745     0.602  84.92   0
        85    551.2129    707.3963 300.1490083 +22.7326310     171.1078     69.86259      1.468     3.71    -3.682305     19.75064     26.28292         5     0.995     0.399 -84.14   0
        86    452.0235    706.6858 300.1183776 +22.7026580     1046.552     69.95187      1.386     2.54    -3.811941     19.75064     140.7678        17     1.024     0.918 -19.51   0
        87    974.2004    707.6396 300.2806879 +22.8595830     111.4021     70.02321      1.041     2.74    -4.008347     19.75064     32.40308         5     0.728     0.446 -18.00   0
        88    106.0794    701.9368 300.0123903 +22.5974246     11150.83     70.09448      1.341     2.39    -4.230682     19.75064     1476.377        40     1.139     1.091  56.92   0
        89    536.9365    702.0522 300.1463035 +22.7268137     548.5551     70.05885      1.381     3.22    -3.657585     19.75064     62.48453        11     0.902     0.840  64.44   0
        90     26.9452    703.3193 299.9873659 +22.5740504     477.1472     70.04104      1.336     2.36     -4.30759     19.75064     64.49293         7     0.708     0.645  19.75   0
        91     52.1497    686.1556 300.0007733 +22.5767035     959.6118     70.04104      1.825     5.08    -4.276591     19.75064     82.94073        18     1.621     0.779 -85.21   0
        92    954.7628    687.8967 300.2810490 +22.8480864     559.3679     70.00539      1.188     2.54    -4.007294     19.75064     94.16571         9     0.864     0.669  84.05   0
        93    821.5961    686.2448 300.2400825 +22.8076785      191.871     70.02321      1.200     2.33    -3.999357     19.75064     39.22313         5     0.687     0.467 -72.52   0
        94    895.0321    680.6580 300.2647840 +22.8280977     440.3303     70.02321      1.304     2.43     -3.94043     19.75064     61.08912         7     0.726     0.626 -14.09   0
        95    638.8421    678.6207 300.1856425 +22.7506696     249.6436     70.04104      1.363     3.48    -3.823876     19.75064     27.96446         5     0.811     0.431  18.88   0
        96    457.1339    674.9760 300.1302793 +22.6950973     449.6588     69.98755      1.329     2.96    -3.685472     19.75064      65.3555         8     0.817     0.727  71.34   0
        97    652.0396    672.5323 300.1917313 +22.7528821      220.875     69.96971      1.372     4.11    -3.867188     19.75064     41.05579         5     0.789     0.612 -85.12   0
        98    605.3691    673.3053 300.1769507 +22.7391015     266.6553     69.91617      1.224     2.84    -3.544226     19.75064     41.77097         5     0.730     0.442  70.59   0
        99    621.8519    671.5769 300.1826438 +22.7435510      192.906     70.02321      1.381     5.18    -3.639361     19.75064     45.11143         9     1.242     0.789   0.23   0
       100    501.3464    670.7590 300.1454056 +22.7071567     308.9919     69.98755      1.255     3.65    -3.543051     19.75064     46.43146         9     1.062     0.630 -76.59   0
       101    934.7312    665.8932 300.2819599 +22.8357625     1850.484     70.13009      1.261     2.24    -3.985294     19.75064     268.3233        19     1.002     0.888 -81.56   0
       102    466.6267    666.2510 300.1360695 +22.6954438     1036.737     70.02321      1.599     4.32    -3.617641     19.75064     97.07272        18     1.255     0.991 -34.12   0
       103     28.8754    660.1771 300.0019932 +22.5622681     2900.871     70.04104      1.312     2.26    -4.255064     19.75064     420.3352        21     1.034     0.932  76.70   0
       104    974.6219    655.8295 300.2976688 +22.8448329     150.3196     70.00538      1.086     3.24    -3.989157     19.75064     37.93465         5     0.931     0.368  -5.08   0
       105    330.1980    653.0994 300.0979162 +22.6507220     5290.394     69.89832      1.436     2.70    -4.003203     19.75064     550.3873        36     1.213     1.154  77.42   0
       106    452.4896    650.0212 300.1369488 +22.6865458     5146.705     69.93402      1.463     2.80    -3.673854     19.75064     579.8526        33     1.212     1.097  49.42   0
       107    864.0093    643.5405 300.2671855 +22.8081389     1108.598     69.96971      1.392     2.80    -3.723034     19.75064     139.6577        17     1.100     0.954 -84.15   0
       108    948.6685    641.0558 300.2943812 +22.8328096     7383.745     70.02321      1.266     2.29    -3.946588     19.75064     1000.532        34     1.066     1.051  26.86   0
       109    513.1168    639.6578 300.1591806 +22.7017671     6574.539     70.09448      1.445     2.77    -3.513648     19.75064      679.444        33     1.175     1.115  36.47   0
       110    183.3593    641.6146 300.0560114 +22.6033432     3566.784     70.02321      1.435     4.99    -4.018922     19.75064     714.5982        15     1.604     0.439   9.88   0
       111    240.4598    635.3630 300.0757878 +22.6186957     820.5972     70.02321      1.553     3.51    -3.961729     19.75064     89.08188        15     1.103     0.928 -47.24   0
       112    682.3917    635.3395 300.2132756 +22.7513145     238.2858     69.98755      1.117     3.88    -3.756185     19.75064     42.26313         6     0.937     0.461   7.58   0
       113    444.7677    627.8282 300.1417623 +22.6778626     2485.337     70.00538      1.492     2.84    -3.666787     19.75064      276.799        25     1.140     1.063  38.46   0
       114    787.7871    627.3199 300.2487098 +22.7806247     406.1129     69.98755      1.447     3.49    -3.722707     19.75064     48.63474        11     0.889     0.866  52.13   0
       115    423.2263    626.2090 300.1355882 +22.6709333     694.4803     70.00539      1.480     3.51     -3.73668     19.75064     66.90982        14     1.098     0.882  89.34   0
       116    177.6044    625.9369 300.0593202 +22.5971209     400.1848     69.96971      1.254     2.81      -3.9947     19.75064     54.66557         9     0.841     0.703 -28.55   0
       117    151.4659    625.9756 300.0511867 +22.5892832     2412.089     69.98755      0.928     1.55    -4.029815     19.75064     1019.077        13     1.176     0.456 -21.30   0
       118    864.4114    622.9078 300.2740194 +22.8023359     849.7957     69.95187      1.365     3.05    -3.622763     19.75064     106.3747        16     1.037     0.921 -15.54   0
       119    745.0559    620.5920 300.2375862 +22.7658778     407.1376     69.98755      1.214     2.69    -3.716137     19.75064     57.68383         7     0.724     0.649 -35.02   0
       120    561.3635    615.3133 300.1821094 +22.7092593     117778.2     69.98755      1.515     2.89    -3.445895     19.75064     11642.16       148     1.425     1.408  17.61   0
       121    247.6773    615.5198 300.0844818 +22.6151732     2145.018     70.11229      1.461     2.63    -3.961729     19.75064     238.8428        21     1.110     0.954  39.45   0
       122    812.9111    610.9619 300.2618556 +22.7834632     455.9765     69.98755      2.108     4.27    -3.591037     19.75064     37.33512         6     1.089     0.477  61.07   0
       123    220.0574    604.0131 300.0796386 +22.6035818     878.5432     69.96971      0.441     1.78    -3.921219     19.75064     701.4018         5     0.320     0.317 -63.39   0
       124    452.0838    595.6445 300.1545008 +22.6708262     1456.159     69.96971      1.534     3.25    -3.520657     19.75064      132.181        22     1.210     1.025  69.71   0
       125    863.3799    591.9087 300.2837760 +22.7931263     138.6515     69.93402      1.299     3.77    -3.535069     19.75064     33.99606         5     0.953     0.660   4.22   0
       126    848.8528    581.4727 300.2826415 +22.7857741     807.4468     70.00538      1.417     3.16    -3.506106     19.75064      90.8919        16     1.069     0.927  37.81   0
       127    720.0316    579.3206 300.2432091 +22.7465261       1384.5     70.00538      1.454     3.08    -3.526432     19.75064     137.1454        18     1.061     0.983  38.34   0
       128    964.3779    576.3909 300.3203024 +22.8189490       300.53     70.00539      1.525     3.77     -3.81755     19.75064     45.08012         7     1.004     0.690  74.14   1
       129    624.9149    576.1140 300.2146339 +22.7170764     379.6096     70.13009      1.600     5.08    -3.300258     19.75064     37.83413         6     0.910     0.802  65.45   0
       130    507.6351    575.6781 300.1782740 +22.6817668     353.3713     69.96971      1.192     3.33     -3.18719     19.75064     50.62659         7     0.908     0.536  25.66   0
       131    977.3490    573.1599 300.3253970 +22.8219092     792.5997     70.02321      1.276     2.75    -3.854275     19.75064     99.15439        12     0.929     0.812  53.97   0
       132    849.2061    571.7422 300.2859146 +22.7830861     1185.978     69.96971      1.470     4.15    -3.488065     19.75064     137.1702        19     1.468     0.810  71.81   0
       133    963.0580    571.9806 300.3213246 +22.8172867      380.999     69.98755      1.425     4.42    -3.800369     19.75064     53.30667        10     1.221     0.823  24.78   0
       134    602.7498    569.5752 300.2098593 +22.7085509     395.4062     70.02321      1.497     3.40     -3.21891     19.75064     37.27883         7     0.918     0.540  60.33   0
       135    441.1513    568.6478 300.1598752 +22.6598010     251.2211     70.04104      1.650     4.75     -3.40114     19.75064     25.75439         6     0.976     0.656 -79.76   0
       136    887.2200    566.6744 300.2994089 +22.7930282     2528.104     70.00539      1.375     2.58    -3.557922     19.75064     314.4923        23     1.089     0.992  35.55   0
       137    119.4888    557.6323 300.0634676 +22.5600895     549.2048     69.96971      1.531     3.00    -3.642948     19.75064     71.09863        12     1.002     0.804  50.35   0
       138    979.0073    557.1129 300.3311302 +22.8177973     349.6353     69.91617      1.277     2.74    -3.814875     19.75064      51.5211         7     0.853     0.524 -43.45   0
       139    112.3828    547.5829 300.0645262 +22.5550749     239.1716     69.96971      1.242     4.01    -3.573891     19.75064     35.48053         6     1.025     0.448  55.57   0
       140    660.8649    537.0585 300.2385207 +22.7166501     518.7814     70.04104      1.743     5.76    -3.202742     19.75064     39.96149        11     1.107     0.871  65.65   0
       141    975.1102    529.8766 300.3387676 +22.8088062     130.8303     70.14789      1.144     3.86     -3.63646     19.75064      37.2942         5     0.797     0.535  57.64   0
       142    721.3624    529.6638 300.2597634 +22.7326707     499.5323     70.00539      1.430     3.04    -3.328813     19.75064     66.38811        10     0.968     0.809  36.42   0
       143    878.6085    525.7682 300.3100205 +22.7786995     535.1875     70.00539      1.219     2.48    -3.515295     19.75064     80.44373         9     0.803     0.731 -68.18   0
       144    863.3574    522.2180 300.3064212 +22.7731079     287.1914     70.02321      1.232     2.92    -3.499236     19.75064     50.77448         8     1.010     0.585  -1.68   0
       145    607.2576    520.1577 300.2273237 +22.6957205      1898.77     69.96971      1.570     3.27    -2.984886     19.75064     178.7159        24     1.207     1.092  84.76   0
       146    967.7952    518.9230 300.3400468 +22.8034674     364.7888     69.91617      1.453     4.49     -3.54611     19.75064     36.29696         6     0.928     0.617 -25.92   0
       147   1018.5400    498.8621 300.3623894 +22.8129129     720.5942     70.04104      1.218     2.52     -3.20644     19.75064     101.1339        12     0.915     0.777  29.52  16
       148    890.5360    498.7559 300.3225164 +22.7745173     296.0619     70.00539      1.374     4.10    -3.543274     19.75064     36.65154         7     0.966     0.708  88.34   0
       149    976.9203    497.5437 300.3498397 +22.8000612     499.9443     70.04104      1.286     2.54    -3.360602     19.75064     80.87228        11     0.868     0.798  48.96   0
       150    717.9996    494.2065 300.2702387 +22.7214829     651.7897     69.82684      1.603     3.53    -3.119809     19.75064     72.87543        14     1.102     0.973  68.90   0
       151    221.9823    492.9927 300.1163173 +22.5723244     502.0281     69.95187      1.843     3.71    -3.402315     19.75064     40.68919         5     0.652     0.606 -89.87   0
       152    284.2289    488.3242 300.1371813 +22.5896680     2087.465     70.00539      1.522     3.13    -3.176775     19.75064     201.0628        25     1.170     1.102 -13.90   0
       153   1017.1125    486.1694 300.3660689 +22.8088387     2582.678     69.98755      1.296     2.29    -3.006119     19.75064     342.5989        23     1.145     0.964  68.81  16
       154    231.6041    483.0443 300.1225398 +22.5723592     4362.519     70.02321      1.502     2.83    -3.364249     19.75064     512.8348        32     1.260     1.124  55.00   0
       155    372.3310    477.2842 300.1681607 +22.6129394     2754.419     70.11229      1.579     3.04    -3.279336     19.75064     260.3486        28     1.236     1.097  74.03   0
       156    996.9421    477.4061 300.3626265 +22.8002765     1015.531     69.96971      1.344     2.66    -3.069929     19.75064     134.8915        14     0.990     0.812 -62.78   0
       157    616.4716    473.7593 300.2452689 +22.6851662      10545.1     69.98755      1.606     3.19    -2.856223     19.75064     1024.477        48     1.335     1.266  53.46   0
       158    949.9494    456.2436 300.3548506 +22.7801140     378.9154     70.04104      1.312     2.54    -3.351965     19.75064     56.50198         7     0.720     0.646  -1.55   0
       159    171.2716    454.2478 300.1131472 +22.5459916     1171.859     69.98755      1.514     2.79    -3.342473     19.75064     132.2406        19     1.137     0.961  82.02   0
       160    557.0877    443.3188 300.2366743 +22.6586183     3771.317     70.13009      1.635     3.30    -2.618642     19.75064     312.0062        32     1.326     1.147  29.71   0
       161    970.7049    443.2271 300.3655507 +22.7825947     666.6113     69.91617      1.359     3.35    -3.213623     19.75064     75.83527        14     1.027     0.928  23.28   0
       162    272.3852    442.8200 300.1482831 +22.5730611     329.5257     69.98755      1.439     4.36     -3.10227     19.75064     33.51609         7     1.004     0.628  73.81   0
       163    761.2763    432.1929 300.3038669 +22.7166523     732.1033     69.95187      1.591     4.29     -3.03684     19.75064     66.28921        14     1.163     0.885  -5.09   0
       164    463.7861    429.6078 300.2120959 +22.6266973     3522.037     69.89832      1.614     3.18    -2.894686     19.75064     336.8698        29     1.209     1.183 -17.19   0
       165    855.4186    423.7649 300.3359371 +22.7424523     747.9626     70.00539      1.427     3.43     -3.27073     19.75064     73.44907        14     1.029     0.885  72.40   0
       166    952.9698    423.7423 300.3663514 +22.7716821     212.7913     70.02321      1.089     2.23    -3.270729     19.75064      58.8176         7     0.697     0.645 -16.15   0
       167    351.3433    409.0023 300.1838160 +22.5870515     1518.426     69.96971      1.554     2.99    -3.190267     19.75064     178.6984        22     1.140     1.069  40.48   0
       168     69.9089    406.4276 300.0971932 +22.5018517     623.3307     69.98755      1.427     3.09    -3.129586     19.75064     71.73035        13     0.970     0.890  43.37   0
       169    320.6229    398.2971 300.1777411 +22.5747628     17042.35     69.93402      1.641     3.19    -3.129383     19.75064     1565.593        57     1.388     1.310  76.46   0
       170    854.9515    395.3341 300.3450269 +22.7341458     758.6572     70.00539      1.512     4.34    -3.225171     19.75064     74.80233        16     1.234     0.905  11.63   0
       171     17.0990    386.3138 300.0873262 +22.4802307     2634.636     70.16568      1.429     2.75    -2.736429     19.75064     285.6136        24     1.151     1.005  74.99   0
       172    419.3651    383.5742 300.2132298 +22.6001613     375.5811     70.02321      1.896     3.93    -3.157131     19.75064     31.72397         6     0.920     0.481 -89.38   0
       173    195.3918    384.8317 300.1431891 +22.5333215     199.4748     70.00538      1.473     3.65    -3.214469     19.75064     31.76734         5     1.220     0.315   9.86   0
       174    730.9897    377.9289 300.3120593 +22.6919894     1167.123     69.98755      1.698     3.53    -3.032675     19.75064     94.03863        19     1.132     1.041   4.15   0
       175    945.9442    370.5418 300.3814419 +22.7542919     308.5597     70.07667      1.195     4.45    -3.198846     19.75064     37.25508         8     0.875     0.835 -43.39   0
       176    392.8210    362.6129 300.2117812 +22.5861833     1247.461     69.98755      1.758     3.77    -3.188495     19.75064     100.2614        21     1.322     0.991  65.47   0
       177    468.4690    341.8041 300.2420700 +22.6029012     713.5361     69.96971      1.715     4.26    -3.018063     19.75064     72.02145        17     1.180     1.022  53.17   0
       178    713.3406    333.7948 300.3208951 +22.6740238     1274.251     69.96971      1.625     3.48    -2.986598     19.75064     116.8109        21     1.225     1.010  37.77   0
       179    974.5219    327.9216 300.4041933 +22.7506077     1926.023     70.13009      1.390     2.66    -3.097574     19.75064     224.9948        22     1.090     0.993  37.43   0
       180    421.7910    317.6633 300.2353878 +22.5819721     363.6023     69.96971      1.463     3.67    -3.113535     19.75064     35.69825         5     0.969     0.399 -84.81   0
       181    127.6954    312.2149 300.1457357 +22.4921760     386.2458     69.93402      1.528     4.69    -3.155988     19.75064     40.17809         8     1.149     0.780  75.57   0
       182     96.8429    312.0880 300.1361930 +22.4828805     819.2451     70.00538      1.764     5.88    -3.140553     19.75064     60.99675        18     1.311     1.136 -50.49   0
       183    990.0356    307.7345 300.4155858 +22.7494540     242.1696     70.00539      1.405     4.00    -3.062565     19.75064      51.7124         6     0.937     0.506  89.13   0
       184    181.2925    304.6221 300.1648530 +22.5060813     382.6168     69.93402      1.923     4.12    -3.098799     19.75064     30.59302         6     0.898     0.539  43.64   0
       185    784.9778    295.2895 300.3557128 +22.6844354     344.7495     69.93402      1.663     4.31    -3.042607     19.75064     33.02534         7     1.202     0.440   5.65   0
       186    375.8380    294.8138 300.2285139 +22.5616309     228.8338     70.02321      1.422     5.36    -3.121375     19.75064     34.19678         5     1.184     0.685  77.30   0
       187    883.0692    284.1404 300.3898993 +22.7106265     1219.282     70.02321      1.362     2.95    -3.179557     19.75064     124.7275        17     1.050     0.909  23.60   0
       188    301.9082    281.8109 300.2097472 +22.5357232     1191.906     69.95187      1.608     3.56    -2.911211     19.75064     115.6422        22     1.239     1.085 -78.97   0
       189    380.0528    276.8356 300.2356612 +22.5577349     558.2247     70.02321      1.734     4.61    -3.018341     19.75064     56.07363        12     1.236     0.777 -83.61   0
       190    781.4948    275.7845 300.3609603 +22.6777883     295.6264     69.93402      1.435     4.93    -2.946724     19.75064     34.24282         7     1.014     0.678 -88.02   0
       191    196.7664    269.3953 300.1810971 +22.5006176     357.5916     69.98755      1.460     3.55    -2.889551     19.75064     46.99953        11     1.004     0.804 -20.61   0
       192    734.2084    265.7127 300.3494997 +22.6607234     904.6688     69.93402      1.584     3.50    -2.780364     19.75064     84.38791        16     1.063     0.966   5.91   0
       193    799.3990    265.2892 300.3699457 +22.6801386     285.3204     69.93402      1.267     3.49    -2.908853     19.75064     42.28582         5     0.739     0.477  78.65   0
       194    217.9126    262.0756 300.1900447 +22.5048617     332.0616     70.13009      1.509     4.78    -2.765059     19.75064       30.355         7     1.041     0.623  31.06   0
       195   1005.3914    257.8048 300.4365849 +22.7397035     375.9121     69.86259      1.226     2.68    -2.901174     19.75064     66.85104         8     0.868     0.705 -10.78   0
       196    738.4553    257.0407 300.3536377 +22.6595051     477.5738     69.98755      2.107     3.44    -2.713003     19.75064     40.42435         6     0.779     0.496  85.65   0
       197    658.5532    256.1529 300.3290418 +22.6353015      791.182     70.00538      1.793     4.37     -2.52972     19.75064     67.86716        16     1.166     0.963  84.06   0
       198    853.9208    247.7427 300.3926311 +22.6914343     834.9385     70.04104      1.562     4.53    -2.965475     19.75064      76.7851        13     1.131     0.932 -42.19   0
       199    585.1611    248.1769 300.3087818 +22.6110103     561.7094     70.02321      1.709     5.39    -2.561497     19.75064     39.50848        15     1.271     0.867  45.71   0
       200    865.6899    246.5403 300.3966892 +22.6946150     472.4492     70.09448      1.672     5.85    -2.991755     19.75064     47.40106        10     1.210     0.900  19.87   0
       201    983.0155    237.1817 300.4363021 +22.7270734     596.7639     69.98755      1.391     3.25    -2.851871     19.75064     70.37398        12     1.037     0.769  27.42   0
       202      6.6347    234.5859 300.1333362 +22.4335780     305.7121     70.00539      1.626     4.83    -2.646501     19.75064     26.38472         8     0.975     0.678  -3.71  16
       203    216.8000    230.5679 300.1999256 +22.4954870     366.3644     69.95187      1.384     3.78    -2.575745     19.75064     59.14374         6     1.047     0.392  18.21   0
       204     79.1849    225.6111 300.1587790 +22.4527756     1112.642     69.93402      1.497     3.29    -2.676727     19.75064      135.582        19     1.089     1.067 -12.36   0
       205    901.2712    222.0704 300.4157223 +22.6982431     553.2567     70.07667      1.850     5.36    -2.873489     19.75064     42.78714        10     1.108     0.806  -9.59   0
       206     28.3487    222.1330 300.1441201 +22.4365227     350.3523     70.02321      1.644     3.68    -2.644215     19.75064     43.20072         5     0.827     0.470  36.84   0
       207    236.4442    218.6725 300.2098917 +22.4979664     3239.729     69.98755      1.628     3.24     -2.44676     19.75064      314.183        34     1.299     1.236  61.08   0
       208     20.6363    213.4370 300.1445473 +22.4317138     709.6173     70.07667      1.461     3.05    -2.559194     19.75064     91.86693        16     1.032     0.970  52.08   0
       209    219.8856    209.6790 300.2076640 +22.4904183     384.1743     70.14789      1.283     3.31    -2.404167     19.75064     42.95689         5     0.788     0.404  20.20   0
       210    880.3353    199.7838 300.4164301 +22.6855662     1977.776     69.98755      1.510     3.25    -2.811821     19.75064     197.9521        26     1.244     1.202  -1.82   0
       211    983.9608    198.5232 300.4491447 +22.7162443     1506.749     69.98755      1.458     3.15    -2.792529     19.75064     144.5083        19     1.059     1.012  72.78   0
       212    429.8524    195.3797 300.2775894 +22.5492857     457.6592     69.98755      1.944     6.55    -2.530378     19.75064     37.81812         9     1.396     0.921  -5.12   0
       213    354.1283    187.5526 300.2565776 +22.5243314     454.1592     69.98755      2.215     3.79     -2.19023     19.75064     36.47364         6     0.831     0.497   1.45   0
       214    120.4616    184.6575 300.1848907 +22.4534111     361.7211     70.05885      1.433     3.36    -2.369009     19.75064     45.68159         5     0.745     0.439 -66.89   0
       215    481.3048    182.4685 300.2977865 +22.5610053     898.8799     70.14789      1.613     4.08    -2.466628     19.75064     88.55824        15     1.171     0.932  52.26   0
       216    409.5923    183.1815 300.2752458 +22.5397085     260.8227     69.96971      1.659     4.42    -2.415593     19.75064       23.735         5     1.187     0.467 -32.60   0
       217    255.4409    162.5520 300.2340077 +22.4875580     3467.975     70.05885      1.628     3.10    -1.997953     19.75064     382.1873        31     1.291     1.179  47.04   0
       218    107.0102    161.7984 300.1881293 +22.4428165     469.1071     69.82684      1.724     6.57    -2.143077     19.75064     47.04195         9     1.391     0.870 -33.11   0
       219    501.2823    147.7546 300.3152668 +22.5570255     3547.442     69.96971      1.663     3.25    -2.236809     19.75064     318.0771        35     1.318     1.246   7.42   0
       220    386.5367    147.7473 300.2795725 +22.5226217     374.3331     70.05885      1.518     5.40    -2.094433     19.75064     38.87671        10     0.953     0.863  15.34   0
       221    754.1427    137.5337 300.3973094 +22.6298703     562.7498     70.04104      1.556     3.02    -2.258375     19.75064     50.86756         9     0.942     0.669  28.43   0
       222    194.0667    131.4465 300.2250248 +22.4602218     182.2345     70.00538      1.336     4.91    -2.039742     19.75064     33.93122         5     1.026     0.665 -87.20   0
       223    629.5908    127.7433 300.3616967 +22.5897354     3726.887     69.98755      1.735     3.32    -2.241276     19.75064     334.9096        33     1.325     1.259 -88.74   0
       224    553.2850    129.4409 300.3373923 +22.5673536     255.6548     69.96971      1.654     4.52    -2.140667     19.75064     29.15303         5     0.795     0.729 -54.42   0
       225    404.5966    126.9139 300.2919489 +22.5220548     862.8587     69.93402      1.587     3.90    -2.076017     19.75064     76.02971        16     1.222     0.865 -40.29   0
       226    670.6845    124.5285 300.3755352 +22.6011265     548.8489     70.11229      1.631     5.80      -2.2076     19.75064     46.52444        12     1.216     0.780  86.45   0
       227    687.3481    121.1791 300.3818111 +22.6051574     314.1256     70.00539      1.354     3.55    -2.190106     19.75064     38.10618         5     0.800     0.456  77.79   0
       228    153.8534    119.4418 300.2164239 +22.4447144     359.8495     70.00538      1.732     2.98     -2.08978     19.75064     49.00312         5     0.949     0.346  85.23   0
       229    725.3270    116.1913 300.3952579 +22.6151039     236.3271     69.98755      1.326     4.66    -2.169404     19.75064     32.70185         6     0.952     0.648  12.62   0
       230    673.6585    112.5791 300.3803380 +22.5985844     1640.889     69.98755      1.685     3.51    -2.156982     19.75064      163.597        25     1.253     1.153 -72.22   0
       231    760.2640    104.0675 300.4100739 +22.6220873     892.7767     70.05885      1.469     3.07    -2.112609     19.75064       86.843        17     1.042     0.970 -70.62   0
       232    698.5061     97.9772 300.3928132 +22.6018340     512.2827     69.91617      1.556     3.71    -2.094874     19.75064      40.5108         6     0.790     0.500  88.89   0
       233    503.9063     96.7680 300.3326248 +22.5431685     647.1453     69.93402      1.669     4.58    -1.928844     19.75064     50.42408        14     1.150     0.892 -78.57   0
       234    407.8619     95.4614 300.3031680 +22.5140022     494.3913     70.04104      1.603     4.82    -1.928552     19.75064     49.71699        11     1.250     0.790 -78.77   0
       235     76.6384     96.8616 300.1997617 +22.4150719     252.3353     70.00538      1.497     4.91    -2.028489     19.75064     29.21143         8     1.089     0.628  27.28   0
       236    179.2910     85.2836 300.2354082 +22.4425406     2014.835     70.14789      1.524     3.06     -2.04371     19.75064     211.2031        23     1.159     1.097 -73.41   0
       237    747.1869     85.5941 300.4119930 +22.6128606     322.2105     69.88046      1.423     3.32    -2.083638     19.75064      40.5533         7     0.848     0.604 -75.26   0
       238    740.0847     76.8396 300.4126205 +22.6082170     403.3384     69.98755      1.492     3.83    -2.087715     19.75064     47.25217         9     1.116     0.630 -74.65   0
       239    295.0420     77.2173 300.2740020 +22.4749375     651.0194     70.02321      1.529     3.14    -1.976533     19.75064     74.53696        11     1.076     0.673 -18.33   0
       240    778.2258     72.1721 300.4260164 +22.6183016     394.5979     69.98755      1.643     6.17    -2.042722     19.75064     38.60579        10     1.362     0.785  46.02   0
       241    798.0977     68.3493 300.4334477 +22.6231555     1189.567     70.07667      1.578     3.27    -2.011259     19.75064      132.209        21     1.141     1.108 -20.39   0
       242    504.6607     67.1606 300.3424633 +22.5348904     227.3749     70.00539      1.443     4.20    -1.902717     19.75064     23.11151         6     0.762     0.661  35.02   0
       243    181.5656     64.2708 300.2429304 +22.4371915     541.7303     70.00539      1.616     5.26    -2.068944     19.75064     49.97422        11     1.073     0.864  13.02   0
       244    972.8564     61.8052 300.4900416 +22.6736126     509.6613     69.96971      1.431     3.07    -2.368066     19.75064     54.13573         9     0.906     0.694  81.06   0
       245    746.1430     61.1472 300.4195977 +22.6055221      491.486     70.05885      1.553     3.71    -2.076931     19.75064      54.0104         9     1.050     0.647 -14.55   0
       246    598.9199     45.7672 300.3787397 +22.5569928     524.7661     70.00539      1.495     4.95    -1.958988     19.75064     45.93381        14     1.154     0.969 -54.53   0
       247    762.1654     40.8313 300.4311783 +22.6044828     369.4894     70.02321      1.574     4.86    -2.035913     19.75064     38.06144         8     1.089     0.613 -21.02   0
       248    570.9426     39.1037 300.3721918 +22.5466947      1024.06     70.07667      1.590     3.99    -1.935471     19.75064     99.37047        21     1.270     1.122  43.48   0
       249    293.9696     36.6155 300.2868369 +22.4629586     471.3487     70.00539      1.784     5.04    -2.118596     19.75064     39.35095        11     1.053     0.835   9.30   0
       250      8.6533     35.5665 300.1985281 +22.3770882     272.5531     70.02321      1.383     3.22    -0.669144     19.75064     41.08751         7     0.836     0.674  18.79   0
       251    528.3254     33.0514 300.3608904 +22.5321847     702.9249     70.02321      1.522     4.41    -1.903892     19.75064     60.21574        17     1.255     1.041  -9.04   0
       252    633.5836     29.9383 300.3946652 +22.5628312     685.6816     69.95187      1.525     3.07     -1.98987     19.75064     77.59586        10     0.997     0.637 -27.14   0
       253    229.2418     28.5427 300.2693339 +22.4412326     302.2776     69.98755      1.367     4.35    -2.145414     19.75064     28.39817         6     1.100     0.489   5.54   0
       254    454.0352     23.5087 300.3408686 +22.5071783      1208.92     69.96971      1.528     3.34    -1.870044     19.75064     114.8687        20     1.164     1.030  54.02   0
       255    101.1343     21.5258 300.2318034 +22.4007996     939.5914     70.05885      1.489     2.98    -2.107881     19.75064     96.09218        15     1.012     0.916  75.90   0
