#   1 NUMBER                 Running object number                                     
#   2 X_IMAGE                Object position along x                                    [pixel]
#   3 Y_IMAGE                Object position along y                                    [pixel]
#   4 ALPHA_J2000            Right ascension of barycenter (J2000)                      [deg]
#   5 DELTA_J2000            Declination of barycenter (J2000)                          [deg]
#   6 FLUX_APER              Flux vector within fixed circular aperture(s)              [count]
#   7 FLUXERR_APER           RMS error vector for aperture flux(es)                     [count]
#   8 FLUX_RADIUS            Fraction-of-light radii                                    [pixel]
#   9 FWHM_IMAGE             FWHM assuming a gaussian core                              [pixel]
#  10 BACKGROUND             Background at centroid position                            [count]
#  11 THRESHOLD              Detection threshold above background                       [count]
#  12 FLUX_MAX               Peak flux above background                                 [count]
#  13 ISOAREA_IMAGE          Isophotal area above Analysis threshold                    [pixel**2]
#  14 A_IMAGE                Profile RMS along major axis                               [pixel]
#  15 B_IMAGE                Profile RMS along minor axis                               [pixel]
#  16 THETA_IMAGE            Position angle (CCW/x)                                     [deg]
#  17 FLAGS                  Extraction flags                                          
         1    164.0866     12.8971 300.2567438 +22.4136768     662.9244     70.38462      1.717     4.57    -2.409168     19.80725     69.43601        15     1.135     1.004 -46.20   0
         2     90.0671    999.7960 299.9130510 +22.6745070     2106.948     70.18813     10.491    29.34      2.06567     19.80725     53.92076       173     6.716     3.558 -17.06  27
         3     72.6720   1019.3967 299.9012663 +22.6748938     1650.878     70.15235      6.798    22.82     1.808989     19.80725     65.92558        79     5.947     2.431 -79.76  27
         4    102.8822   1017.0211 299.9114220 +22.6832924     1583.188     70.17025     12.366    17.16     4.362593     19.80725     53.16141        54     3.111     2.630 -63.02  27
         5     92.6683   1021.7786 299.9067005 +22.6815857     1579.799     63.95504     12.847    16.24     4.388902     19.80725     57.37671        57     4.268     1.718 -13.66  27
         6     97.5059   1009.6348 299.9121575 +22.6795609      1570.88     70.18813     10.133    11.96     3.687784     19.80725     42.66666        38     2.257     1.763  71.56  19
         7     91.0294   1013.0787 299.9090246 +22.6786011     2137.732     70.20602     10.192    14.86     3.335941     19.80725     56.03519        65     3.180     1.931  46.51  19
         8     81.9800   1018.2988 299.9045144 +22.6773767     1926.274     70.13445      9.007    14.70     2.764576     19.80725     45.38606        60     3.158     1.902 -14.32  19
         9     84.9856   1013.2037 299.9071069 +22.6768205     1722.993     70.06282      8.763    13.42     2.689131     19.80725       53.982        43     3.219     1.557  33.69  19
        10    705.7863   1020.1260 300.0979098 +22.8652599     376.6784     69.30614      3.635     4.60    -5.969924     19.80725     35.22694         6     0.964     0.623 -30.27  16
        11    124.0048   1018.1083 299.9176285 +22.6899515     684.4398     70.11655      4.167     4.89     4.417616     19.80725     29.34025         7     1.048     0.645   2.71  17
        12    427.9523   1016.9345 300.0124828 +22.7809265     343.3262      70.2239      1.389     3.91    -5.411904     19.80725      38.4903         7     0.908     0.505 -46.09   0
        13    941.7071   1008.3134 300.1752626 +22.9326670     1202.455     70.36678      1.031     1.82    -4.802663     19.80725     242.3351        13     0.862     0.717  79.56   0
        14    730.8640    997.9482 300.1129424 +22.8664253     457.3887     70.25965      1.681     5.42    -5.646337     19.80725     55.49849        10     1.435     0.578  58.41   0
        15    765.5179    991.4721 300.1258450 +22.8749677     591.2444     70.33109      1.074     2.26    -5.196975     19.80725     92.23502         9     0.809     0.666 -87.30   0
        16    787.5902    985.2250 300.1347550 +22.8797993     6466.892     70.20602      1.154     2.00    -4.912601     19.80725     1107.432        30     0.986     0.968 -68.98   0
        17    978.9186    984.7377 300.1945415 +22.9370637     256.2728     70.29538      0.973     3.05    -5.242639     19.80725     45.55821         5     0.804     0.466  61.09   0
        18    832.9324    984.9821 300.1489606 +22.8933357     311.8123     70.20602      1.356     2.93     -4.69206     19.80725     46.16204         7     0.835     0.648 -23.73   0
        19     98.9285    977.3460 299.9231129 +22.6707387     279.4205      70.2239      1.307     3.00    0.4621915     19.80725      70.9774         8     0.945     0.688 -87.42   0
        20    839.6358    972.7445 300.1550344 +22.8918357     115.3667      70.2239      1.118     2.76    -4.676608     19.80725     33.85678         5     0.708     0.465  76.45   0
        21    492.3367    973.3642 300.0466992 +22.7877696      373.681     70.20602      1.626     3.21    -4.938199     19.80725       38.545         5     0.731     0.461  14.22   0
        22    796.0775    967.3250 300.1432280 +22.8772105      798.193     70.31323      1.201     2.42    -4.799144     19.80725     123.2264        12     0.889     0.782  -6.32   0
        23    834.4613    960.8200 300.1573050 +22.8868614     505.3137     70.17025      1.185     3.01    -4.691671     19.80725     65.27292         8     0.802     0.696  35.99   0
        24    833.1974    955.9757 300.1584886 +22.8850921       197.26     70.15235      0.937     3.75    -4.694172     19.80725     30.62672         5     0.802     0.503  34.39   0
        25    734.1696    951.3507 300.1291456 +22.8540496     310.4267      70.2239      1.355     4.93    -4.973662     19.80725     52.52858         8     1.221     0.563 -83.15   0
        26    882.7686    951.6976 300.1753289 +22.8987370     437.5965     70.17025      1.224     2.16    -4.647787     19.80725     64.28579         6     0.682     0.599 -50.17   0
        27    446.6266    947.6853 300.0408403 +22.7666816     2426.019     70.20602      1.311     2.42     -4.79793     19.80725     318.9552        22     1.059     0.994 -12.33   0
        28    745.3345    947.8508 300.1337625 +22.8563960      341.262     70.24178      1.314     3.21     -4.91034     19.80725     67.72431        11     1.118     0.642  52.22   0
        29    108.1714    936.2980 299.9393473 +22.6617559     141.8416     70.15235      1.231     5.28    -3.502269     19.80725     45.36235         8     1.219     0.645  11.52   0
        30    171.9801    933.5499 299.9600632 +22.6801396     417.5013     70.18813      1.125     2.90    -3.477997     19.80725     67.96854        10     0.912     0.750  52.92   0
        31     80.5242    931.9987 299.9321603 +22.6522169     262.3248     70.09865      1.330     3.61    -4.105736     19.80725     35.17239         6     0.787     0.499 -89.14   0
        32    149.0798    930.5860 299.9539137 +22.6724103     870.8725     70.18813      1.203     2.20    -3.782064     19.80725     133.5067        11     0.808     0.766 -68.97   0
        33   1020.6146    919.0805 300.2289220 +22.9307225     1091.415     68.00784      1.087     2.09    -4.612286     19.80725     200.1288        13     0.830     0.758 -63.97  16
        34    974.7996    917.6720 300.2150949 +22.9165774     1328.606     70.08073      1.206     2.02    -4.640152     19.80725     230.6458        15     1.046     0.778 -57.87   0
        35    758.4713    911.4587 300.1497026 +22.8498965     402.3362     70.24178      1.314     4.58    -4.669784     19.80725     59.74981        11     1.220     0.836  61.12   0
        36    180.9430    912.1459 299.9698153 +22.6766986     214.2961     70.25965      1.213     3.82    -4.001032     19.80725     47.02004         9     0.949     0.692 -12.11   0
        37    626.6396    905.6577 300.1105392 +22.8086695     2716.815     70.18814      1.257     2.29    -4.508161     19.80725     370.9253        22     0.985     0.973 -25.38   0
        38    116.3597    906.9601 299.9514405 +22.6558101     221.0902     70.27751      1.091     3.26    -4.273606     19.80725     37.95013         6     0.792     0.741 -28.26   0
        39    177.0781    899.8620 299.9726129 +22.6720173     732.1718     70.27751      1.285     2.72    -4.060647     19.80725     88.59087        11     0.843     0.807 -43.39   0
        40    647.1163    898.0731 300.1193830 +22.8126394     422.5529     70.31323      1.390     3.56     -4.51373     19.80725     57.75801        10     0.889     0.793 -70.56   0
        41    196.2786    896.3615 299.9797180 +22.6767819     342.9564     70.18814      1.274     4.09    -4.084547     19.80725     44.88891         6     0.748     0.638  76.64   0
        42   1019.4847    885.2101 300.2395961 +22.9206593      567.418     70.17025      1.024     1.93    -4.189147     19.80725     114.9748         9     0.815     0.614 -57.87  16
        43    802.5840    885.3334 300.1719490 +22.8556351      2417.45     70.18814      1.234     2.20    -4.667742     19.80725     357.5525        20     0.985     0.917 -10.28   0
        44    210.9188    879.6656 299.9897012 +22.6763944     216.7965     70.31323      1.275     3.46    -4.165094     19.80725     51.77119         6     0.944     0.678 -60.29   0
        45    519.9962    877.8494 300.0864000 +22.7686829     399.9962     70.18813      1.620     4.64    -4.399913     19.80725      40.6351         9     0.964     0.752 -71.55   0
        46    166.3226    876.0536 299.9770204 +22.6619632      515.826     70.24178      1.357     3.47    -4.181452     19.80725     58.70118         8     0.821     0.673  -3.67   0
        47    315.7657    868.1888 300.0260240 +22.7045938     30975.13     70.18813      1.358     2.38    -4.056583     19.80725     4311.852        68     1.241     1.182 -85.52   0
        48    573.5968    867.2003 300.1065465 +22.7817175     967.8785      69.9911      1.357     2.41    -4.363359     19.80725     133.9769        14     0.945     0.853 -70.50   0
        49    986.2665    865.8230 300.2355487 +22.9051313     372.1303     70.18813      1.071     2.17    -4.118266     19.80725     69.95068         6     0.704     0.544 -52.00   0
        50    602.6366    862.9463 300.1169699 +22.7892131     436.7374      70.2239      1.191     3.13    -4.344588     19.80725     51.67802         9     0.856     0.704 -30.15   0
        51      1.9766    862.7374 299.9303139 +22.6087717     451.0835     58.04843      1.232     3.23     -4.62839     19.80725     63.26905        10     0.917     0.792 -35.52  24
        52    613.4176    861.0579 300.1209405 +22.7919069     335.0439     70.18813      1.268     4.24    -4.341568     19.80725     42.93264         7     0.954     0.634 -68.52   0
        53    718.7397    857.6255 300.1548510 +22.8225278     310.8738     70.18814      1.281     4.04    -4.577719     19.80725     34.61058         6     0.927     0.504 -44.85   0
        54    365.4119    845.3830 300.0488819 +22.7129629     17934.34     70.17025      1.411     2.54    -4.165884     19.80725     2067.147        55     1.232     1.179  65.90   0
        55    756.7382    847.9368 300.1698394 +22.8311484     547.2325     70.24178      1.380     2.75    -4.621796     19.80725     64.55279         8     0.817     0.642 -43.09   0
        56    379.8556    845.7926 300.0532401 +22.7174171     1137.917     70.20602      1.370     2.72    -4.247859     19.80725     140.3952        16     1.073     0.849 -72.68   0
        57    888.4670    840.9402 300.2131602 +22.8686563     1629.688     70.24178      1.270     2.32    -4.399817     19.80725     234.0948        17     0.951     0.882  83.34   0
        58    645.8131    837.1557 300.1388047 +22.7947714     581.2001     70.20602      1.465     4.96    -4.356534     19.80725     75.49494        10     1.140     0.646  10.92   0
        59    247.6396    837.1086 300.0149625 +22.6752248     436.9592     70.20602      1.291     2.97    -4.262733     19.80725     61.57182         8     0.950     0.569  47.57   0
        60    493.6350    832.2776 300.0930293 +22.7476991     529.2296     70.17025      1.452     3.61     -4.14226     19.80725     65.44435        12     0.994     0.855  52.77   0
        61    351.6512    827.9374 300.0502802 +22.7038289      246.298     70.25965      1.309     2.48    -4.039002     19.80725     40.29729         5     0.841     0.474  86.02   0
        62     80.9580    826.6329 299.9665869 +22.6221564     325.1686     70.25965      1.436     4.76     -4.58553     19.80725     42.55531         7     0.974     0.661  -2.24   0
        63    872.1616    823.5215 300.2137474 +22.8587654     186.6305     70.18813      1.184     3.75    -4.334296     19.80725     35.91924         6     0.810     0.499   1.47   0
        64    245.7966    821.9160 300.0193334 +22.6703160     282.9376     70.13445      1.345     2.37    -4.348359     19.80725     44.91403         5     0.747     0.486 -36.66   0
        65    538.4435    809.9979 300.1142220 +22.7547576     404.2823     70.20602      1.668     3.59    -4.011084     19.80725     40.37906         6     0.825     0.632  52.99   0
        66    560.3514    807.4906 300.1218557 +22.7606134     821.0804     70.20602      1.443     3.13    -3.994231     19.80725     82.51777        14     0.975     0.953 -62.41   0
        67    954.7926    806.1956 300.2451420 +22.8785726     2623.929     70.06282      1.243     2.18    -4.087757     19.80725     384.3964        22     0.984     0.932  88.55   0
        68    943.2488    797.5841 300.2443454 +22.8726383     913.2925     70.24178      1.272     2.39    -4.072004     19.80725     128.9177        15     0.950     0.874 -54.15   0
        69    306.4543    791.7005 300.0480191 +22.6798678     659.7228     70.29538      1.676     3.25     -4.02662     19.80725      68.3011        11     0.994     0.765 -81.43   0
        70    769.5265    789.0308 300.1929921 +22.8180788     1486.356      70.2239      1.482     2.75    -4.529472     19.80725     154.6842        20     1.143     1.063 -74.33   0
        71    974.3221    787.6976 300.2572501 +22.8791172     971.7131     70.33109      1.163     2.42    -4.071655     19.80725     132.0174        13     0.944     0.775 -51.84   0
        72    155.2974    775.7963 300.0062179 +22.6299159     441.0458     70.11655      1.653     3.61    -4.440067     19.80725     49.24991         6     0.899     0.638 -76.85   0
        73    851.9278    774.9705 300.2232404 +22.8387589     378.6231     70.20602      1.341     3.68    -4.194443     19.80725     48.77675         9     0.809     0.781  13.82   0
        74    887.9747    765.9140 300.2374209 +22.8469694     84835.85     70.17025      1.364     2.43    -4.099866     19.80725     11048.29       102     1.268     1.239 -80.55   0
        75    740.7883    766.5424 300.1913574 +22.8030032     429.2488     70.17025      1.508     3.06    -4.345278     19.80725     49.99441         8     0.914     0.799  88.61   0
        76    574.5026    755.2020 300.1432726 +22.7498584     953.9521     70.11655      1.539     3.22    -3.860507     19.80725     103.4089        17     1.126     0.962  30.44   0
        77    755.4808    752.1158 300.2006274 +22.8032697     5543.475     70.34894      1.445     2.76    -4.219692     19.80725     567.1965        33     1.169     1.134 -70.08   0
        78    257.1365    747.6210 300.0470291 +22.6524206     2906.707     70.17025      1.431     2.76    -4.102366     19.80725     286.4102        26     1.146     1.084 -87.93   0
        79    339.3218    745.6276 300.0732262 +22.6765239      633.509      70.2239      1.416     4.20    -3.959488     19.80725     62.85512        11     1.104     0.742  67.97   0
        80    215.3567    743.7466 300.0353049 +22.6387644     321.9508      70.2239      1.522     3.48    -4.127183     19.80725     35.35382         5     0.772     0.453 -75.63   0
        81    547.4531    740.7211 300.1395649 +22.7375865     380.1959     70.24178      1.278     3.26     -3.75935     19.80725      66.1206         9     0.886     0.839  52.02   0
        82    539.0156    733.1414 300.1394047 +22.7328798     1811.305     70.18813      1.474     3.05    -3.729023     19.80725     163.0977        23     1.143     1.059  35.24   0
        83    529.3699    726.9675 300.1384114 +22.7282138     739.5956     70.20602      1.352     3.06    -3.712771     19.80725     95.81195        15     1.017     0.953 -88.02   0
        84    192.4336    722.9659 300.0349411 +22.6259230     316.6995     70.27751      1.414     2.53    -4.062819     19.80725     54.14277         7     0.732     0.666 -83.22   0
        85    207.0715    721.7542 300.0398837 +22.6299710     324.0913     70.18813      1.275     2.79     -4.06259     19.80725     52.53256         6     0.794     0.614 -34.07   0
        86    975.8367    717.7888 300.2804667 +22.8594951     302.3623     70.18813      1.211     3.19    -4.059006     19.80725     45.82951         5     0.765     0.628 -58.91   0
        87    453.9384    716.6132 300.1183101 +22.7026059     942.8878     70.17025      1.446     3.39    -3.770471     19.80725     93.98383        17     1.083     0.977  43.80   0
        88    232.4398    718.3676 300.0488687 +22.6366172     261.6129     70.24178      1.230     4.57    -4.060796     19.80725     34.79227         7     0.888     0.668 -20.33   0
        89    108.1465    711.8334 300.0123766 +22.5974197     11426.48      70.2239      1.407     2.58    -4.154126     19.80725     1256.099        43     1.214     1.152  80.00   0
        90     29.0400    713.5173 299.9872620 +22.5741427      457.756     70.17025      1.475     1.69      -4.2677     19.80725     59.17037         6     0.683     0.500  -1.60   0
        91    538.6457    711.9409 300.1461857 +22.7266858     562.6888     70.24178      1.405     4.55    -3.667631     19.80725     68.54787        12     1.064     0.883   6.90   0
        92    956.7679    697.7159 300.2810508 +22.8480132     603.5383     70.18813      1.286     2.86    -4.047166     19.80725     81.35877        11     0.910     0.787 -36.09   0
        93     54.1022    696.0296 300.0007316 +22.5766580     846.8212     70.13445      1.821     6.23    -4.289302     19.80725     68.35021        18     1.460     0.886 -88.48   0
        94    823.7423    696.6749 300.2399282 +22.8078271     277.9142     70.25965      1.657     3.75    -4.056982     19.80725     32.83274         5     0.907     0.446  46.29   0
        95    897.1431    690.7429 300.2647321 +22.8281338      408.813     70.27751      1.668     2.65    -4.044558     19.80725     45.48328         6     0.715     0.581 -42.21   0
        96    459.2463    685.2930 300.1301480 +22.6952135     448.2212      70.2239      1.565     4.51    -3.675227     19.80725     35.79507         8     0.994     0.583 -69.44   0
        97    654.0240    681.8270 300.1918948 +22.7526603     240.5592     70.18813      1.212     4.52    -3.607077     19.80725     31.29195         7     0.869     0.668 -62.54   0
        98    624.6149    681.4564 300.1828592 +22.7437315     209.6428     70.18814      1.266     3.28    -3.589346     19.80725     45.93345         6     0.911     0.438  17.28   0
        99    503.1184    680.5009 300.1453560 +22.7070040      463.801     70.34894      1.764     4.23    -3.602978     19.80725     47.56136        10     1.059     0.989   8.40   0
       100    936.8643    675.9610 300.2819215 +22.8357979     1896.116     70.18813      1.348     2.61    -4.037308     19.80725     238.6354        19     1.044     0.935  78.99   0
       101    468.8625    676.2099 300.1360935 +22.6954933     891.3931     70.13445      1.466     3.60    -3.632125     19.80725     86.71256        14     1.096     0.843 -71.98   0
       102     30.8456    670.0995 300.0019421 +22.5622404      2903.53      70.2239      1.404     2.55    -4.473082     19.80725     380.7225        26     1.122     1.041 -77.48   0
       103    332.2770    662.9865 300.0979139 +22.6507069     5257.028      70.2239      1.504     2.88      -4.0414     19.80725     576.2953        37     1.235     1.223  44.31   0
       104    454.6177    659.9330 300.1369552 +22.6865485     5021.857     70.18813      1.568     3.12    -3.632925     19.80725     499.3109        31     1.198     1.175 -13.46   0
       105    866.1971    653.6406 300.2671539 +22.8082004     1096.111      70.2239      1.511     3.30    -3.940206     19.80725     108.5305        15     1.021     0.945 -23.34   0
       106    950.7723    650.9879 300.2943791 +22.8327947     7304.443     70.20602      1.420     2.65    -3.925514     19.80725     852.5468        36     1.162     1.123 -86.13   0
       107    515.1613    649.5385 300.1591721 +22.7017331     6575.165     70.20602      1.598     3.21    -3.566131     19.80725     608.1926        37     1.286     1.196  80.31   0
       108    242.7393    645.2269 300.0758551 +22.6187354     803.0659     70.20602      1.394     3.20    -3.782744     19.80725     94.06226        15     1.053     0.895  15.58   0
       109    446.9218    637.6760 300.1417985 +22.6778531     2511.053     70.31323      1.628     3.27    -3.606679     19.80725     217.8305        28     1.237     1.158 -74.12   0
       110    790.0846    637.4824 300.2486920 +22.7807379     492.8939     70.33109      1.961     4.95    -3.820962     19.80725     42.09522         8     1.150     0.602  35.46   0
       111    425.0661    636.2876 300.1354514 +22.6708962     733.0057     70.29538      1.493     4.25    -3.620441     19.80725     78.14874        14     1.175     0.816  -2.46   0
       112    179.4578    635.5103 300.0593494 +22.5969505     388.7643     70.27751      1.514     3.60    -3.685622     19.80725      49.1185         9     0.916     0.770  68.13   0
       113    866.4929    632.8663 300.2740016 +22.8023230     916.3647     70.34894      1.532     3.08    -3.827218     19.80725     90.27292        11     0.949     0.739 -17.46   0
       114    563.4330    625.2191 300.1821022 +22.7092364     116613.7     70.20602      1.632     3.22     -3.53346     19.80725     10085.74       147     1.510     1.477 -66.98   0
       115    387.2537    631.2035 300.1253440 +22.6580900     213.7549     70.18813      1.293     4.46     -3.66761     19.80725     27.90783         5     0.772     0.731 -40.06   0
       116    747.0851    630.1006 300.2376973 +22.7657236     428.1386     70.36678      1.407     3.63    -3.639912     19.80725     52.56256         8     0.930     0.637   2.95   0
       117    249.6137    625.3399 300.0844577 +22.6150955     1929.352     70.17025      1.562     3.03    -3.582837     19.80725     201.8611        24     1.136     1.110  23.40   0
       118    815.6796    621.1444 300.2619790 +22.7837213     283.6442     70.24178      1.440     4.46    -3.777068     19.80725     29.37928         6     0.954     0.593  23.92   0
       119    454.1525    605.9889 300.1543504 +22.6709306     1554.198      70.2239      1.794     5.51    -3.544197     19.80725     155.3484        25     1.668     1.080 -82.97   0
       120    771.8254    593.7268 300.2572305 +22.7626983     74.40331     70.24178      1.182     4.35    -3.505284     19.80725     31.73119         5     0.764     0.706 -55.35   0
       121    850.9468    591.5392 300.2825941 +22.7857930     952.6197     70.25965      1.433     3.15    -3.585446     19.80725     92.61887        16     1.062     0.924  32.08   0
       122    722.1860    589.2579 300.2432213 +22.7465299     1418.538     70.17025      1.601     3.31    -3.383559     19.80725     124.5351        19     1.086     1.074  87.90   0
       123    509.9480    585.5813 300.1783445 +22.6818146      408.313     70.18813      1.443     5.47    -3.375894     19.80725     40.96655        11     1.286     0.655 -83.57   0
       124    966.7667    585.8397 300.3205493 +22.8188749     343.5652     70.24178      1.399     3.40    -3.634164     19.80725     27.28372         5     0.969     0.345 -44.66   0
       125    979.4234    582.8539 300.3254663 +22.8218106     833.8351      70.2239      1.578     4.41    -3.627413     19.80725     62.66423        15     1.102     0.930  -4.34   0
       126    851.2047    581.7890 300.2858444 +22.7830700     1304.152     70.06282      1.679     3.63    -3.516208     19.80725     110.3389        21     1.273     0.953  85.05   0
       127    965.2839    581.7947 300.3214021 +22.8172684     600.3579     70.13445      2.180     5.19    -3.617363     19.80725     45.90866        10     0.956     0.796  50.47   0
       128    889.3990    576.6128 300.2994307 +22.7930334     2352.486     70.02697      1.486     2.85    -3.536469     19.80725      233.938        24     1.148     1.033 -88.24   0
       129    121.8704    567.4977 300.0635683 +22.5601576     639.5286     70.33109      1.409     3.21    -3.626422     19.80725     65.19214        11     1.049     0.683  87.68   0
       130    980.9073    566.7811 300.3311543 +22.8176377     530.9522     70.13445      1.558     3.31    -3.561904     19.80725     59.66497        11     0.938     0.886 -75.86   0
       131    977.7510    556.2085 300.3336071 +22.8136541     191.0354     70.20602      1.285     5.14    -3.515892     19.80725     32.58223         6     1.301     0.574 -71.45   0
       132    662.8533    547.6963 300.2382548 +22.7168034     293.4174     70.27751      1.526     5.33    -3.056828     19.80725     42.55947        10     0.999     0.802 -34.93   0
       133    977.2496    539.3765 300.3389222 +22.8086678     334.6506     70.20602      1.702     5.02    -3.433628     19.80725     44.97292         7     1.292     0.553  34.18   0
       134    723.8301    539.3337 300.2599624 +22.7326874     487.9313     70.20602      1.609     5.07    -3.055201     19.80725     42.80031        11     1.128     0.914  88.02   0
       135    880.9195    535.5352 300.3101409 +22.7786919     533.2827     70.31323      1.308     2.85    -3.336352     19.80725     70.93097        11     0.962     0.749 -72.64   0
       136    864.7867    531.8998 300.3062946 +22.7728117     293.9673     70.11655      1.421     4.47    -3.297225     19.80725     44.08464         6     1.100     0.516  59.78   0
       137    609.3262    530.0756 300.2273169 +22.6956915     1767.016     70.29538      1.676     3.49    -2.981502     19.80725     150.4329        25     1.218     1.190 -63.37   0
       138    969.8228    528.6539 300.3400918 +22.8033612     257.7326      70.2239      1.180     4.36    -3.377138     19.80725     38.87949         7     0.856     0.634 -27.89   0
       139   1020.5490    508.6893 300.3623988 +22.8128255     690.5237      68.2658      1.250     2.65    -3.175255     19.80725      90.3428        12     0.880     0.831  14.31  16
       140    978.9760    507.7551 300.3497384 +22.8000993      523.865      70.2239      1.411     4.07    -3.239006     19.80725     61.52386        14     1.184     0.929 -26.99   0
       141    892.6631    508.8971 300.3224592 +22.7745594     270.8069     70.29538      1.279     2.77    -3.290899     19.80725     36.07336         5     0.853     0.472 -87.35   0
       142    719.9435    503.9914 300.2702385 +22.7213727     513.6562     70.18813      1.559     5.49    -3.055201     19.80725     48.96763         9     1.152     0.737  19.33   0
       143    224.4910    502.5586 300.1165588 +22.5723361     418.9934     70.20602      1.642     3.80    -3.274791     19.80725     43.30054         6     0.968     0.428 -72.71   0
       144    286.4618    498.1628 300.1372493 +22.5896728     2088.311      70.2239      1.680     3.58    -3.255623     19.80725     191.3969        27     1.286     1.158  74.01   0
       145   1019.2445    496.1601 300.3660640 +22.8088341     2456.705     70.27751      1.405     2.77    -3.073128     19.80725     254.8449        24     1.089     1.039 -10.87  16
       146    233.6769    493.0274 300.1225108 +22.5723587     4342.192     70.20602      1.619     3.11    -3.238253     19.80725     409.8664        37     1.378     1.219 -86.48   0
       147    374.5131    487.1616 300.1682018 +22.6129365     2724.699     70.18813      1.711     3.46    -3.104619     19.80725     243.8153        31     1.300     1.280  -8.47   0
       148    999.3901    487.1044 300.3628154 +22.8002825     1027.851     70.13445      1.433     3.01    -3.053829     19.80725     106.5119        15     1.002     0.893 -61.78   0
       149    618.4372    483.7169 300.2452193 +22.6851136     10497.88     70.18813      1.719     3.57    -3.121908     19.80725       848.94        51     1.385     1.360  32.08   0
       150    636.3748    483.7378 300.2507971 +22.6904986     551.3033     70.20602      2.240     6.57    -3.100076     19.80725     38.48952         9     1.414     0.857 -60.89   0
       151    951.8702    466.3448 300.3547446 +22.7800774     290.5424      70.2239      1.414     4.30    -3.121517     19.80725     47.72419         7     1.173     0.584  79.34   0
       152    173.4649    464.1027 300.1131979 +22.5459899      1243.61     70.31323      1.657     3.44    -3.219065     19.80725     112.4948        18     1.145     1.005 -88.76   0
       153    559.1169    453.2305 300.2366601 +22.6585708     3753.719      70.2239      1.736     3.48    -2.914904     19.80725     307.5692        37     1.357     1.289 -56.85   0
       154    972.5399    452.9725 300.3655343 +22.7824284     712.9174      70.2239      1.492     3.16    -3.061831     19.80725     74.97874        13     1.022     0.833  77.73   0
       155    274.4297    452.8788 300.1482229 +22.5730691     293.2549     70.20602      1.598     4.42    -2.989996     19.80725      33.5659         6     0.985     0.564  19.83   0
       156    763.3614    441.8297 300.3039620 +22.7165354     585.1436      70.2239      1.750     6.40    -2.983685     19.80725     51.84343        12     1.142     1.007  75.00   0
       157    465.8055    439.4355 300.2121055 +22.6266245     3491.447      70.2239      1.760     3.94    -2.535642     19.80725     278.5489        30     1.313     1.231  43.64   0
       158    955.6843    433.8450 300.3664938 +22.7718810     310.8122     70.18813      1.276     4.43    -3.057617     19.80725     39.56531         7     0.921     0.703  80.58   0
       159    857.5339    433.7484 300.3359303 +22.7424404     769.1437     70.24178      1.644     3.40    -3.000767     19.80725     64.15128        14     1.029     0.898 -17.33   0
       160    353.4004    419.0291 300.1837725 +22.5870489     1318.098     70.17025      1.586     3.49    -2.612112     19.80725     121.2173        20     1.161     1.062 -76.21   0
       161     72.0011    416.4651 300.0971542 +22.5018711     533.6104     70.20602      1.520     4.19    -3.339908     19.80725     55.07777        10     1.035     0.733  19.72   0
       162    322.6889    408.2775 300.1777156 +22.5747496     16696.39     70.34894      1.710     3.42    -2.643142     19.80725     1521.882        58     1.415     1.365  69.59   0
       163    857.0482    405.2275 300.3450448 +22.7341001     663.8105      70.2239      1.608     4.85    -2.864005     19.80725     56.97099        17     1.208     1.061 -57.82   0
       164     19.1282    396.3536 300.0872673 +22.4802318     2792.533     70.18813      1.497     2.80     -3.28601     19.80725     258.2679        27     1.161     1.105  41.02   0
       165    772.2751    394.4141 300.3221431 +22.7055862     210.1998      70.2239      1.339     4.43    -2.786832     19.80725     30.83511         5     1.107     0.504  58.14   0
       166    733.1473    387.6251 300.3121598 +22.6919077     1116.227      70.2239      1.677     3.87    -2.725136     19.80725     91.98756        19     1.142     1.074 -52.18   0
       167    947.6808    379.8061 300.3815540 +22.7539527     339.1447     70.13445      1.604     3.79    -2.916766     19.80725     31.99537         6     1.020     0.405 -75.68   0
       168    394.9513    372.6929 300.2117456 +22.5862128     1202.319     70.24178      1.833     4.13     -2.48639     19.80725     93.81706        23     1.294     1.175 -67.55   0
       169    470.9480    351.4632 300.2422813 +22.6029103     742.8687     70.25965      1.790     5.19    -2.402837     19.80725     61.56012        16     1.393     0.982  73.02   0
       170    715.4724    343.7282 300.3209123 +22.6739993     1166.186     70.25965      1.692     4.16    -2.499844     19.80725     114.0909        21     1.378     1.030 -75.27   0
       171    976.5089    337.8090 300.4041832 +22.7505181     1910.776     70.13445      1.568     3.05    -2.852697     19.80725     186.8109        22     1.168     1.023 -50.36   0
       172    424.3701    328.2001 300.2353458 +22.5822627     335.9726     70.15235      1.529     2.37    -2.480374     19.80725     39.30058         5     0.708     0.452  71.78   0
       173     98.8399    322.1908 300.1361077 +22.4828814     706.4426     70.20602      1.622     4.10    -2.873967     19.80725     78.55487        16     1.196     1.047 -31.80   0
       174    129.4441    321.8479 300.1457261 +22.4919667     403.7449      70.2239      1.569     2.40    -2.828655     19.80725     48.42239         6     0.715     0.610  24.59   0
       175    992.4419    318.2352 300.4155084 +22.7496642     325.5001     70.25965      1.746     4.47    -2.801073     19.80725     33.00204         5     1.128     0.504  31.94   0
       176    885.2435    293.9907 300.3899607 +22.7105815     1104.878      70.2239      1.527     3.34     -2.53054     19.80725     100.4582        18     1.139     0.956 -42.18   0
       177    303.9339    291.6380 300.2097638 +22.5356447     1132.667     70.18813      1.596     3.72    -2.432132     19.80725     107.3716        20     1.189     1.063  73.49   0
       178    381.6982    287.1769 300.2353936 +22.5576873     521.1512     70.13445      1.826     6.08    -2.510862     19.80725     40.65098        11     1.177     0.884  -1.66   0
       179    198.8330    279.0657 300.1811768 +22.5005087     394.1804     70.20602      1.345     4.89    -2.622134     19.80725     46.42611         8     1.117     0.605 -69.67   0
       180    736.4415    275.5349 300.3495877 +22.6606910     983.5518     70.18814      1.669     3.63    -2.447829     19.80725     95.09825        18     1.174     1.028  24.55   0
       181    801.2365    274.7730 300.3700210 +22.6798883     299.0461      70.2239      1.579     5.09    -2.522276     19.80725     28.70501         7     1.161     0.632  53.96   0
       182    220.6787    272.6664 300.1900435 +22.5052255     461.0305     70.31323      1.759     4.02    -2.554436     19.80725     31.65818         6     0.899     0.513 -47.42   0
       183   1007.7811    267.7870 300.4366731 +22.7397550      459.739     70.17025      1.348     3.71    -2.690511     19.80725     49.54531         9     0.954     0.668  13.35   0
       184    740.5450    266.9293 300.3536599 +22.6594479     446.6573      70.2239      1.839     5.22    -2.456521     19.80725     32.98754        10     1.151     0.669   8.40   0
       185    660.8884    266.3862 300.3290278 +22.6354194     684.3629     70.15235      1.612     4.69    -2.491044     19.80725     55.57884        17     1.306     0.955  41.53   0
       186    856.1584    257.5121 300.3927397 +22.6913828     800.0759     70.20602      1.617     3.54    -2.535663     19.80725     74.69439        18     1.118     1.061  76.27   0
       187    586.8438    258.1916 300.3086351 +22.6108714     561.3513      70.2239      1.951     4.95    -2.575193     19.80725     53.78747        14     1.121     1.029 -21.77   0
       188    868.2642    257.1267 300.3966378 +22.6948988     409.6517     70.24178      1.778     4.51    -2.539676     19.80725     40.12541         6     1.019     0.638  -0.50   0
       189    984.8439    246.9034 300.4363005 +22.7268808     655.2294      70.2239      1.543     4.57    -2.664523     19.80725     59.09938        10     0.959     0.797  65.36   0
       190    219.4499    240.0829 300.2002389 +22.4955045      481.104     70.20602      1.867     6.19    -2.625148     19.80725     39.31507        10     1.274     0.846  49.59   0
       191     81.1653    235.3789 300.1588009 +22.4526687     1260.776      70.2239      1.767     3.52    -2.646348     19.80725     116.4108        22     1.324     1.004 -50.52   0
       192    904.5225    231.9031 300.4161280 +22.6985098     389.6186     70.33109      1.530     3.44    -2.618497     19.80725     45.00582         8     0.885     0.669 -35.08   0
       193    238.5097    228.6360 300.2098785 +22.4979357     3134.624     70.18814      1.707     3.63    -2.535393     19.80725     280.1749        32     1.314     1.266 -57.18   0
       194     22.6290    223.0267 300.1446308 +22.4315603     788.3871     70.18813      1.612     3.45    -2.128244     19.80725     81.61118        14     1.121     0.878  21.79   0
       195    222.1123    219.9331 300.2076068 +22.4905192     388.0069     70.29538      1.872     5.56    -2.605606     19.80725     38.58839         6     1.242     0.701   6.94   0
       196    882.3409    209.8456 300.4163740 +22.6855245     1955.521     70.24178      1.587     3.19     -2.55541     19.80725     182.7199        25     1.227     1.116  63.01   0
       197    985.8915    208.3684 300.4491365 +22.7161146     1609.523     70.15235      1.567     3.12    -2.663436     19.80725     168.8373        19     1.131     1.012 -15.20   0
       198    432.1357    205.7607 300.2775115 +22.5494323     327.6462     70.18813      1.519     4.32      -2.3883     19.80725     32.35332         5     0.795     0.667  34.38   0
       199    357.1223    196.7359 300.2571090 +22.5243490     552.7164     70.29538      2.913     4.82    -2.344793     19.80725     35.01292         8     1.213     0.543 -16.49   0
       200    483.0808    192.7137 300.2975960 +22.5609582     1141.584     70.34894      1.897     4.43    -2.413845     19.80725     94.16008        23     1.363     1.255 -50.53   0
       201    123.0244    193.7012 300.1853308 +22.4532664     473.9179     70.15235      1.691     4.22    -2.380654     19.80725     47.94996         6     0.997     0.510  78.85   0
       202    544.0746    191.5326 300.3169602 +22.5789024      417.373     70.27751      2.375     5.56    -2.437318     19.80725     28.41262         6     1.463     0.595  31.65   0
       203    125.4398    190.1297 300.1872402 +22.4529660     3514.326     70.17025      0.662     0.44    -2.331442     19.80725     1703.276         7     0.532     0.377  14.39   0
       204    227.3782    188.2163 300.2195372 +22.4829938     175.1677     70.17025      1.187     3.44    -2.289357     19.80725     23.81212         5     0.771     0.445  72.12   0
       205    257.4538    172.5777 300.2339606 +22.4875241     3388.651      70.2239      1.700     3.23      -2.0934     19.80725       346.62        35     1.343     1.256  77.66   0
       206    109.0838    172.2107 300.1879741 +22.4429164     398.4356     70.17025      1.522     2.58     -2.16417     19.80725     43.89287         6     0.744     0.543  44.10   0
       207    503.4615    157.6863 300.3153052 +22.5570058      3711.68     70.29538      1.790     3.80     -2.29897     19.80725     306.6448        37     1.385     1.342  84.10   0
       208    389.1502    158.0164 300.2796353 +22.5228327     380.0904     70.24178      1.684     4.63    -2.038751     19.80725     49.40623         7     1.073     0.607  19.88   0
       209    755.3071    148.1565 300.3968105 +22.6297366     465.6281     70.20602      1.740     3.44    -2.133624     19.80725     46.42058         5     0.972     0.352 -43.92   0
       210    631.7026    137.6958 300.3617096 +22.5896959     3473.472     70.38462      1.735     3.71    -2.106322     19.80725     272.9256        36     1.356     1.341 -81.35   0
       211    406.6997    136.7883 300.2919821 +22.5219971     952.4298     70.11655      1.756     4.03    -2.010554     19.80725     83.82791        19     1.247     1.085  69.21   0
       212    672.8180    135.1024 300.3753538 +22.6012704     519.9201     70.13445      1.827     4.80    -1.985312     19.80725     38.84287         8     1.104     0.592  -5.12   0
       213    688.2713    131.0439 300.3814832 +22.6047341     317.8445     70.17025      1.435     4.56     -1.94243     19.80725      34.8019         7     0.867     0.681  37.45   0
       214    958.2835    128.4150 300.4664762 +22.6848557     337.0389     70.17025      1.581     4.71    -2.309438     19.80725      40.4923         7     0.897     0.702 -75.63   0
       215    155.6735    129.0496 300.2164533 +22.4445023     421.5273     70.20602      1.658     4.88    -1.929782     19.80725     39.26151         7     0.893     0.756 -24.98   0
       216    727.6684    127.3962 300.3949374 +22.6154892     338.3345     70.18814      1.803     3.46    -1.875837     19.80725     30.41803         5     1.060     0.326  21.18   0
       217    675.9776    122.5903 300.3803976 +22.5986211     1476.219     70.20602      1.635     3.64    -1.886881     19.80725     144.1271        22     1.177     1.131  83.83   0
       218    691.1723    121.0062 300.3856436 +22.6027184     475.7378     70.20602      1.863     5.24    -1.856126     19.80725     33.82886         9     1.080     0.719 -24.07   0
       219    762.2584    114.0804 300.4100331 +22.6220238     965.5867     70.24178      1.846     3.93    -1.902253     19.80725     78.98512        21     1.295     1.077  -6.60   0
       220    700.6802    106.6819 300.3932524 +22.6014498     493.2431     70.33109      1.677     4.72    -1.725181     19.80725     48.94157         8     1.333     0.475 -70.67   0
       221    505.8940    106.7742 300.3325817 +22.5431084     638.2176     70.15235      1.932     3.85    -2.135748     19.80725     54.67907        14     1.124     0.878  30.13   0
       222    410.0293    105.1056 300.3032973 +22.5138948     497.4377     70.13445      1.756     6.36    -1.992618     19.80725     33.22802        11     1.187     0.957   4.41   0
       223     79.2033    106.5706 300.1999898 +22.4151127     339.5505     70.17025      1.408     3.51     -1.84571     19.80725     33.53693         5     0.795     0.447 -18.93   0
       224    791.7607    103.5102 300.4226542 +22.6278225     285.2028     70.18813      1.429     4.20    -2.040014     19.80725     34.20596         5     1.002     0.501  40.68   0
       225    181.3288     95.1347 300.2354281 +22.4424600     2219.676     70.24178      1.612     3.13    -1.969517     19.80725     209.1917        26     1.237     1.138  74.68   0
       226    749.2330     95.2942 300.4120704 +22.6127216     304.1968     70.17025      1.388     5.18    -1.674303     19.80725     33.34587         8     1.155     0.656  -2.76   0
       227    742.4094     87.1214 300.4125963 +22.6083282     518.1797     70.17025      1.926     5.12    -1.620673     19.80725     39.28686         8     1.076     0.688   1.97   0
       228    297.3797     86.8226 300.2741964 +22.4748720     649.0525     70.20602      1.542     3.43     -1.89123     19.80725     76.49809        16     1.145     0.931   6.57   0
       229    780.5285     82.4851 300.4259758 +22.6184136     226.0054     70.31323      1.515     3.53    -1.920067     19.80725     28.11248         5     0.801     0.448  18.94   2
       230    800.1885     78.4248 300.4334185 +22.6231348     1270.762     70.20602      1.667     3.82    -2.066116     19.80725      112.562        21     1.201     1.115 -23.80   0
       231    183.6696     74.1512 300.2429623 +22.4371374     706.9583     70.20602      1.701     3.58    -2.083089     19.80725     66.33506        12     0.993     0.865  81.07   0
       232    975.1053     71.4490 300.4902039 +22.6735091     386.3821     70.25965      1.567     4.34    -2.087258     19.80725     42.89107         6     0.813     0.683 -26.70   0
       233    748.5828     70.7943 300.4198161 +22.6054838     510.4372     70.17025      1.572     4.23    -1.674531     19.80725     62.00095        13     1.124     0.937  19.48   0
       234    601.0494     56.1586 300.3786190 +22.5570787     481.5483     70.24178      1.623     5.78    -1.863256     19.80725     47.52275         9     1.171     0.803  18.46   0
       235    764.3981     50.8080 300.4312262 +22.6044751     491.0255     70.02697      1.839     4.46    -1.790233     19.80725      52.0066        11     1.161     0.787 -41.45   0
       236    572.7985     49.0212 300.3721397 +22.5465628     1224.509     70.13445      1.735     3.89    -1.961341     19.80725     97.99773        23     1.287     1.116  15.91   0
       237    295.9070     46.9446 300.2866738 +22.4629776     362.7543     70.25965      1.510     5.03    -1.482016     19.80725      47.4832         8     1.181     0.606 -43.67   0
       238     10.4779     45.2699 300.1985301 +22.3769024      387.876     70.31323      1.567     4.04    -1.237595     19.80725     38.72115         6     1.044     0.446  34.70   0
       239    530.2440     43.0156 300.3608424 +22.5320857     741.8228      70.2239      1.750     4.51    -2.094493     19.80725     85.46879        16     1.329     0.946 -22.62   0
       240    635.6107     39.5239 300.3947751 +22.5626524     712.3846     70.20602      1.679     4.42    -1.670615     19.80725      61.9555        14     1.125     0.945  65.00   0
       241    456.0905     33.5865 300.3408260 +22.5071545     1193.881     70.15235      1.711     4.06    -1.940111     19.80725     98.56029        22     1.226     1.185  31.70   0
       242    103.0024     31.3572 300.2317789 +22.4006595     834.5591     70.20602      1.619     3.38    -2.306521     19.80725     84.30506        16     1.121     0.902 -19.20   0
       243    930.6530     21.8091 300.4924459 +22.6459224     128.9276     70.20602      1.492     4.50    -2.074496     19.80725     33.65123         5     1.158     0.696  11.64   0
