#   1 NUMBER                 Running object number                                     
#   2 X_IMAGE                Object position along x                                    [pixel]
#   3 Y_IMAGE                Object position along y                                    [pixel]
#   4 ALPHA_J2000            Right ascension of barycenter (J2000)                      [deg]
#   5 DELTA_J2000            Declination of barycenter (J2000)                          [deg]
#   6 FLUX_APER              Flux vector within fixed circular aperture(s)              [count]
#   7 FLUXERR_APER           RMS error vector for aperture flux(es)                     [count]
#   8 FLUX_RADIUS            Fraction-of-light radii                                    [pixel]
#   9 FWHM_IMAGE             FWHM assuming a gaussian core                              [pixel]
#  10 BACKGROUND             Background at centroid position                            [count]
#  11 THRESHOLD              Detection threshold above background                       [count]
#  12 FLUX_MAX               Peak flux above background                                 [count]
#  13 ISOAREA_IMAGE          Isophotal area above Analysis threshold                    [pixel**2]
#  14 A_IMAGE                Profile RMS along major axis                               [pixel]
#  15 B_IMAGE                Profile RMS along minor axis                               [pixel]
#  16 THETA_IMAGE            Position angle (CCW/x)                                     [deg]
#  17 FLAGS                  Extraction flags                                          
         1    740.6711     15.5308 300.4426041 +22.5801497     602.0303      70.2886      2.027     7.05    -1.249151     19.81541     44.29605        13     1.348     1.034  64.40   0
         2    644.7780     15.5839 300.4127186 +22.5514415      1446.99     70.21706      1.829     4.73    -1.523425     19.81541     104.5119        25     1.410     1.179 -84.93   0
         3    578.9249      5.7293 300.3954128 +22.5288800     706.8599     70.30647      1.758     4.46    -1.510253     19.81541     63.35233        13     1.232     0.975  23.31  16
         4    445.1815      1.8953 300.3550320 +22.4877035     235.6894     57.65979      1.295     1.85    -1.615794     19.81541     48.52731         5     0.880     0.692   0.71  24
         5    980.1199   1007.8703 300.1944537 +22.9370433      156.084     70.34221      1.066     3.42    -5.270094     19.81541     42.57158         6     0.736     0.571 -27.68   0
         6    107.7438   1019.4957 299.9191686 +22.6784454     937.3848     70.30647      6.001     7.89    0.2161395     19.81541     33.97865        13     1.740     1.000 -57.90  19
         7    101.7087   1020.8726 299.9168453 +22.6770263     1258.735     67.40504      4.406     9.61    0.3282712     19.81541     41.55777        17     2.514     1.025 -56.94  19
         8     85.7954   1022.8318 299.9112642 +22.6728053     1134.066     59.03796      4.034    10.20   -0.4420307     19.81541     43.85662        24     1.889     1.619 -41.04  27
         9     90.9995   1018.3682 299.9143352 +22.6730904     811.8217     70.19917      4.309     6.74   -0.2884364     19.81541      42.2582         7     1.348     0.945  82.37  19
        10     94.8630   1020.8249 299.9147345 +22.6749553     1502.723     67.38639      4.121     9.06    0.1740531     19.81541     42.15271        26     2.110     1.085 -74.56  27
        11     90.9477   1023.1966 299.9127455 +22.6744582     528.2714      57.2662      1.844     5.34  -0.04097892     19.81541     44.91491        10     1.062     0.758  65.34  27
        12    834.7559   1007.7204 300.1491908 +22.8933873     231.0793     70.21706      1.021     2.90     -4.62462     19.81541     46.53796         5     0.884     0.420 -83.47   0
        13    100.6236   1000.7488 299.9230666 +22.6709344     455.5518     70.25284      1.518     4.93   -0.7618032     19.81541     45.71746         9     1.216     0.571  74.59   0
        14    494.5855    996.4541 300.0469402 +22.7880458     181.5318     70.23495      1.214     4.04    -4.651396     19.81541     34.73145         6     0.950     0.492 -88.47   0
        15    797.3056    990.4582 300.1431481 +22.8771956     801.5462     70.30647      1.313     2.55    -4.532778     19.81541     88.26807        13     0.975     0.771 -23.77   0
        16    980.2371    989.2576 300.2005569 +22.9317353     257.8321     70.23495      1.260     4.34    -5.266863     19.81541      38.3142         5     0.761     0.705 -23.26   0
        17    835.7187    983.7280 300.1573106 +22.8867908     461.3038     70.36007      1.402     3.13    -4.616455     19.81541     63.24732         5     0.833     0.441  44.76   0
        18    884.2504    975.3508 300.1751658 +22.8989478      288.665     70.27072      1.356     4.67    -4.679338     19.81541     38.35604         7     0.996     0.620 -50.83   0
        19    735.2104    974.1500 300.1291190 +22.8538814     372.8388     70.25284      1.232     2.57    -4.589822     19.81541     57.22322         8     0.767     0.666 -54.19   0
        20    746.7481    971.4194 300.1336028 +22.8565604     330.2156     70.21706      1.258     2.83    -4.584044     19.81541     51.82697         7     0.840     0.615  75.34   0
        21    448.1765    970.3318 300.0410146 +22.7666193     2807.059     70.21706      1.639     7.12    -4.603625     19.81541      445.464        24     1.455     0.975 -75.10   0
        22    173.4577    956.6661 299.9600579 +22.6801869     361.7594     70.27072      1.308     3.06    -3.281362     19.81541     49.30165         7     0.916     0.487  82.33   0
        23    150.3674    953.9697 299.9537624 +22.6724768     825.2943     70.25284      1.295     2.68    -3.286713     19.81541     135.7163        13     0.944     0.830  74.15   0
        24     81.5903    954.8032 299.9321265 +22.6520501     151.9296     70.05582      1.042     4.37    -3.606073     19.81541     39.86108         6     0.980     0.556  24.99   0
        25   1021.8943    942.2402 300.2288705 +22.9307310     1277.705     63.44894      1.278     2.08    -5.736983     19.81541      201.414        16     0.938     0.863  14.38  24
        26     25.6215    943.3068 299.9184912 +22.6319373     289.2725     70.16336      1.567     5.09    -4.776803     19.81541     26.16619         7     1.076     0.681  -1.87   0
        27    976.0533    940.8637 300.2150239 +22.9165868     1207.703     70.27072      1.316     2.65    -5.213115     19.81541     161.2631        18     1.049     0.951  22.90   0
        28    759.8428    934.8827 300.1495880 +22.8500053     272.5143     70.19917      1.357     5.06     -4.60367     19.81541     42.76514         8     0.912     0.794 -83.80   0
        29    627.9859    928.8470 300.1104911 +22.8087019     2656.918     70.25284      1.408     2.72    -4.760114     19.81541     306.6613        21     1.041     1.009  35.09   0
        30    117.9778    929.8943 299.9515443 +22.6558457     281.2107     70.16336      1.377     3.97    -4.612208     19.81541     28.70331         6     0.973     0.464 -37.35   0
        31    430.5588    926.4891 300.0498199 +22.7487564      352.831     70.23495      1.342     4.87    -4.568153     19.81541     41.40477         8     1.024     0.656  83.08   0
        32    178.3209    923.1531 299.9724878 +22.6720428     791.8839     70.25284      1.382     2.72    -4.655052     19.81541     112.3551        14     0.986     0.864  37.01   0
        33    648.6069    921.0564 300.1194498 +22.8126559     503.0446     70.21706      1.934     3.79    -4.757516     19.81541     49.41037        10     0.959     0.837  69.29   0
        34    803.8973    908.4345 300.1719306 +22.8556332     2375.269     70.23495      1.464     2.67     -4.59405     19.81541     263.7073        25     1.146     1.049  37.64   0
        35   1020.9472    908.4791 300.2395761 +22.9207525     672.9166     67.08739      1.173     2.60    -5.423572     19.81541     94.97838        11     0.967     0.691  86.49  16
        36    212.3448    902.9836 299.9896313 +22.6764821     348.4138     70.19917      1.676     4.25    -4.721784     19.81541     49.77516         6     1.072     0.480  -6.79   0
        37    520.9818    901.5092 300.0860915 +22.7687396     305.5081     70.16336      1.285     4.25    -4.677284     19.81541     32.56485         8     0.878     0.691  49.11   0
        38    167.6201    899.3722 299.9769101 +22.6620119     573.6213     70.23495      1.496     4.00    -4.692963     19.81541     63.91153        10     0.954     0.834  43.89   0
        39    317.0679    891.3931 300.0259592 +22.7046124     30461.55     70.19917      1.498     2.77    -4.553593     19.81541     2921.739        74     1.358     1.296  69.19   0
        40    574.8107    890.1910 300.1065317 +22.7816509     967.0283     70.12753      1.527     3.18    -4.722601     19.81541     91.79626        16     0.999     0.995 -68.28   0
        41    987.7735    888.8996 300.2356100 +22.9051815     486.8104     70.18127      1.192     2.68    -4.908769     19.81541     77.20065         8     0.806     0.654 -69.98   0
        42    289.3426    889.2236 300.0180463 +22.6956639     184.4206     70.23495      1.555     5.64    -4.522308     19.81541      31.1169         5     1.241     0.722  16.38   0
        43    603.3889    886.0870 300.1167647 +22.7890511      528.353     70.18126      1.613     6.47    -4.747854     19.81541       45.617        13     1.238     0.950  54.22   0
        44      3.3222    886.3289 299.9301287 +22.6089107     493.2095     64.41199      1.720     3.58    -4.598239     19.81541     55.78645         8     0.933     0.622  21.19  16
        45    614.6904    884.4281 300.1208234 +22.7919671     340.6648     70.21706      1.565     5.68    -4.756005     19.81541     31.75865         8     1.121     0.811 -14.73   0
        46    934.7244    881.3381 300.2215331 +22.8871000      181.598      70.2886      1.400     5.28    -4.485963     19.81541     30.49698         5     1.029     0.764 -25.13   0
        47    366.7341    868.5983 300.0488279 +22.7129902     18294.81     70.21706      1.572     2.89    -4.583372     19.81541     1750.627        59     1.345     1.282  66.61   0
        48    757.9774    870.8739 300.1698611 +22.8310752     490.7319     70.27072      1.773     5.93    -4.685011     19.81541     37.38901        12     1.310     0.755 -50.55   0
        49    381.1769    869.2573 300.0531049 +22.7175158      1169.15     70.23495      1.466     2.86    -4.567558     19.81541     122.3125        17     1.053     0.990  74.31   0
        50    889.5969    864.1716 300.2130579 +22.8686358     1493.654     70.19917      1.407     2.70    -4.426956     19.81541      173.906        22     1.134     1.009 -82.51   0
        51    647.8486    860.4058 300.1389723 +22.7950253     599.5034     70.21706      1.495     3.41    -4.772403     19.81541     58.40993        11     1.008     0.726 -71.99   0
        52    249.3424    860.4745 300.0149767 +22.6754080     410.2759      70.2886      1.334     4.22    -4.666242     19.81541     49.03823         8     0.948     0.745  22.92   0
        53     54.5896    855.7762 299.9559994 +22.6155597     313.3289     70.23495      1.436     4.10    -4.652553     19.81541     36.85678         7     1.000     0.481 -83.29   0
        54    495.3177    855.3170 300.0931526 +22.7477849     380.6443     70.36007      1.510     3.63    -4.611124     19.81541       47.626         7     0.910     0.582  33.59   0
        55    396.4697    851.0302 300.0637981 +22.7168800     230.8598     70.23495      1.528     3.94    -4.504437     19.81541      26.7961         5     1.335     0.333  40.02   0
        56    246.6875    844.7669 300.0192674 +22.6701070     295.1604     70.19917      1.438     3.53    -4.625034     19.81541     38.30296         6     0.888     0.649  11.18   0
        57    540.1797    833.7117 300.1141502 +22.7550525     371.2057     70.16336      1.320     3.39    -4.585908     19.81541     40.06192         7     0.838     0.601  31.36   0
        58    955.9792    829.3807 300.2450848 +22.8785551     2538.078     70.23495      1.405     2.63    -4.219476     19.81541     307.1838        22     1.075     0.992   0.69   0
        59    561.7916    830.6851 300.1218624 +22.7606706     683.4512     70.18127      1.505     3.75     -4.61825     19.81541     67.94984        15     1.082     0.919   3.71   0
        60    944.5093    820.7572 300.2443174 +22.8726390     963.2017     70.23495      1.484     3.82    -4.169912     19.81541     102.8453        18     1.198     0.949  -1.38   0
        61    307.7552    814.9185 300.0479718 +22.6798866      343.839     70.21706      1.392     5.37    -4.293723     19.81541     51.92722         9     1.093     0.744  85.67   0
        62    770.9534    812.2766 300.1929896 +22.8181481     1625.097     70.23495      1.705     4.56    -4.690525     19.81541     133.9243        24     1.416     1.102   4.88   0
        63    975.6525    810.8495 300.2572546 +22.8791327     835.9847     70.27072      1.352     3.52     -4.03159     19.81541     111.3422        16     1.090     0.931 -65.78   0
        64    156.3268    798.4323 300.0062759 +22.6296841     320.3134     70.23495      1.492     6.07    -4.635821     19.81541     37.19813         9     1.281     0.810  70.49   0
        65    889.2015    789.0516 300.2374017 +22.8469479     84045.54     70.19917      1.520     2.88    -4.123095     19.81541     7798.419       111     1.400     1.378  72.77   0
        66    741.4898    789.4446 300.1912467 +22.8027550     428.4651     70.23495      1.591     4.81    -4.743187     19.81541      39.6221        11     1.023     0.872  48.50   0
        67    922.1606    781.9943 300.2499740 +22.8548053     251.6682     70.25284      1.408     3.88    -4.097598     19.81541     23.90845         5     1.276     0.338  25.36   0
        68    575.7640    778.2673 300.1432816 +22.7498227     1044.317     70.23495      1.773     5.42    -4.440515     19.81541     83.81012        20     1.406     1.052 -78.46   0
        69    756.7729    775.2996 300.2006137 +22.8032791     5414.549     70.18127      1.628     3.25    -4.615581     19.81541     436.4531        41     1.328     1.246  67.86   0
        70    258.4777    770.7571 300.0470325 +22.6524256      2834.14     70.21706      1.693     3.16    -4.357763     19.81541     256.3529        31     1.314     1.179  58.70   0
        71    340.5809    768.7621 300.0732078 +22.6765046     626.3216     70.23495      1.648     4.26    -4.308771     19.81541     59.92277        17     1.256     0.963  63.29   0
        72    548.8941    764.1907 300.1395016 +22.7377199     374.8991     70.16336      1.673     5.93    -4.308378     19.81541     40.87467         7     1.314     0.789 -64.17   0
        73    540.2784    756.2825 300.1393950 +22.7328650     1917.989     70.34221      1.763     3.58     -4.24535     19.81541     145.1908        27     1.319     1.157   1.31   0
        74    530.5617    749.9641 300.1384281 +22.7281360     877.9335     70.30647      1.914     4.40    -4.183134     19.81541     60.08675        14     1.064     1.003 -26.70   0
        75    194.5492    746.4948 300.0350628 +22.6262715     322.9837     70.30647      1.422     4.63    -4.196177     19.81541     37.38471         9     1.111     0.845  46.08   0
        76    208.1860    745.1519 300.0397378 +22.6299814     281.5321     70.25284      1.218     4.88    -4.259695     19.81541     31.86105         8     0.999     0.674 -61.64   0
        77    455.4128    739.8998 300.1183211 +22.7026948     1087.799     70.14545      1.817     3.83    -3.959925     19.81541     83.85943        21     1.271     1.061  30.17   0
        78    109.4836    735.0277 300.0123661 +22.5974371     11249.66     70.23495      1.571     2.91    -3.960594     19.81541     1174.586        51     1.357     1.251  80.69   0
        79    540.0960    735.0636 300.1462465 +22.7267212     652.7411     70.32434      1.806     4.29    -4.108759     19.81541     50.72551        12     1.097     0.855 -39.45   0
        80    957.9326    720.6360 300.2811053 +22.8479084     556.1465     70.23495      1.451     3.45    -3.932278     19.81541      54.2664        11     0.920     0.855  55.10   0
        81     55.4817    718.8952 300.0008443 +22.5765927     871.2863     70.39577      1.915     5.29    -4.124514     19.81541     62.99314        17     1.501     0.844  78.27   0
        82    824.7310    718.3615 300.2403258 +22.8073138     329.8693     70.19917      1.902     3.98    -3.960075     19.81541     37.07821         5     1.450     0.312  39.42   0
        83    898.7198    713.3376 300.2650212 +22.8280582     497.9059     70.34221      1.591     3.70    -3.902903     19.81541     47.47604         8     0.958     0.780 -66.32   2
        84    656.3151    704.7169 300.1923056 +22.7528809     389.0919     70.37792      1.702     3.75    -3.941064     19.81541     36.71478         5     1.028     0.392 -74.80   0
        85    504.5379    703.8140 300.1453535 +22.7070830     576.0984     70.19917      1.872     5.70    -3.721362     19.81541     40.12135        12     1.187     0.976  50.06   0
        86    625.9684    704.3551 300.1829744 +22.7436731     231.6114      70.2886      1.530     3.90    -3.864662     19.81541     29.94216         5     0.912     0.479  -0.10   0
        87    938.0160    698.8883 300.2819755 +22.8356902     1910.857     70.16336      1.532     3.14    -3.875368     19.81541     164.9238        22     1.145     1.050  43.37   0
        88    470.0490    699.2379 300.1361116 +22.6954200     978.3669     70.25284      1.691     3.97    -3.687967     19.81541     73.55758        19     1.140     1.108 -74.18   0
        89     32.1391    693.3198 300.0019196 +22.5622496     2843.369      70.2886      1.574     2.82    -4.215899     19.81541     278.0964        27     1.247     1.096  54.24   0
        90    333.5212    686.2170 300.0978838 +22.6507071     5368.219     70.23495      1.783     3.57    -3.944125     19.81541     407.2485        42     1.412     1.323  44.10   0
        91    455.8696    683.0474 300.1369699 +22.6865189     4950.917     70.21706      1.785     3.76    -3.591063     19.81541     366.5579        41     1.397     1.354  59.87   0
        92    495.3089    680.4716 300.1500796 +22.6976149     3828.936     70.39577      1.023     3.95    -3.538824     19.81541     1248.767        12     1.121     0.437  46.84   0
        93    867.5312    676.6836 300.2672316 +22.8081788     1195.486     70.34221      1.801     3.93    -3.461841     19.81541     83.27342        21     1.287     1.030  81.65   0
        94    951.9996    674.0088 300.2944341 +22.8327356     6984.365     70.05582      1.559     3.03    -3.791974     19.81541     586.0756        41     1.273     1.238  61.52   0
        95    516.4830    672.6871 300.1592023 +22.7017343     6518.168     70.34221      1.800     3.76    -3.425177     19.81541      482.425        47     1.458     1.403  13.83   0
        96    244.1245    668.3954 300.0758917 +22.6187585     796.9937     70.14545      1.632     3.85    -3.727543     19.81541     73.53535        16     1.145     0.960  59.76   0
        97    448.0828    660.8270 300.1417793 +22.6778057     2507.998     70.23495      1.840     3.89    -3.484496     19.81541     196.6072        32     1.372     1.263  36.29   0
        98    791.0053    660.4827 300.2486573 +22.7805787     464.5694     70.16336      1.742     4.42    -3.724818     19.81541     36.67126         8     1.192     0.467   9.34   0
        99    426.5063    659.2814 300.1355701 +22.6708871     727.1633     70.37792      1.780     4.06    -3.495658     19.81541     67.62755        16     1.237     0.946  64.65   0
       100    181.1824    658.7278 300.0594764 +22.5970885     346.9906     70.23495      1.459     3.57    -3.486638     19.81541      51.6554         5     0.961     0.382  86.33   0
       101    867.6693    655.9783 300.2740139 +22.8022732     869.2369     70.23495      1.644     4.25    -3.395981     19.81541     70.51021        18     1.247     1.038  52.43   0
       102    748.5307    653.2753 300.2377703 +22.7657711     444.6114     70.30647      1.678     5.95    -3.708781     19.81541     39.49329         9     1.104     0.910  56.43   0
       103    564.7095    648.3262 300.1821405 +22.7092117     116117.9     70.39577      1.832     3.82    -3.316475     19.81541     7719.932       160     1.654     1.640 -14.81   0
       104    251.0325    648.5416 300.0845000 +22.6151374     2020.168     70.25284      1.752     3.49    -3.628318     19.81541     162.5442        27     1.365     1.133  57.11   0
       105    455.4159    628.9367 300.1544388 +22.6708543     1590.727     70.21706      1.948     5.65    -3.351116     19.81541     101.3687        29     1.710     1.160  77.21   0
       106    752.8760    617.1748 300.2508723 +22.7567072       2896.9     70.25284      0.924     3.00    -3.524203     19.81541     894.7323         9     0.905     0.363  82.37   0
       107    852.3749    614.6015 300.2827128 +22.7858025     950.2527     70.18127      1.695     4.78     -3.36164     19.81541     71.79412        20     1.461     0.931  80.37   0
       108    764.5417    615.1494 300.2551657 +22.7596237     14534.63      70.2886      0.782     1.16    -3.490661     19.81541      5816.93        13     0.648     0.554  38.73   0
       109    723.5693    612.1367 300.2433825 +22.7464717     1575.262     70.25284      1.864     4.27    -3.483964     19.81541     99.89169        26     1.386     1.185 -80.46   0
       110    966.9108    607.0107 300.3208883 +22.8179569     602.1437     70.18126      2.113     7.19     -3.52175     19.81541     42.11429        11     1.749     0.827  67.31   0
       111    510.0847    607.3096 300.1784868 +22.6810499     383.3331     70.39577      1.964     4.90    -3.158517     19.81541     27.03533         5     1.250     0.543 -50.21   0
       112    980.4523    606.2175 300.3253690 +22.8217879     751.0361     70.21706      1.779     4.72     -3.62075     19.81541     62.35912        14     1.312     0.895  41.29   0
       113    852.4246    604.8044 300.2859164 +22.7830031     1237.599     70.19917      1.868     4.70    -3.334622     19.81541     80.83079        25     1.442     1.176  66.08   0
       114    890.5746    599.7742 300.2994440 +22.7929953     2382.272     70.19917      1.697     3.63    -3.266681     19.81541     179.4146        28     1.269     1.212  58.67   0
       115    122.6145    590.6334 300.0634357 +22.5599742     566.9685     70.21706      1.810     5.84    -3.393557     19.81541     41.64235        14     1.259     1.096  34.65   0
       116    982.5665    589.7992 300.3313707 +22.8177039      368.978     70.19917      1.473     6.20    -3.545032     19.81541     44.33547        10     1.225     0.881 -42.15   0
       117    664.2761    570.2487 300.2385451 +22.7166610     471.6892     70.23495      1.807     5.65    -3.181516     19.81541     34.01506         8     1.048     0.858  51.42   0
       118    724.5242    562.7817 300.2597386 +22.7325840     600.6284     70.23495      1.921     4.66    -3.270679     19.81541     39.51393         8     1.027     0.600  15.21   0
       119    882.0185    558.5736 300.3101823 +22.7785937     768.3476     70.27072      1.827     5.04    -3.157437     19.81541     51.17806        14     1.255     0.957 -23.51   0
       120    610.6860    553.2811 300.2273787 +22.6957164     1552.178     70.37792      1.923     4.53    -3.105081     19.81541     98.15822        28     1.435     1.239 -17.72   0
       121   1021.7823    531.8658 300.3624493 +22.8128076     792.7335      63.9421      1.752     4.41    -3.320963     19.81541     59.84378        15     1.273     0.864  86.12  16
       122    980.1815    530.6037 300.3498859 +22.7999783     581.7487     70.18126      1.961     6.05    -3.226978     19.81541     36.84543        11     1.106     0.931 -80.19   0
       123    893.7675    531.8309 300.3225446 +22.7744318     228.5077     70.25284      1.456     3.71    -3.105388     19.81541     28.16631         5     1.205     0.328  -9.02   0
       124    720.9346    527.4649 300.2701094 +22.7213641      583.673      70.2886      1.906     6.42    -3.121174     19.81541     39.27079        12     1.173     0.986  -8.98   0
       125    225.6634    525.6774 300.1165871 +22.5722747     458.5074     70.30647      1.752     5.73    -3.006573     19.81541     41.25805        11     1.295     0.933 -44.66   0
       126    287.7067    521.5015 300.1372318 +22.5896968     2116.809     70.41362      1.778     3.81    -3.080635     19.81541     161.6142        26     1.274     1.227  61.71   0
       127   1020.5359    519.2198 300.3661743 +22.8087995     2479.272     68.27554      1.650     3.33    -3.282211     19.81541     191.9153        28     1.260     1.144 -86.96  16
       128    375.5418    510.8868 300.1679972 +22.6130070     3588.347     70.32434      2.039     8.64    -2.993776     19.81541     779.6844        36     1.759     1.185 -84.83   0
       129   1000.4794    510.4168 300.3627825 +22.8002593     1051.586     70.23495      1.669     3.85    -3.218062     19.81541     84.36636        18     1.127     1.058 -67.56   0
       130    619.6476    506.8400 300.2452754 +22.6850682     10424.35     70.27072      1.959     4.26    -2.735404     19.81541     610.0882        61     1.607     1.525  55.53   0
       131    234.8930    516.1182 300.1225649 +22.5723021     4236.663     70.37792      1.831     3.80    -3.013568     19.81541     340.6441        39     1.496     1.308  81.57   0
       132    636.1907    507.1194 300.2503354 +22.6901094     467.4174     70.18127      2.190     4.55    -2.743753     19.81541     26.95273         6     0.957     0.614 -65.27   0
       133    225.0451    500.0122 300.1247422 +22.5647252     1545.302     70.23495      0.493     2.55    -3.005138     19.81541     1059.852         8     0.554     0.351  -0.50   0
       134    127.9906    496.3510 300.0957734 +22.5345441     5636.932     70.25284      1.103     3.70    -3.069948     19.81541     2363.828        11     1.180     0.334  20.98   0
       135    953.1614    489.7319 300.3547552 +22.7801348     301.4099     70.19917      1.269     4.10    -3.095697     19.81541     38.44442         6     0.760     0.631  63.31   0
       136    174.4169    487.4601 300.1130900 +22.5459287     1146.537     70.19917      1.767     4.39    -3.135732     19.81541     91.62994        22     1.283     1.181 -64.81   0
       137    560.3535    476.4840 300.2366892 +22.6585688     3653.364     70.21706      2.004     4.50     -2.49893     19.81541     191.2789        44     1.690     1.401  81.05   0
       138    973.5536    476.3994 300.3654501 +22.7824138     799.5778     70.23495      1.784     5.05    -3.066623     19.81541     53.74075        17     1.267     0.944  18.43   0
       139    764.5911    464.9569 300.3040396 +22.7164966      619.472     70.25284      1.848     6.87    -2.974786     19.81541     53.74729        14     1.541     0.860  -3.92   0
       140    467.0205    462.6779 300.2121328 +22.6266112     3404.983     70.23495      1.930     4.26     -2.54505     19.81541     237.0299        37     1.474     1.383  64.93   0
       141    858.9078    456.9530 300.3360328 +22.7424677     816.3732     70.25284      1.882     5.84    -2.928094     19.81541     52.18906        19     1.261     1.171 -58.80   0
       142    451.9828    451.8586 300.2109722 +22.6189943     215.8373     70.18126      2.422     6.18    -2.573338     19.81541     30.62515         5     1.381     0.777   0.52   0
       143    831.8071    444.9037 300.3315050 +22.7308828     363.5933     70.12753      1.761     5.01    -2.877635     19.81541     28.15834         6     1.089     0.651 -71.67   0
       144    354.6787    442.0156 300.1839054 +22.5869791     1417.789     70.25284      1.961     4.44    -2.768666     19.81541     114.0707        26     1.327     1.265  32.73   0
       145     73.3352    439.4737 300.0972895 +22.5018214     500.7808     70.27072      1.551     3.74    -2.696041     19.81541     62.16499        12     1.109     0.830  70.46   0
       146    323.9996    431.4512 300.1777999 +22.5747425     16688.66     70.19917      1.963     4.00    -2.744915     19.81541     1200.854        67     1.593     1.535  60.54   0
       147    858.4655    428.3062 300.3452103 +22.7341030     843.3528     70.36007      1.770     6.89    -2.778788     19.81541     62.98446        17     1.183     1.125  45.23   0
       148     20.4111    419.5589 300.0873271 +22.4802217     2917.206     70.23495      1.778     3.33    -2.581104     19.81541     250.0238        36     1.450     1.291 -69.52   0
       149    734.2471    411.0755 300.3121070 +22.6919203     1022.811     70.23495      1.942     4.34    -2.485378     19.81541     65.32799        21     1.303     1.099 -18.55   0
       150    396.2708    395.7197 300.2118932 +22.5861654     1203.706     70.34221      2.064     5.62    -2.374742     19.81541     83.91675        26     1.584     1.212  80.29   0
       151    835.2328    388.8508 300.3507977 +22.7158017     379.8271     70.25284      1.642     5.29    -2.603517     19.81541     41.17809         7     1.021     0.788  89.99   0
       152    472.0362    375.2183 300.2421288 +22.6030025     731.9379     70.23495      1.829     4.98    -2.093974     19.81541     57.69841        12     1.308     0.943  50.58   0
       153    716.8224    366.9182 300.3210346 +22.6740100     1250.463     70.19917      1.990     5.19    -2.467515     19.81541     76.25305        26     1.455     1.308 -40.99   0
       154    977.9704    360.8885 300.4043858 +22.7505328     1810.325     70.23495      1.761     3.86    -2.547548     19.81541     118.6429        25     1.257     1.162 -64.04   0
       155    131.5249    345.4755 300.1459220 +22.4923152     299.9775     70.32435      1.218     3.70    -2.519324     19.81541     37.44687         6     0.976     0.404 -70.73   0
       156    100.0885    345.6068 300.1361128 +22.4829192     623.9758     70.14545      1.780     5.73     -2.52022     19.81541     60.95105        12     1.460     0.769 -23.53   0
       157    788.4801    327.9478 300.3560258 +22.6842877     336.2432     70.25284      1.829     7.33    -2.245807     19.81541     33.27775         9     1.284     1.171  33.81   0
       158    886.3143    317.1089 300.3900392 +22.7104874      1063.95     70.39577      1.765     4.42    -2.487003     19.81541     77.37566        23     1.305     1.188  57.60   0
       159    305.1892    314.9317 300.2098259 +22.5356503     1280.339     70.23495      1.984     4.74    -2.083739     19.81541     87.33267        25     1.482     1.145  82.27   0
       160    383.2931    310.3954 300.2355895 +22.5577737     528.3568     70.12753      1.797     4.61    -1.989916     19.81541     39.68371         8     1.134     0.532 -68.09   0
       161    199.7685    303.0099 300.1809287 +22.5006033     466.4115     70.23495      1.840     4.72    -2.367212     19.81541     31.14104         6     1.111     0.569 -11.04   0
       162    737.3287    298.4714 300.3496691 +22.6604874     997.6925      70.2886      2.006     5.14    -1.954063     19.81541     73.42578        22     1.450     1.185 -82.12   0
       163    615.7717    295.8323 300.3126691 +22.6232956     727.5957     70.23495      0.603     0.76    -2.059628     19.81541      489.302         5     0.482     0.370  50.22   0
       164    221.4234    296.4120 300.1898031 +22.5052059     315.1788     70.23495      1.414     3.34    -2.270209     19.81541      34.9335         5     1.029     0.314 -22.75   0
       165   1009.0740    290.7187 300.4368929 +22.7396740     615.7318     70.34221      1.937     5.37    -2.700544     19.81541     43.11068        12     1.271     0.689   3.34   0
       166    662.0281    289.4734 300.3291392 +22.6353335     799.3951     70.25284      2.019     6.17      -1.8973     19.81541     47.22533        17     1.392     0.946 -14.06   0
       167    857.3611    280.7643 300.3928257 +22.6913650     741.7215     70.30647      1.811     4.97    -2.383556     19.81541     54.98266        14     1.210     1.004  87.77   0
       168    588.8339    281.0151 300.3090972 +22.6109635     536.5341     70.21706      1.914     6.70    -1.991099     19.81541     34.98411        11     1.293     0.973  61.07   0
       169    869.4071    280.1885 300.3967675 +22.6948084     602.2626     70.10961      2.424     6.17    -2.445717     19.81541     36.02133         9     1.239     0.865  65.47   0
       170    986.1249    269.6782 300.4365730 +22.7267499     546.3079     70.34221      1.567     4.75    -2.661321     19.81541      55.6305        14     1.085     0.995 -77.05   0
       171    221.5627    263.6270 300.2004989 +22.4958360     313.9306     70.25284      1.574     3.41     -2.13558     19.81541     29.64058         5     1.114     0.302 -68.44   0
       172    414.2413    262.5748 300.2607552 +22.5533214     1734.088      70.2886      0.693     1.05    -1.954671     19.81541     879.2742         5     0.571     0.373 -60.93   0
       173     82.4159    258.7134 300.1588583 +22.4526798     1219.712     70.18127      1.821     3.98    -2.250919     19.81541     96.95747        23     1.287     1.177 -33.01   0
       174    905.6428    255.9949 300.4159245 +22.6987081       474.55     70.25284      2.414     5.15     -2.48088     19.81541     28.51187         6     1.146     0.654 -75.99   2
       175    239.8425    251.9497 300.2099748 +22.4979669     3175.831     70.27072      1.929     4.05    -2.055084     19.81541     227.4499        38     1.492     1.418 -58.41   0
       176     24.1000    246.7257 300.1446401 +22.4317410      685.425     70.36007      1.622     4.97    -1.996066     19.81541      57.8164        13     1.249     0.918  14.09   0
       177    223.1796    243.9366 300.2073986 +22.4906681     290.5574     70.21706      1.400     4.35    -2.056265     19.81541       28.497         6     1.253     0.430 -34.56   0
       178    883.6624    232.7776 300.4166159 +22.6854483     1890.233     70.21706      1.861     4.41    -2.409356     19.81541     123.7574        30     1.402     1.317 -68.99   0
       179    987.1183    231.4861 300.4492923 +22.7160645     1608.178     70.37792      1.738     3.76    -2.658998     19.81541     117.8137        25     1.271     1.176  -7.10   0
       180    358.0963    220.8614 300.2568431 +22.5245055     343.4835     70.32434      2.249     3.78      -1.9301     19.81541     30.39517         5     1.297     0.317 -31.16   0
       181    123.6387    218.1435 300.1848442 +22.4534032     273.7974     70.23495      1.338     3.46    -2.117438     19.81541     30.60732         5     0.809     0.428 -71.52   0
       182    484.5552    215.5906 300.2978964 +22.5609073     869.8405     70.25284      1.922     5.25    -1.795244     19.81541     58.88594        20     1.334     1.108  76.86   0
       183    258.6908    195.8010 300.2340738 +22.4874983     3359.642     70.12753      1.990     4.12    -1.828337     19.81541     215.1103        40     1.555     1.387 -73.46   0
       184    110.1868    195.7011 300.1879545 +22.4429255     332.0276     70.14545      1.387     2.72    -2.057881     19.81541      45.7724         6     0.863     0.629 -69.26   0
       185    504.5585    180.9538 300.3153723 +22.5569527     3527.784      70.2886      2.023     4.49    -1.778087     19.81541     218.2227        39     1.496     1.448  83.55   0
       186    390.9564    181.1618 300.2799591 +22.5229559     480.0526     70.32434      2.203     4.34    -1.871208     19.81541     36.88856         5     0.848     0.641 -39.40   0
       187    633.0186    160.9050 300.3618736 +22.5896920     3511.808     70.16336      2.072     4.61    -1.653718     19.81541     192.0367        42     1.606     1.420 -86.97   0
       188    408.2417    160.4888 300.2920503 +22.5221998     770.6895     70.23495      1.761     4.95    -1.802215     19.81541     63.76882        16     1.247     1.107  -7.33   0
       189    677.1589    145.7235 300.3805502 +22.5985549     1605.058     70.19917      1.980     5.04    -1.477101     19.81541     90.27467        31     1.510     1.357 -31.49   0
       190    692.1404    144.7327 300.3855380 +22.6027589     424.4662     70.27072      1.867     4.36    -1.475838     19.81541     31.78718         5     0.755     0.717  -8.26   0
       191    763.8792    137.3230 300.4102922 +22.6221213     794.7461     70.34221      1.887     5.13    -1.448745     19.81541     66.82318        17     1.245     1.102 -30.99   0
       192    702.7352    130.4767 300.3934677 +22.6018351     397.7768     70.32434      1.884     5.34    -1.456894     19.81541     28.42393         7     0.918     0.877  46.97   0
       193    507.5093    130.6459 300.3326290 +22.5433821     600.8893     70.21706      2.173     6.10    -1.646124     19.81541     35.52816        11     1.289     0.813 -18.87   0
       194    411.8113    128.1449 300.3036643 +22.5139782     533.8409     70.23495      2.226     5.59    -1.693383     19.81541      32.3964         9     1.248     0.707   9.12   0
       195    182.6594    118.4871 300.2355490 +22.4424953     2135.895     70.32434      1.906     4.13    -1.583416     19.81541     155.2646        29     1.399     1.265  33.24   0
       196    298.9036    110.2095 300.2743723 +22.4749759     618.1592     70.16336      1.699     6.39    -1.653638     19.81541     42.35237        14     1.432     0.801 -75.73   0
       197    743.2930    110.4420 300.4126078 +22.6082258     476.6552     70.25284      1.827     6.29    -1.422756     19.81541     29.53021         9     1.268     0.877  79.07   0
       198    782.1229    106.1385 300.4261032 +22.6186200     413.1723      70.2886      2.222     5.95    -1.354316     19.81541      31.5749         6     1.558     0.639  37.27   0
       199    801.2209    101.2110 300.4336542 +22.6229236     1139.491     70.21706      2.089     5.72    -1.307406     19.81541       70.671        26     1.506     1.298  76.26   0
       200    184.9579     97.7723 300.2429892 +22.4372361     566.3986     70.25284      1.945     6.02    -1.553998     19.81541     41.45639        11     1.409     1.036  62.35   0
       201    750.2539     94.9261 300.4198145 +22.6058499     413.6825     70.25284      1.512     3.94    -1.386437     19.81541     41.74866         5     1.300     0.341 -23.40   0
       202    604.3002     79.0499 300.3795119 +22.5575594     431.9437     70.32434      2.321     4.72    -1.507075     19.81541     29.02158         5     0.944     0.671 -36.58   2
       203    213.0970     76.5928 300.2586110 +22.4395920     242.0771     70.12753      1.486     5.58    -1.455175     19.81541     32.25219         7     0.976     0.899 -30.81   0
       204    297.1519     70.3727 300.2867613 +22.4630079     420.2938     70.25284      1.529     3.41    -1.526693     19.81541     36.87984         5     0.867     0.482   3.49   0
       205     12.5816     68.7557 300.1988575 +22.3772038     350.5871     70.25284      1.082     4.04    -1.454124     19.81541     36.16082         6     0.928     0.503 -48.19   0
       206    531.4992     66.0749 300.3610611 +22.5320155      756.976     70.36007      2.017     7.64     -1.51692     19.81541     43.44525        17     1.423     1.148   1.68   0
       207    636.9766     62.8292 300.3949527 +22.5626870       729.92     70.23495      1.914     7.09    -1.489094     19.81541     46.38243        17     1.313     1.073  -1.30   0
       208    573.9653     72.1906 300.3722946 +22.5464984     922.8358     70.21706      1.923     5.84     -1.50738     19.81541     62.79019        21     1.345     1.217  33.88   0
       209    457.3084     56.7975 300.3409844 +22.5071154     1414.845     70.14545      2.062     5.09    -1.575469     19.81541     77.72639        30     1.438     1.412 -73.41   0
       210    104.5566     54.7017 300.2319884 +22.4007559     817.7048     70.23495      1.802     5.18    -1.509105     19.81541      60.5693        19     1.275     1.147 -57.17   0
       211    165.5700     36.8922 300.2567274 +22.4139387      695.183     70.19917      1.792     6.42    -1.704233     19.81541     48.07809        13     1.118     1.035 -17.16   0
       212    731.7515   1020.3002 300.1130001 +22.8660846     345.2479     68.91663      1.446     6.04    -4.553693     19.81541     44.11162         9     1.338     0.767  69.81  16
       213    766.8411   1014.8432 300.1257091 +22.8750504     630.4113     70.32434      1.304     2.05    -4.534925     19.81541     98.20264         8     0.732     0.654 -64.94   0
       214    788.9251   1008.3767 300.1346968 +22.8798225     6474.808     70.27072      1.332     2.30    -4.522079     19.81541     837.6581        36     1.165     1.079  21.34   0
