#   1 NUMBER                 Running object number                                     
#   2 X_IMAGE                Object position along x                                    [pixel]
#   3 Y_IMAGE                Object position along y                                    [pixel]
#   4 ALPHA_J2000            Right ascension of barycenter (J2000)                      [deg]
#   5 DELTA_J2000            Declination of barycenter (J2000)                          [deg]
#   6 FLUX_APER              Flux vector within fixed circular aperture(s)              [count]
#   7 FLUXERR_APER           RMS error vector for aperture flux(es)                     [count]
#   8 FLUX_RADIUS            Fraction-of-light radii                                    [pixel]
#   9 FWHM_IMAGE             FWHM assuming a gaussian core                              [pixel]
#  10 BACKGROUND             Background at centroid position                            [count]
#  11 THRESHOLD              Detection threshold above background                       [count]
#  12 FLUX_MAX               Peak flux above background                                 [count]
#  13 ISOAREA_IMAGE          Isophotal area above Analysis threshold                    [pixel**2]
#  14 A_IMAGE                Profile RMS along major axis                               [pixel]
#  15 B_IMAGE                Profile RMS along minor axis                               [pixel]
#  16 THETA_IMAGE            Position angle (CCW/x)                                     [deg]
#  17 FLAGS                  Extraction flags                                          
         1    164.2109     13.3668 300.2566833 +22.4137244     567.7195     70.45404      1.384     3.61    -1.820957     19.88229     56.87381        13     1.067     0.875  39.63   0
         2    706.5040   1020.4985 300.0981064 +22.8653824     217.5737     68.78238      1.266     3.79    -3.900735     19.88229     28.71816         6     0.959     0.430 -72.72  16
         3     73.9908   1019.6636 299.9016720 +22.6751619     1901.412     70.29227      5.671    16.81     2.815919     19.88229     44.05481        66     3.056     2.570  52.72  27
         4    102.6229   1018.0331 299.9110954 +22.6833000     1552.321     70.47199      6.854     7.78     5.778605     19.88229     79.01446        30     2.069     1.474 -78.00  19
         5     88.3869   1000.3735 299.9124238 +22.6739643     1986.267     70.47199      9.729    24.34     2.919281     19.88229      52.9177       141     6.564     2.507 -17.62  19
         6     89.6210   1012.9592 299.9087093 +22.6779395     2463.379     70.50788     12.684    29.68     4.372302     19.88229     56.60304       228     6.738     3.630 -20.69  19
         7    428.1766   1017.1419 300.0125744 +22.7808517     296.3942     70.47199      1.448     3.09    -4.293109     19.88229     38.23283         6     0.760     0.549  49.74   0
         8    592.7777   1006.1454 300.0673720 +22.8271266     44.66819     70.48994      1.026     2.80     -3.32415     19.88229     52.67819         5     0.786     0.509  41.03   0
         9    730.8176    997.8436 300.1130562 +22.8661836     409.1344     70.48994      1.383     4.79    -3.583876     19.88229     45.06874         9     1.157     0.644  69.17   0
        10     93.3613   1022.0456 299.9069123 +22.6816656     1560.498     63.02404     12.946    16.35     5.650956     19.88229     55.54205        60     4.021     1.848 -12.62  27
        11    941.8282   1008.9171 300.1752020 +22.9326797     1193.014     70.47199      1.100     1.78    -3.322538     19.88229     282.3855        13     0.852     0.748 -77.49   0
        12    765.5266    992.0613 300.1257504 +22.8749424     517.3157     70.50788      1.068     1.92    -3.546028     19.88229     101.0871         8     0.726     0.670  65.98   0
        13    787.8542    985.7333 300.1347665 +22.8798281     6491.379     70.52583      1.172     1.96    -3.617289     19.88229     1139.826        30     1.007     0.954  -2.42   0
        14     99.5011    977.7686 299.9232353 +22.6708305     292.8653     70.45404      1.183     2.76     1.605964     19.88229     59.37517         9     0.862     0.710 -55.62   0
        15    493.0327    973.8224 300.0468556 +22.7879122     235.4066     70.47199      1.242     3.41    -3.641917     19.88229     39.31657         7     0.872     0.628  59.52   0
        16    796.3076    967.7775 300.1432466 +22.8772145     903.1961     70.40015      1.204     2.21    -3.840261     19.88229     138.8923        13     0.934     0.765 -75.68   0
        17     89.2173    969.3254 299.9227900 +22.6653221     108.3214     70.47199      1.025     2.32    0.1334144     19.88229     38.81825         5     0.722     0.435  17.47   0
        18    648.2805    965.1822 300.0979885 +22.8320435     306.9369     70.47199      1.296     2.55    -4.030853     19.88229     40.85487         5     0.824     0.625  32.69   0
        19    834.2059    961.3206 300.1571572 +22.8867344     432.8236     70.40015      0.934     1.75     -3.74506     19.88229     86.34859         6     0.650     0.576 -65.28   0
        20    882.6960    952.1036 300.1752695 +22.8986389     347.6797     70.63336      1.272     2.80    -3.705073     19.88229     61.24857         7     0.877     0.604 -42.67   0
        21    745.5274    948.8320 300.1335960 +22.8565417     329.2156     70.47199      1.280     4.25    -3.920704     19.88229     62.68611         9     1.059     0.763 -39.97   0
        22    446.8741    948.1574 300.0408511 +22.7666951     2517.897     70.45404      1.272     2.09    -3.951973     19.88229     413.8003        23     1.050     0.922 -87.54   0
        23    225.3441    937.2670 299.9755174 +22.6970390     220.5879     70.52583      1.287     3.89    -2.918146     19.88229     34.58442         6     0.738     0.652 -35.85   0
        24    108.5777    936.7915 299.9393939 +22.6618214      155.746     70.47199      1.029     3.42    -2.616299     19.88229     27.42248         5     0.743     0.455  70.89   0
        25    172.2010    933.9356 299.9600884 +22.6801193     389.0998     70.47199      1.175     2.59    -2.625197     19.88229      72.2792         8     0.780     0.668  53.40   0
        26    149.4970    931.0678 299.9539681 +22.6724765     810.1443     70.57961      1.186     2.23    -2.919155     19.88229     134.6474        15     0.908     0.844 -88.58   0
        27   1020.9274    919.5457 300.2289649 +22.9307606      1179.73     67.31381      1.130     1.82    -4.210794     19.88229     216.7882        14     0.863     0.784  56.28  16
        28    974.9708    918.1683 300.2150827 +22.9165817     1214.974     70.47199      1.230     3.46    -4.212505     19.88229     209.4634        13     0.994     0.826 -29.26   0
        29    680.6586    918.3090 300.1233298 +22.8283194     332.9217     70.54375      1.294     3.84    -4.039257     19.88229     30.68227         5     1.052     0.402 -75.01   0
        30    758.4716    911.7870 300.1496877 +22.8498000     349.4534     70.48994      0.981     2.77    -4.030037     19.88229     65.81654         6     0.839     0.491  47.22   0
        31    626.7788    906.1781 300.1105025 +22.8086692     2662.776     70.47199      1.246     2.25    -4.020464     19.88229     417.4872        22     1.023     0.917 -81.94   0
        32    116.2415    906.9902 299.9514742 +22.6555877      265.494     70.47199      1.418     3.34    -3.440996     19.88229      36.6876         5     0.796     0.495  32.89   0
        33    429.1365    903.1587 300.0499812 +22.7484703     367.1949     70.45404      1.222     2.84     -3.80067     19.88229     56.21715         6     0.748     0.556  46.88   0
        34    177.2241    900.3417 299.9725833 +22.6720041      763.167     70.47199      1.217     2.43     -3.27426     19.88229     106.5548        11     0.879     0.764 -45.25   0
        35    647.1486    898.3546 300.1193909 +22.8125393     536.9159     70.48994      1.420     3.53    -4.025942     19.88229     68.02161        10     1.121     0.643  80.01   0
        36    196.1347    897.4675 299.9793947 +22.6768614     311.1376     70.52583      1.629     3.65    -3.309287     19.88229     39.63675         5     1.003     0.581  68.58   0
        37    802.7902    885.8308 300.1719432 +22.8556514     2304.272     70.47199      1.177     2.04    -4.080709     19.88229      396.649        19     0.936     0.855 -86.95   0
        38   1019.5775    885.7433 300.2395473 +22.9206536     607.0499     70.48994      0.960     2.05    -4.239879     19.88229     129.2315         9     0.766     0.679 -68.60  16
        39    211.4603    880.0328 299.9898311 +22.6764696     274.7077     70.50788      1.125     2.30    -3.361055     19.88229     52.01155         6     0.764     0.498 -88.72   0
        40    519.9823    878.2872 300.0863398 +22.7686143     302.8571     70.41812      1.332     2.88     -3.97987     19.88229     49.61633         5     0.792     0.482 -61.64   0
        41    166.3331    876.6039 299.9769248 +22.6619314      606.415     70.45404      1.383     2.85    -3.435971     19.88229     76.22987        10     0.847     0.800  73.61   0
        42    316.0264    868.6926 300.0260237 +22.7046257     30597.48     70.41812      1.332     2.38    -3.386384     19.88229     4024.234        65     1.218     1.147  44.67   0
        43    573.7330    867.4161 300.1066059 +22.7816316     998.9652     70.45404      1.332     2.36    -3.994714     19.88229       138.71        12     0.853     0.817  69.23   0
        44    244.4076    866.7802 300.0043832 +22.6825683     296.2179     70.43608      1.256     2.58    -3.350893     19.88229     34.21054         5     0.700     0.467 -73.09   0
        45    986.4158    866.1975 300.2355680 +22.9050983     562.8826     70.34623      1.163     2.35    -4.256988     19.88229     79.64113         7     0.721     0.594  71.44   0
        46    602.7343    863.5516 300.1168909 +22.7892278     579.9189     70.48994      1.300     3.27      -4.0002     19.88229     69.95201        10     0.952     0.704 -88.11   0
        47      2.2233    863.3849 299.9302566 +22.6088383     551.6766     59.62036      1.358     3.65    -4.740948     19.88229     59.41697        10     0.904     0.774 -48.50  24
        48    613.3764    861.9679 300.1207192 +22.7919677     425.1555     70.47199      1.397     4.05    -3.984361     19.88229     54.81456         6     0.798     0.587 -38.86   0
        49    718.9019    858.3680 300.1547493 +22.8226027     304.2408     70.45404      1.148     3.65    -3.665459     19.88229     45.49053         5     0.967     0.442  61.79   0
        50    756.5919    848.4975 300.1697012 +22.8310797     431.2263     70.34623      1.350     2.99    -3.619263     19.88229     70.05153         9     0.995     0.641  48.71   0
        51    365.6691    845.9170 300.0488709 +22.7130045     18016.67     70.57961      1.353     2.39    -3.424484     19.88229     2507.376        51     1.176     1.144  53.76   0
        52    379.8162    846.3501 300.0531295 +22.7173765     1070.614     70.48994      1.370     2.37    -3.435409     19.88229     152.1923        18     1.076     0.917  17.17   0
        53    888.5538    841.4073 300.2131273 +22.8686323     1596.916     70.48994      1.097     2.09    -3.878114     19.88229     237.4123        14     0.865     0.777  58.86   0
        54    646.5835    837.7791 300.1389292 +22.7949956     532.7261     70.45404      1.370     3.13    -3.754534     19.88229     55.48402         9     0.876     0.711 -74.82   0
        55    483.0732    837.9382 300.0879859 +22.7459651     238.6157     70.50788      1.271     4.56    -3.739707     19.88229     32.30718         6     0.872     0.709 -52.52   0
        56    248.4823    837.6359 300.0151333 +22.6754400      617.288     70.43608      1.448     3.97    -3.426379     19.88229     77.91531        10     1.089     0.703 -23.85   0
        57    493.5504    832.5938 300.0929848 +22.7475778     416.7494     70.47199      1.403     3.98    -3.695232     19.88229      61.0126        12     1.143     0.861 -24.34   0
        58     52.7789    832.8534 299.9558888 +22.6152830      323.963     70.47199      1.413     4.07    -4.099257     19.88229     47.17496         7     1.128     0.419  63.20   0
        59    894.6160    829.1572 300.2190032 +22.8669349     234.8944     70.48994      1.030     2.04    -3.795182     19.88229     55.38588         5     0.690     0.449 -69.17   0
        60    396.0493    828.8166 300.0638832 +22.7172241     67.71866     70.50788      1.169     5.60     -3.42186     19.88229     36.91831         5     1.116     0.793  -4.69   0
        61     81.2320    827.1904 299.9665678 +22.6222089      402.813     70.47199      1.387     2.93      -3.7459     19.88229      50.8455         6     0.723     0.612  46.21   0
        62    246.3067    821.8158 300.0196044 +22.6702527     253.0056     70.40015      1.226     2.67    -3.472757     19.88229     41.89793         5     0.738     0.434 -74.87   0
        63    568.8372    812.9781 300.1227965 +22.7645500     313.2413     70.48994      1.587     5.03    -3.519637     19.88229     33.21162         6     1.305     0.548 -68.93   0
        64    539.0479    810.2477 300.1144136 +22.7548262     315.4651     70.50788      1.288     2.80    -3.490649     19.88229     50.97178         5     0.711     0.649  15.61   0
        65    448.2049    809.6622 300.0863385 +22.7273902     213.9898     70.45404      1.280     4.43    -3.434741     19.88229     32.60208         5     1.126     0.496  59.14   0
        66    560.4277    807.7632 300.1218759 +22.7605304     820.7742     70.47199      1.384     3.02    -3.473699     19.88229     91.93015        17     1.056     0.959  47.47   0
        67    954.8684    806.7196 300.2450872 +22.8785650     2670.715     70.57961      1.183     2.09    -3.649142     19.88229     432.3536        20     0.929     0.898 -58.08   0
        68    943.3782    798.0297 300.2443324 +22.8726248     921.5812     70.47199      1.158     2.35    -3.584156     19.88229     129.4501        12     0.861     0.759  29.64   0
        69    306.7747    792.3574 300.0479850 +22.6799674     426.2338     70.50788      1.296     2.65    -3.507683     19.88229     67.86443        10     0.920     0.682  86.09   0
        70    769.5812    789.5623 300.1929245 +22.8180668     1263.769     70.47199      1.210     2.34     -3.41786     19.88229     183.7982        15     0.970     0.875 -35.20   0
        71    974.4407    788.3602 300.2571634 +22.8791638     878.7709     70.54375      1.246     2.34    -3.582853     19.88229     133.3554        12     0.860     0.824  67.29   0
        72    155.3002    776.6720 300.0060107 +22.6299828     267.0544     70.63336      1.115     2.72    -3.588182     19.88229      52.4262         6     0.728     0.565 -44.38   0
        73    852.2253    775.3795 300.2232893 +22.8387863     291.1202     70.47199      1.262     2.27    -3.482507     19.88229     59.24171         7     0.814     0.578  71.36   0
        74    888.1589    766.3700 300.2374196 +22.8469773     85011.36     70.48994      1.289     2.30     -3.50323     19.88229     11274.69       114     1.259     1.236  85.73   0
        75    740.7568    766.7631 300.1913629 +22.8028777     395.3845     70.54375      1.184     3.67    -3.398904     19.88229     47.00317         5     0.923     0.419  -4.91   0
        76    920.8344    759.2204 300.2499309 +22.8547240     266.2422     70.48994      1.508     3.94    -3.539051     19.88229     34.16248         6     0.785     0.567 -33.06   0
        77    574.4800    755.3082 300.1433147 +22.7497022     907.7231     70.57961      1.367     2.85    -3.378878     19.88229     115.9349        14     1.043     0.882  42.14   0
        78    755.6568    752.5815 300.2006176 +22.8032780     5488.017     70.47199      1.410     2.63    -3.421979     19.88229     571.4272        30     1.141     1.083  53.34   0
        79    257.3518    748.0985 300.0470184 +22.6524403     2849.753     70.50788      1.412     2.70    -3.676985     19.88229     345.4003        26     1.107     1.098   6.60   0
        80    339.5579    745.9940 300.0732597 +22.6765189     654.6478     70.50788      1.451     3.73    -3.502436     19.88229       68.073        11     0.940     0.882 -57.45   0
        81    547.4930    741.5829 300.1393797 +22.7376667     321.3856     70.40015      1.398     4.04    -3.365829     19.88229     43.84885         8     0.950     0.777  66.58   0
        82    539.2259    733.5607 300.1394162 +22.7328848     1900.719     70.48994      1.493     2.87    -3.323098     19.88229     187.6079        22     1.127     1.035 -76.89   0
        83    529.6019    727.1079 300.1385199 +22.7281458     789.4623     70.38219      1.385     2.69    -3.257534     19.88229     107.4306        15     1.066     0.829 -88.24   0
        84    923.0226    725.4128 300.2616104 +22.8456750     324.4557     70.45404      1.534     3.96    -3.442997     19.88229     35.38879         5     1.059     0.424  65.24   0
        85    193.0912    723.6838 300.0349878 +22.6261459     393.9391     70.61545      1.420     4.68    -3.658546     19.88229     40.23352         8     0.929     0.702 -79.04   0
        86    207.2843    722.0115 300.0399422 +22.6299285     322.5378     70.43608      1.408     4.23    -3.657637     19.88229     36.05873         7     0.738     0.691  88.62   0
        87    233.3539    719.1664 300.0489694 +22.6369410      293.454     70.50788      1.185     2.04    -3.654499     19.88229     50.13799         5     0.701     0.440  69.91   0
        88    976.2360    718.3068 300.2805125 +22.8595899     290.6142     70.45404      1.145     2.38    -3.520265     19.88229     51.42417         6     0.688     0.618 -77.41   0
        89    454.1184    717.3054 300.1182213 +22.7026807     1034.913     70.63336      1.655     3.56    -3.105709     19.88229     87.90215        18     1.136     1.043  -1.56   0
        90    108.3625    712.2786 300.0123729 +22.5974319     11319.41     70.45404      1.356     2.44    -3.380746     19.88229     1335.627        41     1.190     1.093  80.57   0
        91     29.1476    713.7674 299.9872867 +22.5740657     415.9201     70.48994      1.362     2.96    -3.504899     19.88229     46.10971         6     0.747     0.548 -36.32   0
        92    539.1714    712.1841 300.1463519 +22.7267366     607.7316     70.48994      1.602     3.72    -3.231426     19.88229     59.27721        10     1.027     0.823  63.10   0
        93    956.9738    698.1833 300.2810517 +22.8480369     637.2596     70.48994      1.202     2.38    -3.384363     19.88229     91.77534        10     0.841     0.710  84.26   0
        94     54.4989    696.4525 300.0007898 +22.5767189     954.7285     70.56168      1.770     4.96    -3.209362     19.88229     69.88848        20     1.545     0.855 -88.77   0
        95    823.7834    696.4648 300.2400957 +22.8076059     223.7829     70.45404      0.934     3.27     -3.31197     19.88229     48.67853         5     1.154     0.269  54.76   0
        96    502.5975    693.0100 300.1412061 +22.7102613     186.7173     70.29227      1.081     3.96    -3.044283     19.88229     37.67181         6     1.089     0.444 -17.36   0
        97    897.0829    690.8977 300.2647504 +22.8279881     408.6183     70.63336      1.552     3.74    -3.245586     19.88229     45.51546         9     1.111     0.800  36.83   0
        98    459.4981    685.1642 300.1303476 +22.6950769     417.4102     70.47199      1.471     4.18    -3.008276     19.88229     44.07654         7     1.030     0.498  43.19   0
        99    607.1008    683.5067 300.1768221 +22.7388916     414.0403     70.65127      1.572     3.77    -3.255586     19.88229     37.07311         6     0.818     0.500   1.17   0
       100    654.2239    682.2253 300.1919103 +22.7526612     272.6708     70.43608      1.410     3.41    -3.257524     19.88229     34.91888         5     0.957     0.351 -43.34   0
       101    624.6763    681.8618 300.1828287 +22.7436926     361.9229     70.52583      1.494     3.46    -3.256124     19.88229     45.46024         7     0.936     0.690  34.85   0
       102    503.8244    681.0476 300.1454780 +22.7071981     355.6575     70.48994      1.338     2.74    -3.010185     19.88229     50.03217         7     0.726     0.658 -80.05   0
       103    581.2597    679.6347 300.1700371 +22.7300277     3907.503     70.48994      0.856     2.24    -3.190982     19.88229     1359.798         7     0.836     0.393 -22.12   0
       104    519.1299    678.7057 300.1510023 +22.7111191     5987.635     70.57961      0.790     1.50    -3.042538     19.88229     2318.849        14     0.730     0.531 -14.07   0
       105    937.0250    676.3484 300.2819333 +22.8357867     1820.691     70.48994      1.321     2.60    -3.162824     19.88229     231.6395        20     1.044     0.914  42.35   0
       106    469.1169    676.6844 300.1360977 +22.6955312     939.6102     70.59753      1.443     3.06    -2.965794     19.88229     99.03728        17     1.083     0.940  11.11   0
       107     31.1234    670.5114 300.0019658 +22.5622643     2877.274     70.61545      1.368     2.55    -2.834256     19.88229     342.2054        26     1.123     1.043  19.51   0
       108    332.4703    663.4774 300.0978909 +22.6507312      5249.77     70.57961      1.548     2.98    -3.183707     19.88229     550.0517        35     1.252     1.147  46.04   0
       109    454.9041    660.3959 300.1369724 +22.6865939     5226.775     70.38219      1.550     3.15    -2.886799     19.88229     474.2535        34     1.226     1.178  64.27   0
       110    866.2615    654.0140 300.2671383 +22.8081574     1124.437     70.43608      1.490     3.23      -3.2152     19.88229     108.9147        17     1.101     0.937  49.08   0
       111    950.9177    651.3232 300.2944026 +22.8327660     7071.284     70.57961      1.356     2.49    -3.118655     19.88229     830.5028        35     1.163     1.079  68.90   0
       112    515.4423    649.9791 300.1591957 +22.7017718     6581.817     70.50788      1.578     3.00    -2.822301     19.88229     682.7497        37     1.273     1.192  34.95   0
       113    685.2184    645.6840 300.2134442 +22.7514724     302.5019     70.41812      1.339     4.12    -3.028599     19.88229     38.03139         6     0.757     0.640  49.04   0
       114    242.9198    645.5529 300.0758796 +22.6187092      671.221     70.48994      1.375     3.31     -3.37814     19.88229     94.99612        14     1.058     0.900 -66.68   0
       115    447.1271    638.2567 300.1417513 +22.6779097     2557.524     70.50788      1.570     3.08     -2.73108     19.88229      262.041        23     1.138     1.086  38.49   0
       116    789.8559    637.9776 300.2485436 +22.7806427     442.2893     70.50788      1.419     4.23     -3.22319     19.88229     50.52018         9     0.987     0.790 -30.33   0
       117    425.3680    636.7387 300.1354760 +22.6709445     767.1461     70.50788      1.636     3.98    -2.751535     19.88229     77.74305        16     1.193     0.949  32.59   0
       118    179.7487    636.3182 300.0592499 +22.5970959     411.7266     70.48994      1.490     3.14    -3.384759     19.88229     52.91978         8     0.980     0.686 -14.28   0
       119    866.5984    633.2947 300.2739803 +22.8023099      747.568     70.38219      1.389     2.97    -3.213055     19.88229     93.68933        12     1.000     0.779 -31.82   0
       120    747.4200    630.5189 300.2377485 +22.7657755     386.1164     70.45404      1.283     3.15    -3.233694     19.88229     51.21334         8     0.922     0.651  -4.24   0
       121    563.6826    625.6987 300.1821034 +22.7092793     117287.7     70.63336      1.630     3.23    -2.686138     19.88229     10931.62       146     1.475     1.460  29.37   0
       122    249.9348    625.8685 300.0844595 +22.6151712     1882.623     70.52583      1.477     2.90    -3.261149     19.88229     204.5357        22     1.197     0.968  72.74   0
       123    454.2599    606.1704 300.1544017 +22.6708459     1582.974     70.50788      1.724     3.56    -2.491955     19.88229     144.4143        22     1.208     1.095  84.50   0
       124    771.7687    594.2717 300.2571179 +22.7626723     260.1558     70.47199      1.272     4.09    -3.053466     19.88229     27.09884         5     0.842     0.622 -48.23   0
       125    851.2623    591.8962 300.2826600 +22.7858254     1061.942     70.56168      1.422     3.05    -3.047649     19.88229     96.53585        17     1.024     0.972  27.74   0
       126    722.3309    589.6930 300.2432061 +22.7465326     1493.295     70.59753      1.679     3.19    -2.930259     19.88229     136.9804        17     1.031     1.003  45.38   0
       127    510.3083    585.7848 300.1784677 +22.6818141       396.91     70.40015      1.682     4.63    -2.368539     19.88229      41.5535         8     1.007     0.689 -36.91   0
       128    979.5890    583.5864 300.3253654 +22.8219077     641.8503     70.38219      1.276     3.04    -2.678439     19.88229     73.61107        12     0.948     0.843  -0.82   0
       129    965.5247    582.7132 300.3212638 +22.8174414      521.318     70.59753      1.707     3.58    -2.704251     19.88229     47.70306         7     0.931     0.525  32.99   0
       130    851.4550    582.0018 300.2859365 +22.7830422     1224.292     70.40015      1.673     4.34    -2.946659     19.88229     108.8214        22     1.477     0.952  78.43   0
       131    604.7153    581.1918 300.2093448 +22.7088170     327.8664     70.41812      1.601     4.67    -2.456031     19.88229     32.97831         5     0.861     0.719  30.11   0
       132    889.4820    576.9939 300.2994165 +22.7930044     2425.533     70.40015      1.390     2.81    -2.843941     19.88229     249.3113        23     1.103     1.037  27.40   0
       133    121.7911    568.1034 300.0634166 +22.5601387     605.0466     70.38219      1.645     4.04    -3.095978     19.88229     60.69562        11     0.914     0.857   9.93   0
       134    981.3865    567.2556 300.3312346 +22.8177559     459.7364     70.47199      1.528     3.77     -2.64619     19.88229     53.65035         8     0.925     0.791 -70.90   0
       135    722.0251    552.2128 300.2552938 +22.7356819     180.8876     70.47199      1.396     3.89    -2.631134     19.88229     25.61125         5     0.835     0.520 -53.03   0
       136    663.4573    548.3456 300.2383107 +22.7170082      400.738     70.52583      1.640     4.02    -2.405823     19.88229     39.34367         6     0.865     0.535 -49.29   0
       137    977.0095    539.5600 300.3388719 +22.8084890     339.9118     70.47199      1.424     5.70    -2.597229     19.88229      30.7117        10     1.264     0.724  75.94   0
       138    724.0394    539.8169 300.2599501 +22.7327272     474.2677     70.48994      1.576     5.15    -2.574444     19.88229     44.30623        13     1.215     0.944  15.41   0
       139    881.0508    536.2971 300.3100166 +22.7787900     547.4784     70.54375      1.345     3.64    -2.574979     19.88229      63.1206        12     1.007     0.816 -51.90   0
       140    865.4684    532.3338 300.3064479 +22.7729808     369.9763     70.52583      1.489     5.07    -2.616261     19.88229      36.8227         6     1.009     0.720 -20.10   0
       141    609.5698    530.6303 300.2272898 +22.6957620     1832.813     70.45404      1.652     3.48    -2.217261     19.88229     168.8972        24     1.212     1.135  -2.82   0
       142    969.5861    528.9952 300.3399908 +22.8032295     251.2356     70.34623      1.252     3.81    -2.588155     19.88229     42.07041         6     0.847     0.492  89.02   0
       143   1020.7794    509.2291 300.3623792 +22.8128929     818.3756     67.83796      1.489     3.04    -2.695233     19.88229     88.08638        13     1.033     0.766 -85.77  16
       144    979.0378    507.8730 300.3498026 +22.7999946     528.5055     70.43608      1.483     3.78     -2.62933     19.88229      54.7985        11     1.068     0.827 -17.46   0
       145    720.0508    504.5831 300.2701582 +22.7214159     678.5009     70.47199      1.751     5.44    -2.493322     19.88229     47.26228        14     1.194     0.854   0.58   0
       146    224.4871    502.8955 300.1165176 +22.5722688     333.3701     70.65127      1.498     4.09    -2.842365     19.88229     42.83936         7     0.995     0.481  81.10   0
       147    286.6008    498.6297 300.1372113 +22.5896866     2090.876     70.43608      1.602     3.01     -2.80833     19.88229     239.4604        27     1.255     1.162 -83.17   0
       148   1019.3004    496.5192 300.3660483 +22.8087982     2537.888     70.59753      1.457     2.66    -2.674362     19.88229     245.5674        27     1.186     1.068  47.55  16
       149    233.8324    493.4566 300.1224891 +22.5723665     4368.659     70.48994      1.626     3.18    -2.797865     19.88229     405.2529        34     1.319     1.177  44.18   0
       150    374.6071    487.6140 300.1681558 +22.6129342     2821.574     70.36421      1.700     3.46    -2.293366     19.88229     253.5947        31     1.316     1.226 -53.96   0
       151    999.4501    487.6472 300.3627407 +22.8003012     1149.394     70.50788      1.431     2.88     -2.65315     19.88229     126.5975        16     1.039     0.888  24.55   0
       152    618.7163    484.1353 300.2452463 +22.6851593     10381.54     70.57961      1.676     3.45    -2.052084     19.88229      812.015        52     1.411     1.324  38.59   0
       153    635.8726    484.4289 300.2504925 +22.6903885     412.6256     70.47199      1.872     5.59    -2.061347     19.88229     33.48136         8     0.996     0.886 -15.08   0
       154    952.3742    466.2188 300.3550241 +22.7800383     528.9564     70.50788      1.840     4.45    -2.662743     19.88229     51.73671         9     1.207     0.696 -84.33   0
       155    173.7762    464.7224 300.1131607 +22.5461009     1155.259     70.47199      1.602     3.34    -2.649096     19.88229      121.073        17     1.078     0.982 -78.56   0
       156    559.2748    453.6692 300.2366407 +22.6585879     3680.481     70.54375      1.711     3.63    -1.976798     19.88229     309.4223        35     1.343     1.280  50.40   0
       157    274.1080    453.5747 300.1479657 +22.5730138     456.1965     70.41812      1.639     5.51    -2.533467     19.88229     43.00206        10     1.209     0.868  42.63   0
       158    972.8566    453.6997 300.3654782 +22.7825795     729.7979     70.56168      1.331     2.68    -2.684605     19.88229     88.64601        11     0.934     0.725  78.81   0
       159    131.7798    446.4722 300.1060409 +22.5282621      310.085     70.50788      1.537     4.62    -2.527517     19.88229     40.33535         5     1.294     0.469 -31.15   0
       160    763.5938    442.4552 300.3039085 +22.7166311     631.3429     70.47199      1.718     6.32     -2.57885     19.88229        55.46        14     1.284     0.875 -70.82   0
       161    465.9739    439.8572 300.2120928 +22.6266402     3354.381     70.47199      1.684     3.48    -2.010362     19.88229      334.813        32     1.302     1.254  77.04   0
       162    857.8669    434.1477 300.3359831 +22.7425027     836.4603     70.48994      1.605     3.77    -2.482572     19.88229      71.7683        18     1.188     1.032 -86.36   0
       163    955.0259    434.0887 300.3662899 +22.7716024     326.8189     70.41812      1.388     2.40    -2.691342     19.88229     47.23852         5     0.625     0.568 -88.03   0
       164    830.6650    421.6804 300.3315559 +22.7307689     272.4826     70.57961      1.315     3.48    -2.509813     19.88229     49.90234         5     1.143     0.305  18.66   0
       165    353.6296    418.9678 300.1839329 +22.5869450     1490.457     70.47199      1.658     3.35    -2.087445     19.88229     150.0868        22     1.226     1.122 -85.46   0
       166     72.2363    416.8739 300.0971586 +22.5019018     672.4439     70.41812      1.536     3.91    -2.445809     19.88229     76.92396        11     1.162     0.707  47.27   0
       167    322.9486    408.6749 300.1777356 +22.5747871      16631.9     70.48994      1.695     3.31    -2.145052     19.88229     1503.266        52     1.402     1.320  68.01   0
       168    857.3603    405.8576 300.3450153 +22.7342247     709.9603     70.45404      1.625     4.78    -2.421778     19.88229     64.99968        15     1.230     0.885   0.79   0
       169     19.3538    396.7060 300.0872854 +22.4802446     2848.481     70.48994      1.531     2.82    -2.452029     19.88229     327.0728        26     1.244     1.039  84.39   0
       170    772.9056    395.0605 300.3222055 +22.7058111     434.5291     70.56168      1.501     5.50    -2.454481     19.88229     39.05263         9     1.178     0.725  -1.74   0
       171    733.2646    388.2045 300.3120832 +22.6919597     1050.841     70.47199      1.488     2.98    -2.325763     19.88229     113.7652        18     1.092     1.029 -24.15   0
       172    948.3417    380.5431 300.3815994 +22.7542152     405.8134     70.54375      1.851     5.46    -2.630447     19.88229     44.68444         9     1.202     0.780 -75.46   0
       173    394.9454    373.0933 300.2116823 +22.5861748     1175.272     70.52583      1.773     4.67    -2.008459     19.88229     100.0994        22     1.371     1.137  48.60   0
       174    834.1962    365.6507 300.3508555 +22.7157329     398.4563     70.47199      1.590     4.12    -2.373428     19.88229     37.03364         8     0.948     0.612 -18.54   0
       175    471.3484    352.5331 300.2421277 +22.6031887     619.0679     70.48994      1.739     6.01    -1.999376     19.88229     49.97937        13     1.210     0.838 -73.78   0
       176    982.4852    347.9822 300.4028210 +22.7550883     221.6389     70.41812      1.310     3.71    -2.402921     19.88229     27.65861         6     0.795     0.499  87.73   0
       177    715.5192    344.0040 300.3209107 +22.6739463     1151.127     70.38219      1.731     4.23    -2.050874     19.88229      97.4207        21     1.264     1.106 -63.28   0
       178    976.8483    338.1116 300.4042687 +22.7505631     1921.543     70.47199      1.539     2.92    -2.395698     19.88229     194.2381        27     1.225     1.150  29.17   0
       179     99.0189    322.4212 300.1361502 +22.4828517    -597.3721     70.47199    -17.565     4.25    -2.067051     19.88229     75.69918        16     1.209     1.040  65.64   0
       180    992.4736    317.8888 300.4157083 +22.7494321     296.9084     70.63336      1.665     4.12    -2.287212     19.88229     33.45438         5     1.150     0.421  75.46   0
       181    183.1666    315.7395 300.1644642 +22.5061850     268.0494     70.48994      1.925     4.92    -2.129241     19.88229     34.23698         5     1.161     0.626 -70.62   0
       182    787.7182    305.5153 300.3559006 +22.6845293     413.5548     70.59753      1.596     4.97    -2.247933     19.88229     39.22282         8     0.869     0.804  59.97   0
       183    885.3048    294.4251 300.3899137 +22.7105838     1110.184     70.40015      1.595     3.43     -2.30719     19.88229      110.787        19     1.151     1.060  79.40   0
       184    304.0822    292.2691 300.2096695 +22.5357249     1249.344     70.57961      1.700     3.68    -2.066072     19.88229     105.1738        19     1.121     1.099  82.00   0
       185    381.8328    287.5346 300.2353850 +22.5576859      576.855     70.47199      1.775     5.31    -1.990627     19.88229     43.04956        13     1.383     0.855 -25.82   0
       186    199.0871    279.3413 300.1812284 +22.5005187     444.0887     70.54375      1.724     5.21    -2.068888     19.88229      36.7893         8     0.981     0.783 -84.02   0
       187    736.3093    276.0421 300.3494535 +22.6606564     963.4301     70.47199      1.705     4.09    -2.076723     19.88229     87.88228        19     1.195     1.083   0.52   0
       188    801.0517    275.8768 300.3696779 +22.6800100     374.0526     70.45404      1.784     4.43    -2.256475     19.88229     31.25482         6     0.808     0.692   7.30   0
       189   1007.8178    268.0911 300.4366622 +22.7397155     556.4611     70.40015      1.473     3.52     -2.10253     19.88229     53.27865        12     1.115     0.693  20.91   0
       190    661.1978    267.0301 300.3289851 +22.6355565     731.4666     70.43608      1.646     4.09    -2.053633     19.88229     56.46464        16     1.192     0.966  -9.66   0
       191    587.1868    258.7847 300.3086178 +22.6110040     527.5013     70.41812      1.690     4.01    -1.995017     19.88229     48.29739        12     1.179     0.920 -86.72   0
       192    856.3143    257.8907 300.3927387 +22.6914001     962.6677     70.63336      1.836     4.72    -2.268274     19.88229      66.4068        20     1.297     1.116 -70.24   0
       193    868.4475    257.2887 300.3967158 +22.6948621     442.3554     70.45404      1.577     3.86    -2.275824     19.88229     66.17912        10     1.124     0.734   3.82   0
       194    985.0568    247.1695 300.4363557 +22.7268846      557.078     70.48994      1.522     4.00     -2.09864     19.88229     55.89656        12     1.132     0.789  45.30   0
       195      9.3586    244.5072 300.1335956 +22.4335971     259.5825     70.48994      1.475     4.33    -2.277228     19.88229     37.72719         6     1.049     0.508 -55.93   0
       196    219.5088    241.1503 300.1999721 +22.4956864     446.2614     70.48994      1.654     4.25    -1.993737     19.88229     46.70881        11     1.104     0.836  88.22   0
       197     81.3578    235.8837 300.1587555 +22.4527285     1249.065     70.43608      1.673     3.40    -2.178412     19.88229     121.0918        19     1.144     1.051 -76.68   0
       198    904.2579    232.2908 300.4159930 +22.6984062     455.4241     70.52583      1.668     4.60     -2.27877     19.88229     33.27303         8     1.236     0.486  45.53   0
       199    238.7216    229.0641 300.2098666 +22.4979812     3287.693     70.56168      1.707     3.47      -1.9169     19.88229     280.6086        31     1.330     1.205 -71.90   0
       200     23.0031    223.5349 300.1446393 +22.4316760      797.856     70.48994      1.554     3.38    -2.386822     19.88229     76.26395        14     1.018     0.952 -55.74   0
       201    882.5616    210.1710 300.4164094 +22.6855498     1988.327     70.48994      1.600     3.31    -2.180685     19.88229     173.7924        27     1.240     1.133  29.72   0
       202    986.2062    208.8654 300.4491474 +22.7162184      1635.11     70.45404      1.554     3.15     -1.89266     19.88229      150.028        24     1.226     1.073  43.95   0
       203    356.4080    197.2305 300.2567887 +22.5241392     371.8459     70.47199      1.786     5.37    -1.596472     19.88229     31.05363         6     1.082     0.753 -44.71   0
       204    122.7192    194.2295 300.1851226 +22.4531873     285.8228     70.48994      1.483     4.72    -1.766836     19.88229     40.06804         8     0.980     0.713 -65.75   0
       205    483.5370    192.7784 300.2977815 +22.5609774     847.5885     70.45404      1.704     4.49    -1.497085     19.88229     73.44243        18     1.184     1.105  88.02   0
       206    257.4879    172.8756 300.2339345 +22.4874834     3405.868     70.59753      1.765     3.62    -1.602264     19.88229     289.8815        36     1.382     1.319  40.34   0
       207    503.5901    158.0970 300.3152758 +22.5570291     3675.588     70.38219      1.789     3.54    -1.479599     19.88229     309.7732        32     1.348     1.263 -87.61   0
       208    389.4661    158.0859 300.2797728 +22.5228131     307.9998     70.57961      1.378     4.17    -1.523924     19.88229     41.76114         6     0.805     0.678 -68.93   0
       209    756.4879    147.6828 300.3974001 +22.6298238     427.8524     70.57961      1.554     3.73    -1.582879     19.88229     48.22198         8     0.836     0.770  28.80   0
       210    631.8181    138.0631 300.3616918 +22.5897053     3502.917     70.43608      1.749     3.80     -1.54632     19.88229     264.6813        33     1.360     1.294 -67.85   0
       211    406.9513    137.2338 300.2919773 +22.5220680     801.9468     70.50788      1.649     4.09      -1.4946     19.88229     85.23808        18     1.191     1.045 -87.04   0
       212    673.1290    135.9542 300.3752404 +22.6014782     368.5455     70.45404      1.573     3.93    -1.506289     19.88229     40.49508         7     0.925     0.704 -10.67   0
       213    156.1222    129.9748 300.2163493 +22.4447686     394.1339     70.47199      1.422     3.03     -1.53831     19.88229     46.01926         7     0.890     0.495 -40.89   0
       214    727.4160    127.1607 300.3950021 +22.6152168     422.6558     70.48994      2.055     3.43    -1.514545     19.88229     30.06032         5     0.757     0.449  70.57   0
       215    676.1304    122.9008 300.3804103 +22.5986271     1587.056     70.57961      1.744     3.59      -1.4931     19.88229     138.1793        26     1.273     1.242  61.25   0
       216    690.6785    121.2079 300.3854904 +22.6024996     588.5549     70.41812      1.964     4.00    -1.493135     19.88229     44.33652        10     1.049     0.873  73.06   0
       217    762.4044    114.4531 300.4100248 +22.6220470     911.8596     70.45404      1.796     3.74    -1.427971     19.88229     92.85065        18     1.203     1.091  64.97   0
       218    700.4175    108.1330 300.3927656 +22.6016605     443.0589     70.45404      1.812     4.92    -1.470503     19.88229     41.36821         9     1.304     0.525 -35.77   0
       219     78.7618    107.7634 300.1995204 +22.4151899     359.0088     70.54375      1.463     5.53    -1.620342     19.88229     31.19696        10     1.503     0.574 -49.01   0
       220    506.3177    107.0597 300.3326832 +22.5431883     575.7698     70.57961      1.740     4.33    -1.476303     19.88229     48.21856        13     1.086     1.004  13.39   0
       221    410.6605    105.6258 300.3033854 +22.5141036     370.4917     70.47199      1.342     3.52    -1.484736     19.88229     55.54438         8     0.850     0.785 -58.00   0
       222    181.5138     95.4875 300.2354272 +22.4424859     2245.133     70.59753      1.707     3.35    -1.515486     19.88229     215.8252        29     1.298     1.199 -64.01   0
       223    749.7408     95.6057 300.4121939 +22.6128369     368.4271     70.43608      1.756     6.27    -1.388343     19.88229     44.76698         8     1.497     0.738  49.46   0
       224    742.1361     87.8599 300.4123375 +22.6083328     541.1902     70.50788      1.866     5.75    -1.413787     19.88229     43.32726        11     1.486     0.627  26.29   0
       225    297.5544     87.4850 300.2740938 +22.4749853     768.9077     70.45404      1.785     3.78    -1.568488     19.88229     76.56052        16     1.124     1.066 -84.71   0
       226    780.8151     82.8324 300.4260189 +22.6184742     378.8083     70.45404      1.686     5.53    -1.284913     19.88229     31.93853         7     1.094     0.821  10.72   0
       227    800.3958     78.9289 300.4333863 +22.6232172      1306.04     70.41812      1.533     3.62    -1.220533     19.88229     126.4906        19     1.156     1.040  71.92   0
       228    506.0674     77.4501 300.3422102 +22.5346083     321.7079     70.45404      1.573     5.12    -1.499767     19.88229     27.09332         7     1.367     0.543  20.26   0
       229    184.2722     74.7457 300.2430122 +22.4373595     642.7838     70.47199      1.479     3.45    -1.524989     19.88229     58.38344        11     0.900     0.843  79.56   0
       230    975.6716     72.3346 300.4901629 +22.6738107     470.9505     70.50788      1.573     4.13    -1.463295     19.88229     34.23314         6     0.901     0.540  41.14   0
       231    748.6624     71.5275 300.4196686 +22.6055940     497.1372     70.50788      1.684     5.81    -1.389641     19.88229     50.22694        10     1.270     0.833  29.38   0
       232    601.5986     56.3622 300.3787864 +22.5571774     538.4686     70.48994      1.849     3.57    -1.595134     19.88229      41.0613         7     0.848     0.647  20.34   0
       233    764.7789     51.0224 300.4313405 +22.6045280     297.8805     70.47199      1.302     3.59    -1.331756     19.88229     42.67682         5     1.141     0.325  23.43   0
       234    572.9332     49.3783 300.3721275 +22.5465816     1085.395     70.45404      1.760     4.17    -1.613614     19.88229     95.09468        22     1.249     1.209   1.06   0
       235     11.1641     45.4395 300.1987397 +22.3770285     372.6327     70.54375      1.345     3.21    -1.721789     19.88229      55.6173         9     0.891     0.735  87.16   0
       236    530.2517     43.6345 300.3607049 +22.5321419     763.3181     70.48994      1.672     3.99    -1.593521     19.88229     66.56094        16     1.225     0.933  20.95   0
       237    635.8253     39.9892 300.3947536 +22.5627276     860.7018     70.47199      1.833     4.42    -1.572137     19.88229     64.21768        19     1.243     1.159  64.01   0
       238    231.5885     39.3754 300.2691898 +22.4413941     320.4203     70.47199      1.318     4.67    -1.217502     19.88229     33.46579         7     0.889     0.695 -75.40   0
       239    456.1967     33.8477 300.3408335 +22.5071375     1242.901     70.45404      1.773     4.17    -1.482852     19.88229     99.10222        22     1.272     1.173  85.85   0
       240    103.4752     31.6192 300.2318935 +22.4007500     867.5857     70.47199      1.659     4.44    -1.720108     19.88229     101.3524        17     1.350     0.927 -79.37   0
