#   1 NUMBER                 Running object number                                     
#   2 X_IMAGE                Object position along x                                    [pixel]
#   3 Y_IMAGE                Object position along y                                    [pixel]
#   4 ALPHA_J2000            Right ascension of barycenter (J2000)                      [deg]
#   5 DELTA_J2000            Declination of barycenter (J2000)                          [deg]
#   6 FLUX_APER              Flux vector within fixed circular aperture(s)              [count]
#   7 FLUXERR_APER           RMS error vector for aperture flux(es)                     [count]
#   8 FLUX_RADIUS            Fraction-of-light radii                                    [pixel]
#   9 FWHM_IMAGE             FWHM assuming a gaussian core                              [pixel]
#  10 BACKGROUND             Background at centroid position                            [count]
#  11 THRESHOLD              Detection threshold above background                       [count]
#  12 FLUX_MAX               Peak flux above background                                 [count]
#  13 ISOAREA_IMAGE          Isophotal area above Analysis threshold                    [pixel**2]
#  14 A_IMAGE                Profile RMS along major axis                               [pixel]
#  15 B_IMAGE                Profile RMS along minor axis                               [pixel]
#  16 THETA_IMAGE            Position angle (CCW/x)                                     [deg]
#  17 FLAGS                  Extraction flags                                          
         1    454.1337     17.0327 300.3408346 +22.5071344     1262.882     70.00597      1.852     3.74     -1.96465     19.75081     95.59845        21     1.163     1.135 -78.57   0
         2    101.5397     15.0551 300.2318582 +22.4008624     804.3344     70.07726      1.487     2.85    -2.061903     19.75081     89.80233        13     1.005     0.802  82.99   0
         3    928.7394      5.5509 300.4923735 +22.6459972     174.3491     70.05945      1.180     3.35     -1.95549     19.75081     32.30774         5     0.749     0.435  23.35   0
         4    463.0483   1015.4742 300.0191151 +22.7963422      627.125     70.00597      1.149     1.84    -5.273699     19.75081     105.7542         8     0.727     0.625 -87.01   0
         5    251.6313   1022.7414 299.9510117 +22.7349209     295.2101     59.39447      1.054     2.74   -0.2217114     19.75081     64.87375         7     0.761     0.663  17.51  24
         6    238.9301   1022.0251 299.9472977 +22.7308997     759.3827     62.66706      5.364    10.90     1.211824     19.75081     43.10001        14     2.140     1.548 -84.93  24
         7    107.5072   1018.1710 299.9077223 +22.6903052     1611.881      69.9703     16.593    25.89     10.14863     19.75081     46.71753       112     5.722     3.253  22.09  27
         8     86.0250   1015.9749 299.9017656 +22.6832202     2944.708      69.9703     14.807    39.80     7.418981     19.75081     64.56564       421     8.404     5.231  20.45  27
         9     84.9539    997.1996 299.9075468 +22.6775206     2123.504     70.00597     16.907    33.98     4.645216     19.75081     50.01482       227     8.514     3.764 -13.95  19
        10    117.6054   1013.9703 299.9122267 +22.6921366     1141.013     70.00597      6.541     6.31     9.459515     19.75081     41.64536        13     1.363     1.135 -86.12  19
        11     84.8749    985.1202 299.9114555 +22.6740370     1998.554     70.11288      9.397    25.65     3.034099     19.75081     48.08699       149     6.029     3.030 -28.00   3
        12    119.7553   1010.1370 299.9141428 +22.6916847     1044.531      70.0238     10.097    10.52     8.810231     19.75081     34.87074        17     2.968     1.039  41.68  19
        13     97.3621   1006.9678 299.9082196 +22.6840474     662.5861     70.04163      2.471     3.44     8.388463     19.75081     38.65215         5     1.147     0.299 -66.50   3
        14    100.4267   1001.4473 299.9109691 +22.6833872     1365.591      70.0238      8.769     8.12     7.396278     19.75081     69.99805        31     2.032     1.470 -22.75   3
        15    425.9944   1000.4660 300.0124770 +22.7809124     301.5956     70.00597      1.401     2.58    -4.677591     19.75081      44.6505         6     0.762     0.499  -0.92   0
        16    939.8682    992.0327 300.1752343 +22.9327391     1226.577     70.00597      1.179     1.77    -5.568923     19.75081     259.7111        14     0.877     0.801   8.93   0
        17    728.7708    980.8241 300.1131088 +22.8661807     416.6577     70.00597      1.732     5.80    -5.354449     19.75081     44.07872        10     1.524     0.622  57.14   0
        18    393.6488   1013.4705 299.9981822 +22.7749253      3702.23     69.98814      1.162     2.07    -4.533594     19.75081     554.1792        24     0.964     0.953  38.05   0
        19    763.4879    974.9304 300.1258414 +22.8749091     586.5082     70.16628      1.252     2.37    -5.202087     19.75081     91.04163         9     0.828     0.663  70.29   0
        20    785.7036    968.7955 300.1347595 +22.8798159     6702.479     69.91676      1.213     1.99      -5.0762     19.75081     1077.232        33     1.065     0.999  81.15   0
        21    831.1010    969.2928 300.1487413 +22.8935809     219.3158     70.18406      1.055     3.93    -5.021771     19.75081     44.66734         7     0.870     0.674 -69.82   0
        22    976.5215    967.9428 300.1945065 +22.9368210     165.3589     70.04163      1.130     4.25    -5.516794     19.75081     46.24342         5     0.938     0.550  47.71   0
        23     96.9693    960.5464 299.9232128 +22.6706322     274.2377      70.0238      1.008     1.61    0.8156495     19.75081     65.11254         6     0.673     0.497  -4.40   0
        24    794.1315    950.8028 300.1432439 +22.8771829     696.9757     69.98814      1.147     2.38    -4.910391     19.75081     120.7187        11     0.835     0.735  39.76   0
        25    977.2164    950.0328 300.2005552 +22.9318891     354.3137     69.98814      1.157     2.39    -5.143215     19.75081     61.81365         5     0.717     0.608  71.07   0
        26    646.3872    948.0682 300.0981214 +22.8320588     304.4331      70.0238      1.569     4.36    -5.356993     19.75081      30.6752         6     0.864     0.627  53.02   0
        27    832.6171    944.4844 300.1572919 +22.8869177     370.3489      69.9703      1.138     2.22    -4.825932     19.75081      66.0778         6     0.762     0.486 -87.94   0
        28    492.0445    944.9691 300.0510944 +22.7848363      1242.89     70.04163      0.443   -16.22    -4.845088     19.75081     911.2385         6     0.363     0.291 -39.02   0
        29    171.4624    943.8505 299.9517883 +22.6882315      147.683     70.05945      1.513     4.63    -1.721615     19.75081     34.77793         5     0.986     0.704 -14.11   0
        30    941.2573    941.2150 300.1922158 +22.9185720     294.9744     69.98814      1.366     3.43    -4.873774     19.75081     57.17198         6     1.038     0.383 -77.37   0
        31    880.3785    935.4727 300.1751097 +22.8986612     381.1485      70.0238      1.324     2.69    -4.751658     19.75081     48.04283         6     0.811     0.485 -89.44   0
        32    731.9416    934.6370 300.1291356 +22.8538831     380.4622     70.00597      1.267     2.85    -4.981018     19.75081     71.41116         8     0.882     0.629  18.33   0
        33    743.5132    931.4995 300.1337613 +22.8564555     437.2252     70.16628      1.401     2.68    -4.892375     19.75081     56.22342         7     0.804     0.625 -70.12   0
        34    444.8368    931.1951 300.0408929 +22.7667128     2539.296     70.04163      1.316     2.16    -4.640128     19.75081     363.5233        24     1.059     1.010  50.26   0
        35    169.8407    916.7515 299.9601063 +22.6799797     499.9712     70.05945      1.437     3.06    -3.885165     19.75081     74.21991        11     1.030     0.763 -53.74   0
        36    147.2586    914.0816 299.9539599 +22.6724304     921.8644     70.05945      1.274     2.21     -3.93572     19.75081     163.7176        12     0.980     0.761 -40.80   0
        37     22.0161    903.5988 299.9184758 +22.6317961      180.988     69.88104      1.096     3.35     -4.69166     19.75081     36.03596         5     0.751     0.620 -86.91   0
        38   1018.7173    902.6871 300.2289113 +22.9307458      1174.71     70.11288      1.119     2.14    -4.709277     19.75081     197.9535        13     0.830     0.781  30.20  16
        39    972.9926    901.0284 300.2151936 +22.9165563     1211.485     70.00597      1.212     1.96    -4.705796     19.75081     227.5099        15     0.963     0.771  61.63   0
        40    678.5703    901.4380 300.1233232 +22.8283426     335.4454     70.04163      1.490     5.59    -5.129006     19.75081     32.06948         6     1.011     0.870 -33.90   0
        41    756.7349    894.6483 300.1498767 +22.8498503     284.7345      70.0238      1.171     4.42    -4.774605     19.75081     54.19104         7     0.884     0.630  80.02   0
        42    624.6732    889.1622 300.1105386 +22.8086458     2612.101     69.95246      1.262     2.22    -4.831484     19.75081     404.5418        20     0.971     0.936  59.25   0
        43    426.9490    886.6881 300.0498173 +22.7485813     218.9807     70.04163      0.947     2.03    -4.646403     19.75081     67.11203         5     0.742     0.441  62.58   0
        44    175.0708    883.2408 299.9726390 +22.6719484     689.5254      69.9703      1.196     2.68    -4.098738     19.75081     100.6256        12     0.986     0.702 -88.35   0
        45    645.1128    881.8046 300.1192970 +22.8126696     313.2755     69.93461      1.174     2.93    -4.857383     19.75081     55.42518         8     0.809     0.714   1.60   0
        46    193.5204    880.5504 299.9792470 +22.6767195     221.9061      70.0238      1.091     5.34    -4.307192     19.75081     32.50769         8     1.031     0.782 -57.45   0
        47    800.6259    868.8267 300.1719550 +22.8556098     2404.472      69.9703      1.237     2.18    -4.716995     19.75081      365.322        21     1.080     0.870  66.07   0
        48   1017.9294    868.7496 300.2397135 +22.9207665     591.2474     70.00597      1.165     2.84    -4.711598     19.75081     114.1897        12     0.959     0.770 -29.02  16
        49    209.1660    863.4169 299.9896849 +22.6765088     190.0365     69.98814      1.403     4.47    -4.482256     19.75081     35.27387         6     0.980     0.580 -72.12   0
        50    517.8580    861.4811 300.0863038 +22.7686453     376.0768     70.05945      1.391     2.79    -4.576069     19.75081     47.23894         8     0.809     0.686 -49.32   0
        51    164.1699    859.8550 299.9768633 +22.6619723     593.9688      70.0238      1.214     2.26    -4.095649     19.75081     82.69271         9     0.748     0.718 -55.00   0
        52    579.4207    854.8401 300.1076240 +22.7852191     315.5062     70.04163      1.313     4.68    -4.479385     19.75081     42.78129         8     0.932     0.667 -36.31   0
        53    313.8645    851.7535 300.0260226 +22.7046097     31195.18     70.04163      1.340     2.32    -4.655461     19.75081     4246.324        72     1.247     1.208  81.32   0
        54    571.7554    850.6618 300.1065981 +22.7817200     887.6104      70.0238      1.269     2.34    -4.480504     19.75081     120.7611        13     0.875     0.814  68.29   0
        55    984.6409    849.6912 300.2355367 +22.9053124     597.2534     70.00597      1.275     2.85    -4.693846     19.75081     78.07339         9     0.945     0.619 -24.66   0
        56    600.3792    846.7782 300.1167715 +22.7891968     469.0061     70.00597      1.195     2.44    -4.423489     19.75081     62.72239         9     0.826     0.672  14.94   0
        57    611.5943    845.1329 300.1207981 +22.7920907     282.2858     69.98814      1.140     3.08    -4.417885     19.75081     72.07335         7     1.003     0.575  49.95   0
        58    931.1803    842.1406 300.2213271 +22.8871120     321.3562     69.95246      1.126     2.72    -4.681165     19.75081     51.26162         5     0.759     0.499 -43.19   0
        59    754.8074    831.1894 300.1699315 +22.8310632     562.7311     69.88104      1.399     3.36    -4.694939     19.75081     60.01342         9     1.011     0.626 -70.93   0
        60    363.5553    828.9956 300.0488786 +22.7130060     18430.52     70.00597      1.370     2.31    -4.549869     19.75081     2502.417        57     1.223     1.164  77.51   0
        61    377.8241    829.4482 300.0531684 +22.7174199     1273.791     70.00597      1.553     2.94    -4.541378     19.75081     136.5294        19     1.156     0.994  46.27   0
        62    886.4978    824.5465 300.2131256 +22.8686603     1607.924     70.09508      1.164     2.17    -4.673827     19.75081     214.0478        14     0.850     0.833 -59.06   0
        63    644.4983    821.0031 300.1388945 +22.7950427     471.1655     69.91676      1.211     4.08    -4.422999     19.75081     63.83029         8     0.936     0.656  66.35   0
        64    246.2300    821.1290 300.0149648 +22.6755200     530.1398     70.00597      1.402     4.69    -4.407325     19.75081     61.39891         9     0.938     0.811  55.26   0
        65    481.2371    820.4958 300.0882480 +22.7458982     326.6523     70.00597      1.345     3.82    -4.477078     19.75081      41.3994         5     0.828     0.599  46.53   0
        66    491.5323    815.4363 300.0930975 +22.7475375     364.0195     70.00597      1.127     2.22    -4.453135     19.75081     79.50885         8     0.753     0.705 -51.99   0
        67     50.4365    816.2662 299.9557216 +22.6153155      352.841     70.00597      1.310     3.51    -4.643175     19.75081     41.09057         5     0.791     0.448  71.02   0
        68    892.7450    812.5162 300.2189878 +22.8670806     404.9258     70.09507      1.285     3.28     -4.66979     19.75081     51.11189         6     0.812     0.613  29.60   0
        69    437.5437    810.7905 300.0778137 +22.7299988     301.6805     69.98814      1.472     3.50    -4.453424     19.75081     36.86693         6     0.876     0.643   6.74   0
        70     79.2290    810.3042 299.9666029 +22.6222570     207.7116     69.95246      0.931     2.78     -4.62877     19.75081     53.54124         5     0.777     0.480  47.70   0
        71    243.9198    805.1815 300.0194360 +22.6702548     275.2987     70.00597      1.272     4.59    -4.313647     19.75081      35.5986         7     1.002     0.598  18.06   0
        72    536.6012    794.1896 300.1140348 +22.7549706     503.3412     69.82743      1.701     3.22    -4.349999     19.75081     57.97523         9     0.972     0.713 -53.21   0
        73    952.8685    789.8286 300.2451126 +22.8785980     2661.289     69.98814      1.238     2.04    -4.564281     19.75081     425.5767        23     1.022     0.959  33.80   0
        74    558.1311    791.1732 300.1217167 +22.7605668     899.0182     70.00597      1.477     5.12    -4.322673     19.75081     96.64123        13     1.430     0.729   0.46   0
        75    640.3666    785.9578 300.1490120 +22.7837481     219.3376     70.05945      1.173     4.08    -4.266912     19.75081     37.59938         5     1.044     0.455  24.42   0
        76    941.2017    781.2705 300.2442601 +22.8726424     935.4213     69.95246      1.265     2.25    -4.476841     19.75081     142.9602        12     0.868     0.773 -77.28   0
        77    304.3819    775.5903 300.0478576 +22.6799270     535.4158      69.9703      1.459     3.62    -4.176552     19.75081     64.15263        11     0.993     0.846  85.46   0
        78    767.8611    772.5715 300.1930725 +22.8181569     1418.583     70.00597      1.457     2.69    -4.380062     19.75081     161.1826        19     1.301     0.909  -3.19   0
        79    972.4916    771.3503 300.2572432 +22.8791766     935.0244     70.04163      1.119     2.08    -4.441289     19.75081     141.6092        14     0.856     0.833  34.38   0
        80    152.9869    759.4927 300.0060446 +22.6298495     419.9026     69.93461      1.311     3.70    -4.247294     19.75081     57.16447         9     1.092     0.621 -10.37   0
        81    886.0778    749.4859 300.2374190 +22.8469866     84676.34     70.13068      1.314     2.28    -4.126945     19.75081     11003.55       113     1.318     1.228 -89.66   0
        82    648.3959    753.2038 300.1621685 +22.7767591     195.0351     69.80956      1.131     3.40    -4.179062     19.75081     28.75361         5     0.741     0.453  71.56   0
        83    738.4636    749.8963 300.1912927 +22.8028306     416.4396     70.09507      1.306     2.13    -4.123515     19.75081     59.88709         6     0.725     0.496 -84.26   0
        84    918.9453    742.5973 300.2499048 +22.8548648     345.2184     69.95246      1.626     5.23    -4.091509     19.75081     36.68523         7     1.071     0.722 -82.99   0
        85    572.5887    738.5201 300.1433468 +22.7498000     952.4204     69.98814      1.394     2.71    -4.158681     19.75081     113.8499        13     0.935     0.828 -44.84   0
        86    753.5076    735.6693 300.2006071 +22.8032599     5506.359     70.13068      1.381     2.50    -3.990417     19.75081     628.3531        37     1.242     1.109  33.64   0
        87    255.2054    731.1776 300.0470191 +22.6524278     2801.779     69.98814      1.414     2.60    -4.123035     19.75081     304.8664        25     1.082     1.072  24.27   0
        88    337.2656    729.1705 300.0731821 +22.6764891     656.0087      70.0238      1.488     3.34    -4.105367     19.75081     68.89725        13     1.043     0.821 -45.11   0
        89    545.7852    724.9297 300.1394257 +22.7378579     440.1998      70.0238      1.486     3.84    -4.043674     19.75081      52.6754         8     0.930     0.713 -76.21   0
        90    537.1066    716.7445 300.1393873 +22.7329053     1948.631     70.05945      1.438     2.76     -3.98973     19.75081     205.3383        22     1.072     1.038  26.80   0
        91    901.8860    715.9378 300.2532601 +22.8420950     812.3563     70.11288      0.473    -0.73    -3.962029     19.75081      604.564         6     0.424     0.352  32.64   0
        92    527.4313    710.5090 300.1384047 +22.7282130     835.9762     69.95246      1.511     3.56     -3.97383     19.75081     78.00452        13     1.102     0.805  49.79   0
        93    920.9819    707.9153 300.2618222 +22.8455172     240.7678     69.95246      1.028     3.59    -4.012341     19.75081     36.79129         5     0.652     0.581 -89.00   0
        94    190.6033    706.9529 300.0348219 +22.6260848     263.5165     69.98814      1.313     4.26    -4.129318     19.75081     42.23258         7     0.822     0.749  -5.37   0
        95    205.1596    705.1962 300.0399165 +22.6299520     339.3914      70.0238      1.319     1.86    -4.126201     19.75081     61.93308         6     0.675     0.547  46.50   0
        96    230.8054    702.2705 300.0488378 +22.6368136     276.9053      69.9703      1.161     2.34    -4.115753     19.75081     49.47869         6     0.707     0.603  48.85   0
        97    551.1638    701.0682 300.1488610 +22.7326257     346.9647     70.00597      1.381     2.73    -3.797143     19.75081     40.26892         5     0.766     0.500 -33.13   0
        98    452.0738    700.2407 300.1182980 +22.7026526      1132.62     69.98814      1.428     2.94    -4.102567     19.75081     114.2222        18     1.057     0.973 -74.20   0
        99    106.1592    695.3522 300.0123605 +22.5974009     11394.77     70.05945      1.383     2.48    -4.048069     19.75081     1309.415        47     1.241     1.156  66.24   0
       100    537.1969    695.5220 300.1463183 +22.7268436     582.3256     69.91676      1.492     3.35    -3.795589     19.75081     73.15534        13     1.068     0.861 -83.34   0
       101     27.1306    696.8606 299.9873269 +22.5740976     363.4658     70.04163      1.300     2.23    -3.523528     19.75081      61.8009         5     0.722     0.497  37.39   0
       102    955.0692    681.2354 300.2811270 +22.8480756     652.3884     70.00597      1.332     2.77    -4.115197     19.75081     84.28593        12     0.911     0.867 -82.03   0
       103     52.2407    679.6913 300.0007077 +22.5767187     943.1304     70.00597      1.959     5.77    -3.688679     19.75081     61.30518        17     1.515     0.770  85.19   0
       104    118.2536    680.1164 300.0210721 +22.5966656     155.8569     70.04163      0.949     3.35    -4.010938     19.75081     34.72843         5     0.950     0.341 -45.01   0
       105    821.5826    679.6682 300.2400314 +22.8076011     247.4773     70.00597      1.417     3.94    -3.817799     19.75081     31.30399         6     0.946     0.469   2.91   0
       106    895.1348    673.9810 300.2648030 +22.8280232     325.7546      69.9703      1.310     4.16    -3.802871     19.75081     48.53424        10     0.965     0.842  49.35   0
       107    457.6276    668.5485 300.1303329 +22.6952279      479.399      70.0238      1.404     4.46    -4.016326     19.75081     50.35928         8     1.188     0.475 -85.39   0
       108    605.3924    667.1199 300.1767814 +22.7391547     310.3918     69.93461      1.387     4.69    -3.437956     19.75081     33.12292         6     0.947     0.658 -61.07   0
       109    652.7950    665.3360 300.1921194 +22.7528630     190.6577     69.98814      1.228     3.43    -3.431668     19.75081     33.50996         5     0.753     0.452 -13.16   0
       110    622.5995    665.4482 300.1826818 +22.7438370     288.2079     70.00597      1.396     3.51    -3.426613     19.75081     44.74455         6     0.935     0.442  16.00   0
       111    501.4460    664.4312 300.1453049 +22.7071956     471.2286     70.05945      1.428     3.17    -3.835037     19.75081     57.04031        12     1.029     0.783 -49.70   0
       112    466.9166    659.6710 300.1361097 +22.6954686      956.546     70.13068      1.418     3.65    -3.961828     19.75081      91.7804        17     1.093     0.976  72.57   0
       113    934.9416    659.4621 300.2819335 +22.8357884     2023.745     70.05945      1.337     2.49     -4.03746     19.75081     247.2092        18     0.956     0.942 -30.60   0
       114     28.9880    653.6368 300.0019594 +22.5622672     2917.542     69.98814      1.439     2.64    -3.572974     19.75081     321.6968        32     1.274     1.068  72.01   0
       115    330.3364    646.6106 300.0978781 +22.6507317     5309.103     69.95246      1.509     2.74    -3.995279     19.75081     526.3989        39     1.272     1.187  52.90   0
       116    452.8488    643.5171 300.1369862 +22.6866126     5316.771     70.00597      1.552     2.91    -3.870848     19.75081     539.1708        40     1.299     1.255 -65.72   0
       117    864.2349    637.2480 300.2671185 +22.8082104     1042.795     70.04163      1.363     2.82    -3.562483     19.75081     118.5373        17     1.024     0.938 -47.70   0
       118    948.9272    634.5433 300.2943974 +22.8328245     7215.304     70.04163      1.328     2.37    -4.049397     19.75081     897.4225        36     1.125     1.084  28.07   0
       119    513.3307    633.1776 300.1591662 +22.7017942     6555.722      70.0238      1.511     2.93    -3.640362     19.75081     626.7408        39     1.265     1.169  78.31   0
       120    682.8353    629.1853 300.2132293 +22.7514974     170.7031     70.00597      1.420     3.94    -3.334917     19.75081      26.8948         6     0.793     0.561 -37.38   0
       121    240.7836    628.4432 300.0759467 +22.6186397     939.1893      70.0238      1.590     3.21    -4.046713     19.75081     89.03482        15     1.016     0.972   3.55   0
       122    487.1804    626.1447 300.1533161 +22.6919300     345.6894     69.98814      1.710     3.83    -3.731469     19.75081     32.69408         5     0.932     0.451  43.96   0
       123    445.0870    621.2996 300.1417958 +22.6779093      2546.15     70.16628      1.538     3.01    -3.738446     19.75081     231.9315        24     1.141     1.086 -74.59   0
       124    787.6415    621.1500 300.2484867 +22.7806219     520.1845      70.0238      1.484     4.01    -3.604013     19.75081     53.34383        11     1.002     0.850  88.60   0
       125    423.3599    619.7653 300.1355361 +22.6709492     659.0901     70.04163      1.538     3.67    -3.738775     19.75081       68.996        14     1.059     0.936  48.29   0
       126    177.9216    619.1561 300.0594312 +22.5971046     453.0382     69.98814      1.206     2.09    -3.994169     19.75081     65.62414         6     0.716     0.539 -42.23   0
       127    864.8116    616.4590 300.2740583 +22.8024135     872.4226      69.9703      1.504     3.91    -3.545129     19.75081     86.81534        17     1.248     0.893 -41.47   0
       128    745.5177    613.9059 300.2377198 +22.7659102     368.1402     70.16628      1.561     2.57     -3.41889     19.75081     57.90637         6     0.717     0.599 -46.49   0
       129    561.5789    608.7589 300.1821210 +22.7092622     116383.1     70.04163      1.567     2.96    -3.385017     19.75081     11799.74       147     1.483     1.450 -44.86   0
       130    247.6551    608.8955 300.0844379 +22.6150966     1968.988     70.07726      1.487     2.86     -4.02033     19.75081     224.3018        21     1.104     1.025  36.76   0
       131    296.7395    591.6569 300.1052999 +22.6248856     111.8641     70.07726      1.208     4.80    -3.772192     19.75081     31.18218         5     1.051     0.621  59.60   0
       132    452.2592    589.0383 300.1545158 +22.6708050     1534.102      70.0238      1.505     3.05    -3.588469     19.75081     127.4034        22     1.112     1.067  -8.59   0
       133    849.0718    575.0847 300.2826052 +22.7858127      1055.58     70.11288      1.388     2.75    -3.396539     19.75081     119.9028        15     0.970     0.900  34.35   0
       134    720.1978    572.8079 300.2431951 +22.7465178     1376.516     69.82743      1.472     3.12    -3.201059     19.75081     139.8847        21     1.106     1.078 -69.24   0
       135    625.3000    569.4650 300.2147312 +22.7170980     306.5215     70.09507      1.359     4.37    -3.121443     19.75081     26.46791         7     0.989     0.549  58.90   0
       136    507.5003    568.4445 300.1783978 +22.6814692     410.0482      70.0238      1.508     4.49    -3.353395     19.75081     40.25143        10     1.003     0.741 -89.51   0
       137    977.4396    566.9926 300.3252509 +22.8219674     795.2109     70.04163      1.393     2.90     -3.92604     19.75081     102.6502        11     0.930     0.789  17.89   0
       138    963.1471    566.2706 300.3210292 +22.8174763     531.8926     69.98814      1.801     4.35    -3.833535     19.75081     55.90925        11     1.137     0.718 -84.41   0
       139    849.2526    565.2164 300.2858696 +22.7830329     1330.333     70.00597      1.672     3.66    -3.350967     19.75081      119.862        20     1.393     0.961  71.18   0
       140    887.4348    560.3043 300.2993664 +22.7930682      2463.64     70.00597      1.396     2.71    -3.454213     19.75081     255.8376        26     1.198     1.069   6.91   0
       141    441.3795    562.4136 300.1597864 +22.6599010     309.6421      69.9703      1.780     4.89    -3.507607     19.75081     26.84602         5     1.112     0.609  34.44   0
       142    548.0295    556.4556 300.1949076 +22.6901866     244.8655     70.00597      1.574     5.03    -3.148654     19.75081     29.72561         6     1.039     0.689  51.89   0
       143    979.2443    550.6959 300.3311115 +22.8178266     409.7648      70.0238      1.241     3.56    -3.863485     19.75081     51.34003         9     0.880     0.808  59.11   0
       144    119.7379    550.7678 300.0635860 +22.5600265      444.035      70.0238      1.280     3.65    -3.609953     19.75081     56.08572         9     0.923     0.663  83.29   0
       145    976.3771    539.0146 300.3340146 +22.8136114     262.3375     70.00597      1.547     5.03     -3.76382     19.75081     29.27782         6     1.084     0.661 -31.75   0
       146    660.6544    530.9222 300.2382676 +22.7166364     504.3168     70.04163      1.697     4.02    -3.021879     19.75081     56.70573        11     1.121     0.760  60.90   0
       147    975.6642    523.1782 300.3389400 +22.8088480     311.9576     69.98814      1.214     3.78    -3.632289     19.75081     44.12593         7     0.836     0.625  60.53   0
       148    721.5605    522.9843 300.2598151 +22.7326208      333.273      70.0238      1.247     4.11    -3.047405     19.75081     49.07175         8     0.877     0.676 -49.51   0
       149    879.0508    518.9993 300.3101797 +22.7786910      561.407      69.9703      1.457     3.70     -3.25743     19.75081      61.0327        13     1.113     0.802  23.25   0
       150    607.5405    513.7629 300.2273079 +22.6957815     1841.984      70.0238      1.603     3.32    -3.076674     19.75081     188.4931        23     1.249     1.026  18.22   0
       151    967.9009    512.0879 300.3401240 +22.8033351     305.0813     70.16628      1.436     3.91    -3.501022     19.75081     38.40393         6     0.774     0.567 -40.65   0
       152    447.8334    501.1384 300.1817098 +22.6442536     291.1464      70.0238      1.578     3.90    -3.281894     19.75081     27.49789         6     0.755     0.576 -46.85   0
       153   1018.6813    492.4281 300.3623487 +22.8129033     910.5507      70.0238      1.505     3.11    -3.536935     19.75081     100.7243        16     1.099     0.897  77.36  16
       154    977.2354    491.1677 300.3498338 +22.8001218     626.5931     70.04163      1.618     3.40    -3.372867     19.75081     68.74128        11     0.998     0.776  34.44   0
       155    718.1568    487.6276 300.2702459 +22.7214475     568.5275      70.0238      1.615     4.35    -2.926056     19.75081     54.05462        10     1.175     0.663 -17.28   0
       156    222.0953    485.7340 300.1165248 +22.5720994     398.5679     70.13068      1.742     5.29    -3.236519     19.75081       36.577         7     1.021     0.774 -76.00   0
       157    284.4522    481.6252 300.1372423 +22.5896340     2166.742      70.0238      1.583     2.95    -3.299129     19.75081     238.4946        25     1.200     1.071  60.30   0
       158   1017.3412    479.7629 300.3660468 +22.8088625      2622.55      70.0238      1.378     2.43     -3.40534     19.75081     317.2766        22     1.093     0.944 -54.60  16
       159    231.6636    476.5796 300.1224732 +22.5723449     4298.118     69.98814      1.549     2.83    -3.224187     19.75081      448.753        32     1.240     1.166  53.54   0
       160    372.4839    470.7484 300.1681483 +22.6129271      2695.08     70.04163      1.596     2.98    -3.058215     19.75081     284.6798        29     1.237     1.162  57.35   0
       161    997.4008    470.7559 300.3627553 +22.8002994     1081.144     70.00597      1.366     2.59    -3.331247     19.75081     125.8889        15     0.985     0.898 -48.16   0
       162    616.5856    467.2553 300.2452376 +22.6851419     10764.77     69.98814      1.651     3.22    -3.039932     19.75081     944.7316        52     1.355     1.318  48.82   0
       163    634.7815    467.3943 300.2508575 +22.6906382     497.9381      69.9703      2.272     5.89    -2.957647     19.75081     32.48766         7     1.752     0.558 -40.16   0
       164    812.6788    456.1111 300.3099334 +22.7407320     371.6535     70.13068      1.389     3.48    -3.001892     19.75081     28.51146         5     1.695     0.206  54.70   0
       165    949.8939    449.8332 300.3547412 +22.7800520     376.2699      69.9703      1.344     2.77    -3.193759     19.75081     48.44736         8     0.814     0.641 -44.09   0
       166    171.5096    447.7581 300.1131442 +22.5460241     1189.686     70.00597      1.513     2.85    -3.172045     19.75081       118.89        18     1.104     0.923 -62.75   0
       167    557.2714    436.7278 300.2366930 +22.6585901     3928.533     70.05945      1.676     3.31    -3.079281     19.75081     332.6123        35     1.315     1.250  60.10   0
       168    272.5485    436.7910 300.1481090 +22.5731988     430.3173      70.0238      1.496     4.32     -3.08854     19.75081     49.01058         7     1.150     0.461 -79.81   0
       169    970.8437    436.7246 300.3655325 +22.7825629     699.4503     69.98814      1.465     2.57    -3.224651     19.75081     95.71054        12     0.953     0.764  61.49   0
       170    671.2278    427.4974 300.2751691 +22.6901098     316.6158     69.95246      1.727     4.75    -2.942082     19.75081     27.87975         6     0.935     0.684  82.26   0
       171    761.4963    425.9671 300.3037815 +22.7167315     597.1951     69.98814      1.563     4.33    -2.991071     19.75081     59.08567        12     1.068     0.939 -80.14   0
       172    463.9137    422.9947 300.2121034 +22.6266486     3477.753     69.93461      1.654     3.24    -2.941936     19.75081     287.3565        30     1.306     1.117 -87.29   0
       173    953.0456    417.2316 300.3663165 +22.7716284     352.7867     70.05945      1.370     4.87    -3.179756     19.75081     38.09718         9     1.103     0.662 -63.20   0
       174    855.7150    417.2003 300.3359870 +22.7424529     864.4594     69.88104      1.574     3.91    -2.997868     19.75081     79.65148        16     1.098     1.017  71.09   0
       175    448.8936    412.3920 300.2108750 +22.6191001     402.9822     69.91676      2.299     4.86    -2.751799     19.75081     28.86062         7     1.429     0.469  -5.81   0
       176    828.0845    405.0181 300.3313342 +22.7306722     289.2613      69.9703      1.254     4.39    -2.940649     19.75081     34.28781         6     1.023     0.536  11.48   0
       177    351.4061    402.2103 300.1838606 +22.5869350     1385.235     69.86317      1.622     3.42    -2.435263     19.75081     121.8397        21     1.190     1.039  76.64   0
       178     70.0291    399.6777 300.0972381 +22.5017749     520.1064     70.00597      1.386     3.85    -2.860296     19.75081      72.2764        13     1.192     0.784  79.13   0
       179    320.7755    391.7847 300.1777227 +22.5747539     17107.81      70.0238      1.653     3.15    -2.569629     19.75081     1578.175        59     1.412     1.336  64.82   0
       180    855.4998    388.8947 300.3451155 +22.7342561     839.4664     70.18406      1.687     3.63    -2.992044     19.75081     73.02869        16     1.115     0.938 -70.47   0
       181     17.2268    379.7809 300.0873029 +22.4802192      2865.47      70.0238      1.504     3.06    -2.452904     19.75081     278.7349        27     1.246     1.091  76.09   0
       182    419.4521    377.1720 300.2131570 +22.6001597      336.575      70.0238      1.764     3.24    -2.404487     19.75081     35.77044         5     0.812     0.678 -23.55   0
       183    731.1589    371.0786 300.3121621 +22.6918717     1038.915     69.98814      1.564     4.05    -3.055944     19.75081     89.11787        18     1.159     1.025  74.08   0
       184    946.1080    364.3735 300.3813247 +22.7543599     361.2622     69.95246      1.430     3.40    -3.207626     19.75081     37.55915         5     0.779     0.430  20.00   0
       185    392.8722    356.0954 300.2117350 +22.5861375     1126.358     70.11288      1.721     4.46    -2.333244     19.75081     90.96934        21     1.375     1.016  62.39   0
       186    832.1896    347.8077 300.3511971 +22.7154655     221.6147     69.88104      1.431     4.73    -2.749311     19.75081     37.35979         6     1.025     0.620  62.49   0
       187    468.6422    335.5072 300.2419917 +22.6029511     563.1953      70.0238      1.600     3.94    -2.495394     19.75081     55.19951        13     1.103     0.840  31.66   0
       188    713.6249    327.1794 300.3209586 +22.6740058     1316.184     69.98814      1.618     3.95    -3.092604     19.75081     108.4686        22     1.315     1.082 -78.69   0
       189    974.7105    321.2902 300.4042359 +22.7505461     1836.875     70.16628      1.485     2.89    -3.252859     19.75081     185.8058        22     1.055     1.038 -39.06   0
       190    422.3740    311.1441 300.2355093 +22.5820813     262.1165     70.00597      1.220     2.97     -2.36105     19.75081     34.48227         5     0.737     0.443  70.76   0
       191     96.7057    305.5089 300.1361058 +22.4827684     742.2198     70.16628      1.736     3.99    -2.668263     19.75081     79.61726        16     1.184     1.072   6.41   0
       192    127.8977    305.3563 300.1458450 +22.4920844     291.4238     70.00597      1.450     3.37    -2.766727     19.75081     33.83084         5     0.779     0.423 -20.11   0
       193    990.8701    302.0821 300.4155127 +22.7498654     266.0195     70.11288      1.376     5.51    -3.290075     19.75081       45.105         7     1.137     0.753 -73.82   0
       194    785.2772    288.3606 300.3558849 +22.6843267     333.3709     69.98814      1.496     4.99    -2.542861     19.75081     39.87658         8     1.101     0.639  78.85   0
       195    324.3393    281.9551 300.2144978 +22.5443004     2237.285      70.0238      0.615     0.94    -2.345668     19.75081     1291.511         7     0.496     0.416  -2.29   0
       196    883.5067    277.6848 300.3899625 +22.7106906     1173.781     70.18406      1.506     2.83    -2.669511     19.75081      133.187        19     1.088     1.054  27.62   0
       197    301.8470    275.4508 300.2096161 +22.5356871     1348.959     70.04163      1.665     3.62    -2.384235     19.75081     123.1234        21     1.295     1.027 -68.27   0
       198    379.7715    270.4594 300.2354681 +22.5576250     460.8757     70.00597      1.702     5.30    -2.380331     19.75081     44.97321        12     1.238     1.000 -55.74   0
       199    197.1179    262.0939 300.1813988 +22.5004383     460.3964     70.16628      1.692     4.53     -2.64475     19.75081     37.38926         7     1.013     0.702  70.94   0
       200    734.5541    259.1091 300.3495808 +22.6607220      973.924     69.98814      1.543     3.30    -2.820219     19.75081     94.96128        18     1.100     1.030 -16.74   0
       201   1006.1779    251.1738 300.4368164 +22.7398154     427.6693     69.98814      1.391     4.77     -3.41019     19.75081     46.26092        10     1.052     0.721  21.51   0
       202    738.7233    250.5517 300.3536577 +22.6595126     416.2818     70.00597      1.590     4.54    -2.730174     19.75081     41.51742         8     0.999     0.586  75.11   0
       203    658.9808    250.0064 300.3289992 +22.6354582        715.5      69.9703      1.476     3.37    -2.870746     19.75081     72.39952        14     1.009     0.950  -7.54   0
       204    854.4341    241.4824 300.3926551 +22.6915760     832.5491      69.9703      1.509     3.41    -2.450773     19.75081     71.59452        13     0.973     0.872 -43.78   0
       205    585.6985    241.4415 300.3089637 +22.6110330     637.8153     69.98814      1.763     3.82    -2.967568     19.75081     59.87909        11     1.065     0.773 -85.41   0
       206    866.5051    240.1945 300.3968354 +22.6948221     414.2762      69.8989      1.558     6.43    -2.479611     19.75081     38.73812        12     1.371     0.848 -42.54   0
       207    983.1127    230.4054 300.4363661 +22.7269366     605.9175     69.93461      1.357     2.62    -3.195146     19.75081     83.06464         9     0.868     0.652 -80.15   0
       208    217.5509    224.1446 300.2000679 +22.4956762     426.7527     70.04163      1.673     4.20    -2.582413     19.75081     50.14439        10     1.268     0.568 -65.94   0
       209     79.2748    218.9791 300.1587818 +22.4527116      1181.84     70.00597      1.603     3.85    -2.608062     19.75081     101.3669        18     1.239     0.988  75.62   0
       210    902.1744    215.4993 300.4159702 +22.6984088     328.7538     69.95246      1.386     4.35    -2.488935     19.75081     47.65056         9     0.987     0.835  45.09   0
       211    236.6235    212.1198 300.2098989 +22.4979455     3220.221      69.9703      1.645     3.23    -2.578518     19.75081     301.8639        34     1.335     1.209  75.84   0
       212     20.7633    206.7223 300.1445880 +22.4316386     730.6917      69.9703      1.536     3.23    -2.610578     19.75081     82.04655        12     1.098     0.770  88.20   0
       213    219.7029    203.1960 300.2075361 +22.4903089     288.1282     69.91676      1.289     4.59    -2.578871     19.75081     31.77413         6     0.928     0.645 -19.09   0
       214    880.5686    193.3668 300.4164196 +22.6855749     2120.963      70.0238      1.618     3.17    -2.426198     19.75081     193.2401        25     1.196     1.117  53.26   0
       215    984.1816    191.9943 300.4491680 +22.7162131      1504.27      69.9703      1.422     2.95    -2.843564     19.75081     174.0323        22     1.186     0.997  38.83   0
       216    492.1408    178.0489 300.3004219 +22.5647800     1192.887     70.05945      0.461    -3.48    -2.564182     19.75081     967.5143         5     0.355     0.298  22.12   0
       217    120.6838    177.8888 300.1849807 +22.4533433     375.5239     70.13068      1.499     3.87    -2.585867     19.75081     32.04868         6     1.048     0.409 -76.74   0
       218    481.2802    176.1162 300.2976698 +22.5609693     991.7919     70.14848      1.786     4.09    -2.563412     19.75081     70.31851        19     1.182     1.100  49.44   0
       219    255.5569    156.1289 300.2339552 +22.4875510     3468.398      69.9703      1.688     3.32    -2.552225     19.75081     292.8715        38     1.460     1.231  82.82   0
       220    106.6697    155.7432 300.1878135 +22.4427838     429.6871      70.0238      1.706     3.57    -2.582019     19.75081     42.21023         5     1.067     0.499 -33.42   0
       221    237.1639    153.4715 300.2291002 +22.4812721     2033.143     70.00597      0.794     1.36    -2.529281     19.75081     748.2763         9     0.778     0.428  59.10   0
       222    501.4199    141.2949 300.3152367 +22.5570043     3602.956     69.91676      1.715     3.32    -2.527048     19.75081     317.4927        33     1.279     1.270 -21.07   0
       223    387.1776    140.8366 300.2798437 +22.5226262     355.4096      70.0238      1.357     4.43    -2.544934     19.75081     46.35518         6     0.799     0.700 -28.47   0
       224    753.6313    131.2007 300.3970397 +22.6296809     525.0605      69.9703      2.005     4.16    -2.211377     19.75081     35.31103         6     1.067     0.462  35.44   0
       225    194.6990    125.1836 300.2250808 +22.4604160     226.3879     69.91676      1.245     3.38    -2.419684     19.75081       36.277         5     0.760     0.434 -76.25   0
       226    629.8189    121.1469 300.3617414 +22.5896959     3521.697     69.98814      1.671     3.42     -2.38934     19.75081     286.8567        34     1.380     1.235  69.68   0
       227    404.8007    120.3141 300.2919842 +22.5220156     733.7385     69.88104      1.686     4.34    -2.544715     19.75081     77.97125        15     1.203     0.924 -53.88   0
       228    670.6767    118.5161 300.3753176 +22.6011823     538.4415     70.11288      1.727     4.47    -2.312201     19.75081     46.66825        12     1.202     0.759 -61.69   0
       229    687.0467    114.8289 300.3816120 +22.6050273     408.5379      70.0238      1.676     5.32    -2.280362     19.75081     39.36543        10     0.995     0.802 -57.22   0
       230    725.5784    110.4044 300.3950489 +22.6152996     197.3555      69.9703      1.385     3.96    -2.204777     19.75081     35.56404         5     0.941     0.492 -86.85   0
       231    674.0420    105.9229 300.3804516 +22.5985715     1571.647      69.9703      1.730     3.50    -2.292614     19.75081      130.355        25     1.322     1.176  81.85   0
       232    153.8790    113.5309 300.2161769 +22.4448284     451.3777     70.11288      1.943     3.57    -2.492991     19.75081     41.64098         7     0.842     0.771 -79.36   0
       233    760.2358     97.4663 300.4100429 +22.6219631     826.5533     70.00597      1.593     3.40    -2.118815     19.75081      85.7844        16     1.106     0.975   6.06   0
       234    214.0100     95.2509 300.2407936 +22.4576140     2886.104      70.0238      0.461     0.69    -2.217654     19.75081     2147.399         7     0.481     0.262  87.27   0
       235    698.6180     90.6926 300.3930469 +22.6015573     356.2672     69.93461      1.570     3.34    -2.225759     19.75081     41.09255         7     0.997     0.844 -82.68   0
       236    504.3322     89.9085 300.3328156 +22.5431154      490.972     70.13068      1.529     4.66    -2.452848     19.75081     52.61554        10     1.067     0.794 -80.75   0
       237     77.1709     90.0902 300.1999510 +22.4150923     317.9895      69.9703      1.408     3.73    -2.534898     19.75081     38.81481         5     0.839     0.476  29.65   0
       238    408.0912     88.1688 300.3034369 +22.5137693     395.3901     69.95246      1.703     4.09    -2.468833     19.75081     52.75719         8     0.983     0.715 -71.67   0
       239    179.3850     78.6498 300.2354184 +22.4424645     2189.419     70.04163      1.634     3.18    -2.316794     19.75081      223.198        24     1.193     1.128  87.07   0
       240    746.9123     79.2877 300.4117900 +22.6127467     317.2594     70.16628      1.836     4.33    -2.133628     19.75081     39.67097         6     1.236     0.432   6.73   0
       241    295.3768     70.8300 300.2740089 +22.4749994     686.2925     70.00597      1.639     3.96    -2.310161     19.75081     62.57128        15     1.137     0.989  67.64   0
       242    740.4460     70.6654 300.4125728 +22.6083312     441.0447     70.00597      1.510     4.29    -2.140804     19.75081     49.37856        10     1.099     0.812   8.71   0
       243    777.9145     64.8117 300.4261446 +22.6178716     313.6667     69.95246      1.611     3.87    -2.079918     19.75081      29.8365         5     0.817     0.527 -52.44   0
       244    208.8174     64.1655 300.2492636 +22.4471320     3962.866     70.00597      0.850     3.19    -2.204794     19.75081     1768.699        10     0.933     0.319  14.62   0
       245    798.3984     61.9407 300.4334583 +22.6231815     1222.315      69.9703      1.637     3.33    -2.049495     19.75081      108.936        21     1.167     1.077 -73.67   0
       246    503.4381     60.1951 300.3421765 +22.5343109     217.8293      70.0238      1.620     4.32     -2.28924     19.75081     25.55172         5     0.925     0.575 -42.33   0
       247    182.0231     57.7710 300.2430107 +22.4372614     635.5505     70.00597      1.840     3.68    -2.244824     19.75081     58.67971        10     0.986     0.809 -19.06   0
       248    973.0356     55.3772 300.4900232 +22.6735895     397.0819      70.0238      1.187     3.75    -2.027839     19.75081     43.35066         5     0.842     0.479  45.01   0
       249    746.9760     54.3457 300.4199010 +22.6055961     465.8343      70.0238      1.556     4.54    -2.121705     19.75081      46.9763        12     1.180     0.857 -55.41   0
       250    331.3112     44.8007 300.2936253 +22.4782971     347.7603     69.91676      2.270     6.14    -2.167706     19.75081     31.22612         8     1.184     0.895 -25.86   0
       251    599.2337     39.4749 300.3787145 +22.5570622     557.7723     70.00597      1.819     4.67    -2.176892     19.75081     56.00738        12     1.158     1.138  89.16   0
       252    762.5988     34.1810 300.4313089 +22.6044786     370.8835     69.93461      1.547     4.94    -2.092272     19.75081     37.50196        11     1.103     0.891  71.09   0
       253    570.9729     32.3894 300.3722150 +22.5465585     1041.241     70.00597      1.600     4.19    -2.144781     19.75081     86.23514        23     1.380     1.062  74.49   0
       254    294.2646     30.4944 300.2867463 +22.4630824     431.0891     70.11288      1.487     2.78    -2.070457     19.75081      49.2347         5     0.719     0.465 -19.53   0
       255      8.5965     28.6942 300.1985680 +22.3769016     434.9167     69.91676      1.526     5.64    -2.412026     19.75081     44.98042        10     1.047     0.856 -17.53   0
       256    528.3703     26.4547 300.3608796 +22.5320878     803.0854     70.00597      1.748     3.86    -2.106157     19.75081     72.33324        17     1.203     0.961 -37.01   0
       257    633.7717     22.9153 300.3948389 +22.5626506     858.7444     70.00597      1.725     4.25    -2.134107     19.75081     74.81293        15     1.247     0.911 -88.52   0
       258    228.8911     22.2577 300.2690952 +22.4411177     337.8965     70.05945      1.495     5.54    -2.161414     19.75081     34.95608         8     1.057     0.820 -11.91   0
       259     65.7202   1022.0148 299.8934931 +22.6788477     915.3091     62.74669      4.444     5.73     3.479476     19.75081     38.76501         8     1.337     0.692   5.02  17
       260    569.1583   1018.9816 300.0509891 +22.8292102     912.8776      70.0238      1.258     2.17    -5.351515     19.75081     141.8545        10     0.778     0.719  24.31  16
