#   1 NUMBER                 Running object number                                     
#   2 X_IMAGE                Object position along x                                    [pixel]
#   3 Y_IMAGE                Object position along y                                    [pixel]
#   4 ALPHA_J2000            Right ascension of barycenter (J2000)                      [deg]
#   5 DELTA_J2000            Declination of barycenter (J2000)                          [deg]
#   6 FLUX_APER              Flux vector within fixed circular aperture(s)              [count]
#   7 FLUXERR_APER           RMS error vector for aperture flux(es)                     [count]
#   8 FLUX_RADIUS            Fraction-of-light radii                                    [pixel]
#   9 FWHM_IMAGE             FWHM assuming a gaussian core                              [pixel]
#  10 BACKGROUND             Background at centroid position                            [count]
#  11 THRESHOLD              Detection threshold above background                       [count]
#  12 FLUX_MAX               Peak flux above background                                 [count]
#  13 ISOAREA_IMAGE          Isophotal area above Analysis threshold                    [pixel**2]
#  14 A_IMAGE                Profile RMS along major axis                               [pixel]
#  15 B_IMAGE                Profile RMS along minor axis                               [pixel]
#  16 THETA_IMAGE            Position angle (CCW/x)                                     [deg]
#  17 FLAGS                  Extraction flags                                          
         1    164.6823     15.7682 300.2566859 +22.4138563     717.1255     70.30319      1.732     4.21    -1.290116     19.83467     65.11256        11     1.013     0.873  15.12   0
         2    104.1066   1021.3817 299.9111241 +22.6839699     1306.699     65.52048      7.932    11.47     5.627968     19.83467     44.76418        30     2.603     1.407   6.23  27
         3     99.2904   1011.4730 299.9128549 +22.6796854     1456.061     70.46417     12.313    14.60     4.563887     19.83467     42.00516        41     2.797     2.119  48.14  19
         4     74.3232   1022.0467 299.9016605 +22.6752100     1420.658     62.85305      5.795    18.44     1.871991     19.83467     43.43075        63     3.622     2.609   7.97  27
         5     90.2006   1003.0964 299.9127599 +22.6745554     1904.621     70.17773      8.391    24.68     2.750834     19.83467      49.7381       135     6.174     2.739 -18.11  19
         6     94.1897   1014.7098 299.9102173 +22.6790794     993.8954     70.24945      4.892     6.91     4.525308     19.83467      53.3708        15     2.515     0.532  63.29  19
         7     85.4439   1017.2305 299.9066812 +22.6771730     2116.587       70.339      9.165    17.40     3.289122     19.83467     50.06182        76     3.165     2.658   7.85  19
         8     81.6843   1010.7739 299.9076161 +22.6741945     1235.342     70.28529      9.107    12.71     2.315607     19.83467     44.29079        33     4.103     1.096 -22.22  19
         9     95.7340   1022.4990 299.9081607 +22.6817738     993.2463      60.8585      5.232     9.48     5.578632     19.83467     42.77436        21     1.941     1.293   2.43  27
        10    428.3109   1019.5111 300.0124704 +22.7808279     415.8355     70.46417      1.495     3.25    -5.279012     19.83467     50.89371         7     0.847     0.616  76.80  16
        11    942.2168   1011.0914 300.1751892 +22.9326643     1252.608     70.23153      1.259     1.95    -5.384351     19.83467     203.3788        12     0.878     0.744  72.45   0
        12    592.7746   1008.3698 300.0672559 +22.8270164     233.4148     70.30319      1.320     4.90    -5.250147     19.83467      35.6568         6     1.126     0.604 -67.18   0
        13    730.6208    999.5684 300.1130285 +22.8658692     548.1415     70.30319      1.849     2.34    -5.277248     19.83467     57.47864         6     0.777     0.496  -1.25   2
        14     91.5269   1015.8382 299.9090232 +22.6786024     1144.798     70.26737      5.712     9.50     4.310809     19.83467     53.30699        28     2.618     0.962  61.32  19
        15    765.8972    994.1460 300.1257786 +22.8749008     646.1548     70.39267      1.409     2.99      -5.1583     19.83467     109.6793        12     1.140     0.698 -46.46   0
        16    543.5200    995.2081 300.0562165 +22.8084568     241.3701     70.24945      0.951     3.34    -5.091229     19.83467     39.83449         5     0.759     0.445  68.38   0
        17    788.1606    987.9166 300.1347403 +22.8797952     6687.283     70.26737      1.273     2.08    -5.035448     19.83467     1051.887        35     1.112     1.012 -82.70   0
        18    979.0877    987.6622 300.1943102 +22.9370031     336.5419     70.39267      1.168     2.63    -5.609647     19.83467     51.98087         6     0.739     0.591  70.97   0
        19    833.6866    987.5623 300.1490356 +22.8933541     364.7488     70.28529      1.187     2.71    -4.984001     19.83467     42.74086         5     0.689     0.481  14.47   0
        20     99.5922    979.9299 299.9232179 +22.6707437     101.2569     70.28529      1.013     2.78     1.239934     19.83467     50.88925         6     0.782     0.489 -85.05   0
        21    839.7947    975.5402 300.1548527 +22.8917386     211.7861     70.26737      1.185     2.02    -4.888807     19.83467     48.58376         5     0.667     0.478  17.64   0
        22    796.7963    970.1967 300.1431993 +22.8773045     780.2278     70.08798      1.246     2.35    -4.863743     19.83467     133.1058        13     0.951     0.838 -66.49   0
        23    834.8804    963.6026 300.1572086 +22.8868401     436.0785      70.2136      1.026     3.48    -4.794295     19.83467     58.23667         6     0.921     0.458  12.39   0
        24    883.3814    954.7608 300.1751971 +22.8988547     258.0347      70.3211      1.080     3.33    -4.709824     19.83467      54.1545         6     0.796     0.624 -63.14   0
        25    734.5399    953.6805 300.1291892 +22.8538865     373.0001      70.3569      1.265     2.55     -5.06478     19.83467      62.4387         9     0.832     0.723  77.15   0
        26    447.3220    950.2408 300.0409349 +22.7666858     2403.757     70.28529      1.326     2.42    -4.733695     19.83467     303.7146        21     1.047     0.961 -39.69   0
        27    172.5731    935.7351 299.9602681 +22.6800132     508.6916     70.28529      1.471     3.99    -3.360782     19.83467     63.21239        10     1.079     0.732 -87.51   0
        28    149.6843    933.1189 299.9540108 +22.6723876     857.3698     70.42843      1.296     2.68    -3.617679     19.83467     122.4976        14     1.051     0.763 -78.36   0
        29   1021.2359    921.6813 300.2289307 +22.9307116     1270.318     66.03723      1.196     2.11    -4.865575     19.83467     205.4218        12     0.850     0.772 -71.88  16
        30    975.3024    920.2853 300.2150662 +22.9165355     1352.997     70.46417      1.320     2.48    -4.640712     19.83467      152.026        20     1.050     1.001  50.52   0
        31    681.1556    920.4457 300.1233878 +22.8283356     279.3655       70.339      1.684     4.21     -4.68632     19.83467     30.29813         6     1.059     0.478 -54.78   0
        32    181.4675    915.2387 299.9697019 +22.6768139     247.0262     70.26737      1.587     4.35     -4.03904     19.83467     36.42044         5     1.043     0.517 -49.30   0
        33    758.8593    914.1141 300.1496419 +22.8498364     376.9694     70.41055      1.362     3.79    -4.713875     19.83467      49.0591        10     0.929     0.788 -32.57   0
        34    627.0920    908.2647 300.1105248 +22.8086176     2701.688     70.41055      1.364     2.57    -4.780695     19.83467     336.3845        22     1.069     0.959  77.50   0
        35    429.6176    905.2079 300.0500876 +22.7484633     435.5021     70.24945      1.292     4.26    -4.504405     19.83467     43.64314         7     1.127     0.459  81.11   0
        36    177.2759    902.3713 299.9725877 +22.6718688     767.9404     70.28529      1.366     2.83    -4.088968     19.83467     101.0479        15     0.984     0.924  -1.73   0
        37    647.4555    900.6380 300.1193451 +22.8125421     289.4154     70.30319      1.261     3.55    -4.646348     19.83467     59.07024         9     1.081     0.612  44.12   0
        38    196.9682    899.7255 299.9795656 +22.6770261     140.8738     70.30319      1.071     3.41    -4.062044     19.83467     36.44193         5     0.804     0.483  53.38   0
        39    803.1453    887.9617 300.1719463 +22.8556217      2298.82     70.30319      1.317     2.34    -4.383887     19.83467     333.6514        20     1.021     0.903  76.19   0
        40   1020.0378    887.7713 300.2395950 +22.9206206     652.0177     69.56513      1.248     2.29     -4.52988     19.83467     102.0867         9     0.839     0.641 -63.41  16
        41    520.3184    880.3829 300.0863765 +22.7685759     412.7111     70.28529      1.475     3.33    -4.344896     19.83467     42.21972         7     0.823     0.675 -72.27   0
        42    166.6421    878.8913 299.9769259 +22.6619484     486.7499     70.30319      1.246     2.43    -4.200873     19.83467     77.71853        11     0.914     0.718  12.74   0
        43    581.6086    873.8655 300.1075662 +22.7851034     283.1358     70.28529      1.193     3.41    -4.402568     19.83467      32.9374         5     0.747     0.450  71.48   0
        44    316.3197    870.8638 300.0260427 +22.7046014      30857.3     70.41055      1.422     2.56    -4.187999     19.83467     3348.194        74     1.331     1.235  82.43   0
        45    574.1297    869.7380 300.1065823 +22.7816753     1015.214       70.339      1.501     2.97    -4.333497     19.83467     91.35811        14     1.031     0.831 -83.11   0
        46    986.6503    868.5868 300.2354308 +22.9051028     587.4393      70.3569      1.399     3.35    -4.333634     19.83467        76.98        11     1.089     0.768  87.31   0
        47    603.1719    865.9615 300.1168485 +22.7893086     512.7767      70.3211      1.395     4.15    -4.364814     19.83467     56.75546         8     0.851     0.661 -53.38   0
        48      2.4357    865.2485 299.9303818 +22.6087094     453.5569     60.50581      1.509     3.66    -4.200816     19.83467     47.00885         9     0.923     0.764  86.16  24
        49    614.1129    864.0427 300.1208777 +22.7920418     354.6393     70.30319      1.387     4.36    -4.364237     19.83467     41.29847         7     0.957     0.585 -11.64   0
        50    365.9453    848.0966 300.0488766 +22.7129772     17715.78     70.39267      1.448     2.68    -4.189106     19.83467     2034.328        61     1.335     1.219 -88.29   0
        51    757.0522    850.3365 300.1698361 +22.8310003     419.6546      70.3569      1.480     3.73    -4.311868     19.83467     47.71138         7     0.882     0.579  79.99   0
        52    380.4204    848.8469 300.0531325 +22.7175382     1220.748      70.3569      1.585     3.04    -4.241458     19.83467     108.0696        18     1.124     0.951  69.09   0
        53    293.2280    850.0315 300.0256450 +22.6916973     1174.403     70.30319      0.495     0.81    -4.157491     19.83467     776.6375         6     0.420     0.349  -0.45   0
        54    871.8672    846.4670 300.2068583 +22.8643312     882.6112      70.3569      0.731     1.26     -4.19067     19.83467     313.8666         6     0.537     0.467  41.56   0
        55    888.9517    843.4846 300.2131519 +22.8685996     1497.437     70.28529      1.299     2.54    -4.191906     19.83467     189.7383        17     0.988     0.913  80.86   0
        56    377.0995    842.9053 300.0540334 +22.7148381     370.7725     70.48203      1.924     5.04    -4.216609     19.83467     33.27786         6     1.163     0.618  69.75   1
        57    646.9062    839.9172 300.1389348 +22.7949638     614.3909     70.48203      1.501     4.05    -4.222632     19.83467     58.70123        14     1.092     0.991  28.98   0
        58    482.4387    839.8713 300.0877767 +22.7455912      322.998     70.26737      1.419     4.06    -3.983176     19.83467     31.88337         5     1.187     0.398  74.61   0
        59    248.2777    839.8194 300.0149998 +22.6752725      445.352     70.30319      1.284     2.53    -4.108091     19.83467     75.93267         8     0.834     0.643  36.36   0
        60     52.8778    835.5041 299.9557171 +22.6153454     283.5927     70.42843      1.465     4.05    -4.226413     19.83467     37.24314         6     0.958     0.816  56.87   0
        61    494.0312    834.9136 300.0929956 +22.7476494      535.006     70.28529      1.806     4.99    -3.939552     19.83467     48.36232        11     0.943     0.927 -60.10   0
        62    895.0586    831.3023 300.2190190 +22.8669354     322.7098     70.37479      1.396     3.56    -4.141036     19.83467     52.27489         7     0.950     0.652 -83.11   0
        63    439.8208    830.3108 300.0776333 +22.7300574     209.0805     70.23153      1.236     3.69    -4.150008     19.83467     28.38102         5     1.033     0.379  86.53   0
        64     81.6853    829.4361 299.9666350 +22.6222613     309.3607     70.28529      1.323     3.40    -4.253551     19.83467     39.92244         6     0.886     0.464 -89.46   0
        65    872.6136    826.1102 300.2137150 +22.8587139     185.4056     70.24945      1.866     4.50    -4.073006     19.83467     29.66188         5     1.132     0.508  34.69   0
        66    246.4380    824.6387 300.0193674 +22.6703700     356.1784     70.37479      1.632     2.72     -4.12094     19.83467     48.31315         6     0.823     0.668  83.54   0
        67    539.1060    812.8289 300.1142030 +22.7548457     461.6102     70.23153      1.645     3.79    -3.742215     19.83467     53.15101         9     0.985     0.714 -83.45   0
        68    560.9412    810.1841 300.1218570 +22.7606402     811.5251     70.26737      1.544     3.25    -3.797307     19.83467     92.26281        17     1.119     0.973  63.46   0
        69    955.1929    808.9115 300.2450446 +22.8785429     2577.162      70.2136      1.343     2.47    -4.163248     19.83467     323.7787        24     1.072     1.006 -23.97   0
        70    642.4490    805.1559 300.1488577 +22.7836566     268.9253       70.339      1.047     3.49    -4.016125     19.83467     33.28012         5     0.777     0.454  71.11   0
        71    943.7325    800.2897 300.2442780 +22.8726319     943.3196      70.4463      1.249     2.57    -4.119699     19.83467     133.1023        14     0.957     0.841 -78.98   0
        72    306.8731    794.7097 300.0478844 +22.6799396     516.8889     70.46417      1.362     3.23    -4.134295     19.83467      67.4514         9     0.889     0.723   0.11   0
        73    770.1221    791.6474 300.1930023 +22.8180841     1432.998     70.30319      1.536     3.00    -3.903962     19.83467     154.8071        19     1.137     0.975  18.47   0
        74    974.7411    790.3204 300.2571864 +22.8790683     1006.952       70.339      1.378     2.59    -4.133968     19.83467     124.7366        14     1.001     0.794 -63.71   0
        75    155.4762    778.2656 300.0061959 +22.6297653     531.7626     70.39267      1.904     5.71    -4.308209     19.83467     44.55956        10     1.147     0.800  45.90   0
        76    852.3275    776.9711 300.2233825 +22.8385290     307.2045     70.30319      1.472     2.59    -3.732634     19.83467     42.73856         5     0.847     0.463  83.65   0
        77    888.4901    768.5692 300.2373828 +22.8469626     84322.65     70.24945      1.435     2.58    -3.703182     19.83467     8688.872       120     1.376     1.312  82.57   0
        78    741.1036    769.0858 300.1913054 +22.8029066     398.4433     70.48203      1.495     4.50    -3.972432     19.83467     32.18807         8     0.864     0.665 -46.19   0
        79    921.1775    761.5978 300.2498364 +22.8547635     96.39081     70.24945      1.011     3.50    -3.659746     19.83467     29.92935         5     0.779     0.454 -16.93   0
        80    574.7676    757.5126 300.1432938 +22.7496839     997.4217     70.26737      1.554     3.51     -3.66681     19.83467     86.91932        17     1.041     1.006 -76.56   0
        81    755.9900    754.7977 300.2005889 +22.8032724     5322.184     70.12389      1.453     2.89    -3.870032     19.83467     547.2902        32     1.214     1.125 -40.01   0
        82    257.7027    750.0939 300.0471166 +22.6523890     2935.967     70.48203      1.532     2.94    -4.182336     19.83467     300.0613        30     1.233     1.141  72.04   0
        83    339.6509    748.4388 300.0731233 +22.6765170     698.8929      70.3211      1.468     3.33    -4.101587     19.83467     81.79255        13     1.044     0.852  44.60   0
        84    215.5626    746.2167 300.0352847 +22.6386250     232.8429     70.30319      1.389     3.04    -4.235124     19.83467     36.35262         5     0.740     0.429 -65.66   0
        85    547.6232    743.7079 300.1393381 +22.7375795     507.9282     70.23153      1.514     3.53    -3.596107     19.83467     47.60605         9     0.886     0.758 -75.00   0
        86    539.5564    735.7409 300.1394197 +22.7328740     1863.114     70.30319      1.540     3.06    -3.586306     19.83467     198.9799        21     1.115     1.063 -72.36   0
        87    529.9200    729.3168 300.1385111 +22.7281400     839.8428      70.4463      1.637     3.83    -3.555218     19.83467     74.97755        16     1.154     1.041  60.78   0
        88    923.7678    727.1095 300.2618620 +22.8456408     182.1011     70.24945      1.437     4.63    -3.388679     19.83467     29.04117         5     0.937     0.649 -63.70   0
        89    192.9620    725.7983 300.0349042 +22.6259870     358.9853      70.3211      1.750     5.08    -4.266997     19.83467     35.31449         8     1.076     0.677  35.98   0
        90    207.2603    724.2727 300.0398421 +22.6298430     414.8662       70.339      1.532     4.03    -4.248744     19.83467     46.48537         7     0.985     0.590  74.87   0
        91    454.4461    719.4559 300.1182418 +22.7026632     1040.086       70.339      1.675     3.63    -3.682853     19.83467     87.60826        17     1.185     0.933  48.76   0
        92    232.9356    721.1056 300.0488489 +22.6366443     399.3092     70.41055      1.459     4.39     -4.21606     19.83467     42.83505         7     0.954     0.594  14.53   0
        93    976.6976    720.6172 300.2804706 +22.8596459      204.676     70.23153      1.372     3.49    -3.889738     19.83467     35.02118         5     0.749     0.470  12.37   0
        94    108.6512    714.4753 300.0124007 +22.5974246     11395.45      70.3211      1.524     2.67    -4.223623     19.83467     1201.193        53     1.330     1.240 -86.96   0
        95     29.6852    716.1176 299.9873497 +22.5741790      368.107      70.4463      1.149     3.22    -3.688368     19.83467     46.76081         7     0.857     0.563  57.44   0
        96    539.6127    714.2766 300.1464180 +22.7267348     485.2727      70.3211      1.714     6.60     -3.46824     19.83467     50.05522        13     1.394     0.878 -74.57   0
        97    575.0443    713.2709 300.1577694 +22.7370773     290.1931     70.26737      1.461     3.58    -3.520566     19.83467     33.13056         5     0.803     0.507 -56.57   0
        98    957.3434    700.4355 300.2810018 +22.8480499     637.0101      70.3211      1.442     4.04    -3.608482     19.83467     64.07159        14     1.188     0.890  65.45   0
        99     54.9782    698.7139 300.0008608 +22.5767894     876.7661     70.24945      1.822     5.95    -3.991568     19.83467      65.5004        15     1.480     0.766 -85.11   0
       100    823.7400    698.2655 300.2400772 +22.8073686     132.8507       70.339      1.242     3.89    -3.454565     19.83467     33.07097         5     0.997     0.435   4.94   0
       101    897.5656    693.2377 300.2647131 +22.8280618     612.6038      70.3569      1.977     2.89    -3.417131     19.83467     45.73804         6     0.702     0.649  84.56   2
       102    459.7503    687.7067 300.1302162 +22.6951503     335.2207      70.3569      1.477     5.88    -3.412043     19.83467     33.70551        10     1.167     0.835 -32.93   0
       103    654.8123    684.6141 300.1919140 +22.7527868     288.9095     70.23153      1.405     3.37    -3.574366     19.83467      33.8373         5     0.767     0.428  21.41   0
       104    503.7790    683.3784 300.1453183 +22.7071207     514.1216     70.30319      1.778     4.14    -3.302217     19.83467     43.45527         7     1.034     0.473   6.70   0
       105    937.5367    678.4877 300.2819661 +22.8358111     1811.501     70.41055      1.437     2.98    -3.446604     19.83467      175.142        21     1.071     0.997 -79.73   0
       106    469.2510    678.7609 300.1360800 +22.6954357      889.537      70.3211      1.500     3.72    -3.315354     19.83467     91.74164        17     1.132     0.987  59.86   0
       107     31.4807    672.6973 300.0020253 +22.5622780     2883.068     70.42843      1.479     2.53    -4.157818     19.83467     304.6629        30     1.214     1.104 -68.44   0
       108    332.7775    665.6413 300.0979120 +22.6507164     5138.001       70.339      1.593     3.12     -3.72151     19.83467     489.0907        35     1.300     1.183  82.81   0
       109    455.1986    662.6449 300.1369496 +22.6865970     5049.828     70.30319      1.615     3.13    -3.256623     19.83467     444.1654        36     1.346     1.209 -78.80   0
       110    866.8503    656.3825 300.2671273 +22.8082733     957.4613     70.30319      1.454     3.29     -3.48086     19.83467     110.9269        17     1.137     0.942 -47.81   0
       111    951.2938    653.6469 300.2943314 +22.8328034     6835.141      70.3211      1.458     2.66    -3.448139     19.83467     741.1892        35     1.177     1.130  86.51   0
       112    515.7282    652.1747 300.1591814 +22.7017559     6480.016      70.3211      1.623     3.25    -3.115982     19.83467     582.2591        39     1.368     1.205  79.65   0
       113    243.3641    647.7569 300.0759389 +22.6187500     713.0298      70.3569      1.450     4.00    -3.933465     19.83467      59.5172        14     1.130     0.848  68.76   0
       114    685.4263    647.7333 300.2134363 +22.7513871     350.1959     70.28529      1.573     3.85    -3.568932     19.83467     33.76944         7     0.926     0.555 -30.18   0
       115    447.3237    640.4037 300.1417317 +22.6778552     2409.412      70.2136      1.659     3.25    -3.171197     19.83467     231.6297        27     1.241     1.201 -78.49   0
       116    789.8948    640.4184 300.2483452 +22.7806169     506.9848     70.23153      1.705     4.12    -3.532131     19.83467     42.65853        10     0.986     0.783 -69.97   0
       117    425.4924    638.9702 300.1354086 +22.6708931     712.9166     70.26737      1.674     4.33    -3.280886     19.83467     61.85987        16     1.219     0.948  37.22   0
       118    180.3246    638.4055 300.0593943 +22.5971446     458.4106     70.23153      1.529     4.70    -3.925994     19.83467     48.07837         8     1.119     0.560 -74.90   0
       119    867.0164    635.7844 300.2738764 +22.8024102     840.6181     70.26737      1.461     2.97    -3.546796     19.83467     98.43662        18     1.083     0.972 -42.20   0
       120    563.9634    627.8420 300.1820994 +22.7092466     116573.4     70.37479      1.665     3.32    -3.053732     19.83467     9137.927       152     1.577     1.531 -88.38   0
       121    747.8156    632.7326 300.2377391 +22.7657929     461.3263     70.30319      1.609     6.18    -3.578557     19.83467     37.44503        10     1.142     0.941  26.29   0
       122    250.1328    628.0313 300.0844548 +22.6151269     1893.925     70.30319      1.620     3.32    -3.724574     19.83467     166.3993        23     1.192     1.089  74.58   0
       123    454.6199    608.4656 300.1543836 +22.6708840     1494.073     70.28529      1.770     4.50      -2.9573     19.83467     106.9599        25     1.529     1.116 -84.28   0
       124    851.4614    594.0513 300.2825975 +22.7857660     974.9074      70.3569      1.516     3.47    -3.554495     19.83467     87.08817        15     1.020     0.970 -20.52   0
       125    722.6833    592.0485 300.2431392 +22.7465799     1434.776     70.28529      1.600     3.78    -3.411077     19.83467     113.6176        20     1.187     1.058  52.58   0
       126    510.1845    588.0094 300.1783162 +22.6816862     375.1971     70.23153      1.434     3.01    -2.829264     19.83467     43.04865         6     0.741     0.561  53.01   0
       127    980.0807    585.8126 300.3253582 +22.8219537     759.2289     70.28529      1.448     3.00    -3.199646     19.83467     86.45806        11     0.927     0.820  85.84   0
       128    851.7505    584.5992 300.2857601 +22.7831391     1366.995     70.28529      1.859     3.93    -3.513677     19.83467     108.4605        20     1.393     0.963 -66.17   2
       129    965.9817    584.8854 300.3212647 +22.8174618      408.577     70.24945      1.502     4.73    -3.223909     19.83467     47.28086         7     1.083     0.587 -57.12   0
       130    889.8398    579.2893 300.2993539 +22.7930326     2405.904     70.30319      1.559     3.20    -3.428445     19.83467      195.625        24     1.190     1.068 -83.57   0
       131    981.8276    569.7048 300.3311386 +22.8178514     371.7943      70.2136      1.393     2.53    -3.160376     19.83467     56.96646         9     0.860     0.677 -67.87   0
       132    122.2453    570.0659 300.0635684 +22.5601192     550.1954     70.30319      1.308     3.45    -3.567963     19.83467     76.86758        12     1.118     0.747   9.05   0
       133    663.8545    550.0791 300.2384651 +22.7168934     439.3826       70.339      1.533     4.21    -2.993807     19.83467     38.57008         8     1.041     0.661 -29.44   0
       134    977.5145    541.4816 300.3389674 +22.8084532     381.2038      70.4463      1.882     6.40    -3.105095     19.83467         35.2         8     1.397     0.823 -74.27   0
       135    724.3792    542.2009 300.2598691 +22.7327808     495.1289     70.23153      1.644     4.70    -2.979768     19.83467     38.13377         8     0.986     0.637 -21.09   0
       136    881.2421    538.4413 300.3099515 +22.7787266     504.0794     70.39267      1.430     2.62    -3.313203     19.83467     64.33772         9     0.816     0.733 -27.45   0
       137    865.2632    534.7663 300.3061671 +22.7728819     231.2738     70.30319      1.269     3.95     -3.37187     19.83467     38.18733         6     0.799     0.560 -48.92   0
       138    610.0189    532.7053 300.2273544 +22.6957627     1823.685     70.23153      1.719     3.59    -2.867872     19.83467     141.8738        26     1.273     1.179  86.85   0
       139    970.1843    531.3121 300.3399875 +22.8033358     307.5016     70.24945      1.388     2.19    -3.105095     19.83467     45.83401         5     0.728     0.424  18.46   0
       140   1021.1846    511.4324 300.3623473 +22.8129082     634.5543     66.30359      1.345     2.76    -3.105095     19.83467      88.7515        11     0.927     0.786  29.78  16
       141    979.3412    510.1588 300.3497162 +22.8000043     518.0989     70.30319      1.556     3.94    -3.105095     19.83467     51.90323        10     1.121     0.703   1.22   0
       142    720.6845    506.6943 300.2702572 +22.7214807     665.4312     70.48203      1.766     5.28    -2.970519     19.83467     47.39626        15     1.264     1.054  19.94   0
       143    224.3229    504.6118 300.1165461 +22.5719931     280.2692     70.30319      1.631     4.15     -3.34088     19.83467     33.38179         5     1.027     0.479  -5.78   0
       144    286.8588    500.7847 300.1372223 +22.5896620      2155.75     70.28529      1.739     3.50    -3.087713     19.83467     162.1131        28     1.310     1.177  45.58   0
       145   1019.8787    498.7430 300.3660636 +22.8088719     2389.169     69.89011      1.481     3.03    -3.105095     19.83467     245.7301        22     1.097     1.033  57.28  16
       146    234.1519    495.5739 300.1225366 +22.5723511     4261.495      70.3211      1.643     3.34    -3.272989     19.83467     377.0153        34     1.386     1.160  89.11   0
       147    374.8264    489.8423 300.1681219 +22.6129174     2722.768      70.3211      1.779     3.63    -2.780559     19.83467     218.0188        34     1.385     1.302  28.43   0
       148    999.6388    489.8878 300.3626309 +22.8002637     995.1246     70.28529      1.409     2.91    -3.105095     19.83467     105.9585        15     1.038     0.853  80.96   0
       149    618.9570    486.3192 300.2452091 +22.6851304     10184.32     70.28529      1.783     3.79    -2.801168     19.83467     713.8087        57     1.470     1.432  67.32   0
       150    635.7895    486.4762 300.2503972 +22.6902229      536.918     70.30319      2.433     7.22    -2.852532     19.83467     28.01965        10     1.505     0.971 -17.99   0
       151    951.9808    468.4028 300.3547557 +22.7798121     520.3372     70.23153      1.634     5.44    -3.084936     19.83467     44.99906        12     1.178     0.765  84.17   0
       152    173.8018    466.8219 300.1131283 +22.5459948     1146.402     70.24945      1.622     3.61    -3.233045     19.83467     110.5609        19     1.152     1.088   5.08   0
       153    559.6635    455.8376 300.2366601 +22.6586016     3779.498     70.30319      1.786     3.81    -2.773813     19.83467     249.3486        36     1.363     1.343  64.75   0
       154    973.1057    455.9472 300.3653873 +22.7825641      579.951     70.37479      1.456     4.33    -3.095163     19.83467     56.16621        11     0.946     0.848  76.50   0
       155    274.8274    455.5482 300.1481796 +22.5730777     540.4301      70.3211      1.751     4.43    -2.950262     19.83467     43.38556        10     1.179     0.632 -46.49   0
       156    763.7228    444.6016 300.3038338 +22.7165561     711.6581      70.2136      1.775     4.24    -2.932865     19.83467     57.60729        14     1.264     0.818 -63.89   0
       157    466.3305    442.1143 300.2120826 +22.6266725     3333.491     70.41055      1.713     3.72    -2.527025     19.83467      254.771        34     1.350     1.243  87.41   0
       158    858.0671    436.2571 300.3359330 +22.7424365     714.5597       70.339      1.555     4.64    -2.885615     19.83467     68.90656        14     1.304     0.772 -60.75   0
       159    955.1519    435.5504 300.3664173 +22.7713255     355.6569       70.339      1.663     3.42    -3.042729     19.83467     33.61848         5     0.763     0.442 -21.49   0
       160    829.7083    424.3567 300.3309637 +22.7305199     376.6278     70.30319      1.980     3.00    -2.886884     19.83467     31.62263         4     0.800     0.329  32.81   2
       161    354.0460    421.3587 300.1839087 +22.5870371     1381.312      70.3569      1.709     3.57    -2.412047     19.83467      120.264        24     1.260     1.183  19.89   0
       162     72.7632    419.0052 300.0972808 +22.5019595      668.088       70.339      1.686     3.79    -3.145945     19.83467     68.12621        13     1.158     0.810 -83.92   0
       163    323.1784    410.8417 300.1777290 +22.5747601     16674.13       70.339      1.777     3.50    -2.584225     19.83467     1431.269        59     1.484     1.402  82.19   0
       164    857.7391    408.1004 300.3449771 +22.7342514      778.815     70.39267      1.595     3.69    -2.717535     19.83467     71.05389        13     1.056     0.835 -73.67   0
       165     19.7448    398.8815 300.0873561 +22.4802762     2737.428       70.339      1.564     3.06    -2.928832     19.83467     287.1509        28     1.291     1.053  87.40   0
       166    733.4448    390.5561 300.3119600 +22.6919618     1005.749       70.339      1.672     3.84    -2.652315     19.83467     82.15771        19     1.179     1.047  57.36   0
       167    395.4369    375.2150 300.2117641 +22.5862129      1092.69     70.30319      1.897     5.41    -2.443444     19.83467     60.46938        21     1.458     1.006  83.20   0
       168    834.7905    368.1609 300.3507994 +22.7159031     241.1873     70.30319      1.375     4.49    -2.630272     19.83467     32.41627         5     0.790     0.725 -83.82   0
       169    471.1082    354.5428 300.2420104 +22.6029742     630.4996      70.3569      1.742     6.51    -2.456774     19.83467     44.94287        13     1.130     1.054  44.42   0
       170    716.0340    346.3240 300.3209031 +22.6740418     1237.031     70.30319      1.811     3.88    -2.486761     19.83467      100.939        22     1.223     1.168   0.43   0
       171    977.0647    340.4261 300.4041438 +22.7505615     1781.375     70.28529      1.533     3.07    -2.918312     19.83467     178.0815        21     1.195     0.971  74.90   0
       172    129.7553    325.0801 300.1454791 +22.4921284     471.8539     70.28529      1.665     4.67    -2.869994     19.83467      38.8141         8     1.252     0.495 -70.62   0
       173     99.5190    324.8356 300.1361682 +22.4829856    -687.5393     70.24945    -13.353     4.11     -2.82817     19.83467     74.79624        16     1.172     0.972 -32.76   0
       174    993.1223    320.4994 300.4156202 +22.7496456     324.3268     70.42843      1.576     4.55    -2.925498     19.83467     34.12056         7     0.945     0.623 -77.40   0
       175    183.4128    316.9630 300.1647816 +22.5058993     357.3631     70.28529      1.437     4.13    -2.846204     19.83467     42.75639         5     1.064     0.457  25.14   0
       176    787.4019    308.0938 300.3555425 +22.6844498     305.0358      70.2136      1.856     4.68    -2.507098     19.83467      33.0752         5     0.994     0.625  12.94   0
       177    885.8501    296.5375 300.3899654 +22.7106265     1253.663      70.3569      1.631     3.89    -2.436836     19.83467     100.9705        21     1.246     1.080 -41.87   0
       178    304.4820    294.1680 300.2098029 +22.5356770     1247.481     70.30319      1.849     4.32    -2.642774     19.83467     86.34666        20     1.212     1.134 -67.26   0
       179    382.1610    289.3616 300.2355118 +22.5575941     620.5844     70.37479      1.925     6.02     -2.50336     19.83467     46.36524        13     1.197     1.108 -49.88   0
       180    783.8980    288.7629 300.3607271 +22.6778472     285.7755     70.30319      1.599     4.43    -2.433819     19.83467     31.49753         5     0.776     0.720 -30.12   0
       181    199.3728    281.6112 300.1812162 +22.5005460     461.5791     70.30319      1.925     4.56    -2.703029     19.83467     57.99222        10     1.374     0.794 -80.30   0
       182    736.8835    278.3214 300.3494746 +22.6607601     937.5624     70.41055      1.856     4.01    -2.495396     19.83467     65.29739        21     1.227     1.124 -75.21   0
       183   1008.1657    270.6544 300.4364933 +22.7398269     359.0415      70.3211      1.416     5.09    -2.716901     19.83467     43.74115         8     0.954     0.769 -86.76   0
       184    740.7363    269.8818 300.3534142 +22.6594906     487.4805     70.41055      1.804     4.89    -2.489473     19.83467     39.28769         7     1.282     0.528 -28.89   0
       185    661.1271    268.7422 300.3289968 +22.6353062     628.3354       70.339      1.834     6.38    -2.477219     19.83467     49.33816        15     1.298     0.882  26.83   0
       186    856.7672    260.2826 300.3926732 +22.6914976     782.8807     70.26737      1.770     5.45    -2.476145     19.83467     53.46717        17     1.235     1.034  38.35   0
       187    587.8443    261.4527 300.3085532 +22.6112485     450.7803      70.3211      1.766     2.01    -2.508003     19.83467     44.65327         5     0.681     0.455 -23.58   0
       188    985.6915    249.5142 300.4363493 +22.7270204     673.2205     70.46417      1.676     4.14    -2.539173     19.83467     53.86499        12     1.022     0.870 -36.03   0
       189    219.5457    243.4116 300.1998828 +22.4956376     482.2176     70.30319      1.930     7.26    -2.339372     19.83467     39.33468        11     1.575     0.936  28.76   0
       190     81.7978    238.0921 300.1588223 +22.4527890     1189.924      70.2136      1.696     4.04    -2.157347     19.83467     96.54156        21     1.307     1.018  89.02   0
       191    905.0200    234.6951 300.4160147 +22.6985997     482.1153      70.2136      1.634     4.38     -2.29081     19.83467     51.04276         7     0.889     0.613 -19.39   0
       192    239.0072    231.3710 300.2098377 +22.4980201     3145.443     70.30319      1.763     3.56    -2.220005     19.83467     240.5322        34     1.485     1.204 -78.32   0
       193     23.3351    225.5810 300.1447308 +22.4316595     666.2387     70.26737      1.543     3.62    -2.085944     19.83467     77.74992        15     1.086     1.047 -17.92   0
       194    222.9642    222.5022 300.2077310 +22.4906635     270.0647     70.30319      1.662     6.43    -2.159881     19.83467     32.83284         7     1.268     0.915  -7.19   0
       195    882.8375    212.2570 300.4163847 +22.6855077     1934.945     70.30319      1.715     3.74    -2.365105     19.83467      157.526        26     1.248     1.181   0.85   0
       196    986.4098    211.0352 300.4490627 +22.7161762     1671.344     70.30319      1.679     3.31    -2.329337     19.83467     134.6128        18     1.168     0.971 -82.31   0
       197    483.9111    195.1601 300.2977310 +22.5610598     904.7404     70.28529      1.692     4.32    -1.978401     19.83467     71.13944        19     1.327     1.010  83.17   0
       198    257.7664    175.1439 300.2339132 +22.4875109     3250.904      70.3211      1.771     3.78    -2.048587     19.83467     238.6701        35     1.455     1.257 -77.75   0
       199    109.3767    174.0552 300.1881668 +22.4426926     300.5519       70.339      1.483     5.12    -2.079489     19.83467     34.74479         8     1.216     0.609  75.65   0
       200    503.7511    160.3598 300.3151951 +22.5570144      3633.28       70.339      1.900     3.74     -1.99989     19.83467     267.8826        39     1.460     1.423 -53.35   0
       201    756.2443    150.5770 300.3969632 +22.6298636     505.2003      70.3569      1.931     5.58    -2.240619     19.83467     34.38538         9     1.136     0.773  11.39   0
       202    632.2000    140.2838 300.3616805 +22.5897424     3472.653     70.17773      1.811     3.89    -2.290473     19.83467     243.4447        35     1.375     1.314 -82.27   0
       203    407.3395    139.1192 300.2920990 +22.5220162     802.0708      70.3569      1.821     4.35    -2.000803     19.83467     63.98656        18     1.159     1.110 -31.34   0
       204    673.2119    137.9082 300.3752184 +22.6013482     448.9256     70.24945      1.793     5.17    -2.258928     19.83467     45.23742         7     1.037     0.727  14.68   0
       205    959.3032    131.4082 300.4664515 +22.6851711     359.8858     70.19567      1.636     5.16    -1.997764     19.83467     36.42478         8     1.270     0.815 -67.00   0
       206    156.3695    132.0379 300.2163944 +22.4447319     432.3354      70.3211      1.494     5.01    -2.018614     19.83467     42.26859         8     1.203     0.590  69.15   0
       207    676.4731    125.1938 300.3803586 +22.5986727     1632.073     70.24945      1.906     4.06    -2.180405     19.83467     110.3274        27     1.347     1.260  81.46   0
       208    690.9919    123.6454 300.3853813 +22.6025777     505.3918      70.3211      1.960     6.88    -2.174365     19.83467     29.19971        12     1.260     1.052  51.76   0
       209    762.6523    116.8270 300.4099087 +22.6220858     891.4196      70.3211      1.811     4.16    -2.083006     19.83467     80.30013        18     1.241     1.062   3.33   0
       210    700.7374    110.4163 300.3927074 +22.6016965     369.7437     70.28529      1.718     3.51    -2.089802     19.83467     36.63545         5     1.051     0.337  21.16   0
       211    506.5390    109.6222 300.3325231 +22.5432796     671.0436     70.28529      1.743     4.67    -2.065247     19.83467     49.23162        13     1.181     0.908  -5.88   0
       212    410.9620    107.7875 300.3033897 +22.5141062     421.7424     70.30319      1.431     2.71     -2.05141     19.83467     50.65919         8     0.817     0.635 -42.17   0
       213    181.7085     97.7186 300.2353985 +22.4424823     2202.555     70.42843      1.812     3.69    -1.942414     19.83467     162.5368        30     1.323     1.290 -14.51   0
       214    297.7620     89.9101 300.2739945 +22.4750388     521.9022     70.28529      1.671     5.20    -1.774116     19.83467     52.90765        13     1.123     0.933 -66.32   0
       215    743.0104     89.9008 300.4125261 +22.6084650     570.2719      70.2136      1.809     4.40     -2.02243     19.83467     44.97105        11     1.048     0.774 -13.30   0
       216    781.1800     84.6921 300.4261037 +22.6184010     350.5628     70.23153      1.539     4.41    -2.041509     19.83467     32.20416         7     1.070     0.518  68.64   0
       217    800.7585     80.9740 300.4334083 +22.6231964     1345.943      70.3569      1.788     4.30    -2.059385     19.83467     96.12586        24     1.325     1.171 -88.23   0
       218    184.2570     76.6356 300.2430284 +22.4371958     419.6512      70.3211      1.440     3.95    -1.767691     19.83467     55.59531         9     1.113     0.648 -85.60   0
       219    976.0071     74.2878 300.4901887 +22.6737513     430.6262      70.2136      1.523     5.14     -2.01444     19.83467     43.58912         9     0.972     0.856  37.88   0
       220    749.4822     73.8390 300.4197516 +22.6057881     563.5071     70.26737      1.804     5.92    -2.051282     19.83467     42.98883        11     1.035     0.954  41.42   0
       221    334.2338     63.6299 300.2938555 +22.4784278     272.1796      70.3211      1.542     3.43    -1.831667     19.83467     33.86275         5     0.737     0.462 -14.29   0
       222    601.5235     58.4248 300.3786860 +22.5570360      430.415      70.3211      1.640     6.38    -2.106382     19.83467     33.59248        13     1.403     0.938 -32.56   0
       223    765.1213     53.5238 300.4312114 +22.6046341     412.5191     70.41055      1.580     4.07    -2.102835     19.83467     33.86667         6     1.003     0.473 -54.42   0
       224    573.6520     51.8719 300.3721371 +22.5468029     1089.364     70.30319      1.785     5.91    -2.120264     19.83467     82.17304        21     1.598     1.059  85.75   0
       225     11.0281     47.7083 300.1986123 +22.3769426     448.5327     70.28529      1.770     3.55    -2.397553     19.83467     49.27881        10     0.997     0.892 -76.36   0
       226    530.9648     45.4170 300.3609474 +22.5321584     852.8295     70.30319      1.828     4.97    -2.142053     19.83467     70.47372        20     1.333     1.257 -22.42   0
       227    636.1193     41.8378 300.3948337 +22.5626352     716.0078     70.26737      1.823     6.52     -2.09838     19.83467     52.49204        19     1.456     1.121 -79.68   0
       228    456.4914     36.0858 300.3408054 +22.5071617     1333.284     70.46417      1.973     4.44    -2.152607     19.83467       96.144        24     1.336     1.228  40.88   0
       229    103.9119     34.1543 300.2318483 +22.4009106     851.1328     70.30319      1.561     3.17    -2.147117     19.83467     101.8819        16     1.157     0.861  79.54   0
