#   1 NUMBER                 Running object number                                     
#   2 X_IMAGE                Object position along x                                    [pixel]
#   3 Y_IMAGE                Object position along y                                    [pixel]
#   4 ALPHA_J2000            Right ascension of barycenter (J2000)                      [deg]
#   5 DELTA_J2000            Declination of barycenter (J2000)                          [deg]
#   6 FLUX_APER              Flux vector within fixed circular aperture(s)              [count]
#   7 FLUXERR_APER           RMS error vector for aperture flux(es)                     [count]
#   8 FLUX_RADIUS            Fraction-of-light radii                                    [pixel]
#   9 FWHM_IMAGE             FWHM assuming a gaussian core                              [pixel]
#  10 BACKGROUND             Background at centroid position                            [count]
#  11 THRESHOLD              Detection threshold above background                       [count]
#  12 FLUX_MAX               Peak flux above background                                 [count]
#  13 ISOAREA_IMAGE          Isophotal area above Analysis threshold                    [pixel**2]
#  14 A_IMAGE                Profile RMS along major axis                               [pixel]
#  15 B_IMAGE                Profile RMS along minor axis                               [pixel]
#  16 THETA_IMAGE            Position angle (CCW/x)                                     [deg]
#  17 FLAGS                  Extraction flags                                          
         1    596.0651     11.2963 300.3788765 +22.5571073      470.468      70.2191      1.337     3.07    -2.792228     19.78073     59.15559         9     0.876     0.688 -64.81   0
         2    205.2165      8.9424 300.2580633 +22.4392957     312.1226     70.09417      1.435     3.27    -2.750499     19.78073     41.26111         6     0.751     0.565 -46.44   0
         3    758.8879      6.4615 300.4311522 +22.6044879     556.1711     70.20126      1.631     2.86    -2.785414     19.78073      49.1464         7     0.826     0.599 -81.78   0
         4    567.4392      4.4326 300.3721906 +22.5465591     1246.221     68.13766      1.578     2.92    -2.452846     19.78073     118.7717        19     1.101     0.968 -81.57  16
         5    290.6672      2.1999 300.2868118 +22.4629763     505.6379     59.16788      1.465     4.78    -2.510773     19.78073     47.07494         8     0.990     0.653 -75.55  24
         6      5.2195      1.3273 300.1984015 +22.3771375      317.478     54.19777      1.084     3.40    -2.948486     19.78073     44.99415         5     0.730     0.457  10.70  24
         7     88.6097   1003.5928 299.8986936 +22.6895144     3110.815     69.96902     20.111    54.09     14.32941     19.78073     63.37573       734    11.289     7.192  33.76  27
         8    503.5635   1022.6516 300.0214777 +22.8196221     143.6143     59.86214      1.152     3.47    -5.246091     19.78073      37.2949         5     0.759     0.459  71.83  24
         9    206.5733   1021.8295 299.9294016 +22.7301829     1572.228     63.57468     12.148    19.55     9.320046     19.78073     46.68629        69     4.560     2.328  -5.66  27
        10    240.6981   1016.3555 299.9417881 +22.7388671     4476.283     70.11203      9.385    36.26     2.331155     19.78073     140.3163       512     8.118     5.517  52.71  26
        11    182.9212   1022.5657 299.9218129 +22.7232874     783.7629     60.34129      2.962     4.09     15.16439     19.78073     37.25069         5     1.128     0.423 -63.52  24
        12    171.3452   1020.9017 299.9187581 +22.7193326     1544.349     67.11938      7.633    13.67     17.62141     19.78073     48.71488        48     2.987     1.741  41.97  26
        13    169.5314   1010.4516 299.9215969 +22.7157944      838.471     70.09417      5.525     5.54     15.64487     19.78073     26.69157         5     1.267     0.683  68.46   3
        14     66.8091    978.3932 299.9001266 +22.6757463     1660.694     69.96902     17.683    28.64     3.659165     19.78073     55.69571        92     7.539     3.021 -84.01  19
        15     81.5083    986.6516 299.9020032 +22.6825286     2859.866     70.16559     19.458    27.61     8.633273     19.78073     62.32607       239     5.523     3.831  22.12   3
        16    223.8199   1021.8237 299.9347627 +22.7353629       2235.8     63.61406      8.295    18.01     5.305906     19.78073     63.03654        86     4.065     2.216  15.44  27
        17    536.8481    995.0114 300.0408338 +22.8216926     285.4069     70.12989      1.417     4.41    -5.102761     19.78073     43.30402         7     0.973     0.568  79.18   0
        18    114.6669    984.5479 299.9129864 +22.6918898     1388.591     70.12989     12.390    13.72     11.85528     19.78073     43.83389        33     3.118     1.679 -56.44   3
        19    565.6209    991.1713 300.0510382 +22.8292299     799.9088     70.11203      1.024     1.82     -5.15374     19.78073      156.966         9     0.736     0.642  16.87   0
        20    459.3345    987.9251 300.0190240 +22.7963875     586.7032     70.16559      1.166     2.83    -5.229898     19.78073     88.43763         9     0.919     0.614  66.37   0
        21    389.9840    985.8206 299.9981390 +22.7749587     3756.756     70.09417      1.149     1.80    -4.763236     19.78073     766.7001        23     0.958     0.848 -73.48   0
        22    657.0286   1000.4611 300.0764676 +22.8593330     3995.636     70.11203      1.154     1.98    -5.222292     19.78073     700.6581        25     1.000     0.920  56.24   0
        23    136.5532   1002.5582 299.9139217 +22.7036246     653.6526     70.16559      3.631     3.96     16.23712     19.78073      33.7652         5     0.991     0.454  76.68   1
        24    422.5166    972.7229 300.0125206 +22.7809745     411.7889      70.2191      0.981     1.90    -5.093206     19.78073     64.71041         5     0.649     0.474  68.90   0
        25    936.2116    964.1964 300.1752510 +22.9327039     1300.322     69.95112      1.021     1.61    -5.042158     19.78073     302.0614        11     0.737     0.702 -31.14   0
        26    434.4361    960.7328 300.0201310 +22.7811170     211.6985     70.11203      1.188     3.48    -5.129459     19.78073     32.09015         5     0.731     0.478 -76.08   0
        27    725.0193    952.9067 300.1131212 +22.8661011     441.1348     70.04056      1.350     3.86    -5.191155     19.78073     75.82228         7     1.068     0.509  56.75   0
        28     82.8884    963.3367 299.9100210 +22.6762658     1709.287      70.2191     21.943    48.23     3.806912     19.78073     105.1314       487     8.948     7.215  63.15   3
        29    759.9979    947.3358 300.1258294 +22.8749995     701.5522     70.11203      1.115     2.11    -5.140375     19.78073     120.2796         9     0.779     0.694 -32.06   0
        30    782.0804    941.0640 300.1347498 +22.8798264     6706.965      70.2191      1.120     1.72    -5.100756     19.78073     1496.996        28     0.958     0.886 -49.95   0
        31    827.8171    940.8664 300.1490636 +22.8934923     207.2995     70.09417      0.935     2.47     -5.03161     19.78073      66.4771         5     0.628     0.544 -14.90   0
        32    972.9844    940.5006 300.1944291 +22.9369340     299.1637     70.02268      1.003     2.14    -5.032306     19.78073     60.30228         5     0.675     0.568 -86.62   0
        33     93.5514    933.0872 299.9231780 +22.6708055     362.7835     70.11203      1.038     2.76    -2.213686     19.78073     55.46274         5     0.735     0.436 -66.20   0
        34    487.1015    929.2026 300.0467773 +22.7878912     328.1208      70.0048      1.049     2.04    -5.242507     19.78073     58.31975         6     0.700     0.546  41.67   0
        35    537.6436    948.5588 300.0562034 +22.8086139     257.8447     70.18343      1.044     3.13    -5.094424     19.78073     54.56108         6     0.696     0.677  52.69   0
        36    790.6984    922.9826 300.1433201 +22.8772251     811.0021     70.04056      1.012     1.80    -5.061898     19.78073     188.2014         8     0.774     0.598 -76.20   0
        37    973.6030    921.9787 300.2006511 +22.9318040     307.7828     70.05843      0.997     2.03    -5.007803     19.78073      63.7712         7     0.695     0.619  84.60   0
        38    642.7205    920.1330 300.0981621 +22.8320029     342.9781      70.2191      1.507     3.48    -5.207907     19.78073     49.03508         6     0.833     0.619   6.92   0
        39    507.3964    920.6326 300.0558810 +22.7915269     128.3412     70.11203      1.443     3.80    -5.125599     19.78073     31.88364         5     1.011     0.410 -15.97   0
        40    828.8508    916.5877 300.1572884 +22.8868369     380.0946     70.14774      1.013     1.65    -4.973754     19.78073      87.5237         6     0.651     0.537 -58.85   0
        41    877.0695    907.5650 300.1752510 +22.8987130     397.1181     70.11203      1.022     1.95    -4.914736     19.78073      82.4082         8     0.763     0.611  89.82   0
        42    728.3903    906.8007 300.1291783 +22.8538877     355.9921     69.93322      0.967     2.13    -5.091333     19.78073     81.15968         8     0.788     0.618  85.02   0
        43    441.1765    903.4146 300.0408834 +22.7667102     2540.648     70.11203      1.082     1.89      -4.9365     19.78073     457.2561        17     0.895     0.787 -83.72   0
        44    739.7701    903.9697 300.1336440 +22.8564902     447.7181     70.09417      1.102     1.87    -5.051949     19.78073     86.02055         7     0.682     0.623  65.81   0
        45    484.3931    891.7536 300.0581225 +22.7763415     128.3819     70.12989      1.020     3.37    -4.900851     19.78073     32.69013         5     0.767     0.429 -68.42   0
        46    102.5615    892.1658 299.9392932 +22.6617903     266.1825     70.14774      1.216     3.39    -3.876365     19.78073     31.85535         5     0.749     0.444 -68.36   0
        47     83.2943    891.1719 299.9336326 +22.6557171     299.0131     70.02268      1.108     4.20    -4.106406     19.78073     40.95344         5     1.073     0.470  33.51   0
        48    166.4155    889.0079 299.9601563 +22.6800678     470.8369     70.04056      1.044     2.58    -2.912215     19.78073     98.64072         7     0.885     0.485 -83.05   0
        49    143.4764    886.3701 299.9538882 +22.6724213     906.6635     70.09417      1.173     2.32    -3.310938     19.78073     148.5736        13     0.877     0.799  89.75   0
        50   1015.1774    874.8812 300.2289433 +22.9307537     1268.482      70.0763      1.077     1.71    -4.712426     19.78073     284.2028        12     0.826     0.732  72.43   0
        51    969.4025    873.3367 300.2151726 +22.9165834     1270.209     70.11203      1.050     1.80     -4.83044     19.78073     233.8449        14     0.848     0.733  54.85   0
        52    621.1066    861.4712 300.1105238 +22.8086920     2741.293     70.23693      1.106     1.88    -4.989279     19.78073     503.9557        19     0.894     0.851 -11.75   0
        53    423.1033    858.5302 300.0498675 +22.7484165     281.0973     70.23693      1.060     2.24    -4.627962     19.78073      55.0863         6     0.739     0.498  -2.59   0
        54    171.3331    855.4435 299.9726052 +22.6719278      859.676     70.09417      1.161     2.52    -4.496067     19.78073     125.8132        13     0.945     0.757   9.26   0
        55    641.8243    853.7871 300.1194739 +22.8127051     551.7543     70.11203      1.271     2.97    -4.984684     19.78073     68.19043        10     0.969     0.661 -16.73   0
        56   1013.9249    841.1599 300.2395261 +22.9206979     825.6434      70.0763      1.134     1.56    -4.691176     19.78073     185.4135        11     0.808     0.682  52.84   0
        57    797.1099    841.0857 300.1719694 +22.8556514     2331.278     70.27258      1.091     1.70    -4.433064     19.78073     534.5801        16     0.824     0.809  75.04   0
        58    514.1179    833.4993 300.0863262 +22.7685602     446.4217     70.27258      1.169     1.99     -4.61009     19.78073     69.86543         6     0.712     0.495   7.92   0
        59    160.3862    831.9177 299.9768580 +22.6618986     682.7409     70.09417      1.109     2.11    -4.589077     19.78073     115.7791         7     0.711     0.594  78.76   0
        60    575.6935    827.1920 300.1075410 +22.7852317     331.8396     70.02268      0.936     2.56    -4.655593     19.78073     78.49463         5     0.877     0.406 -73.68   0
        61    310.2043    823.8903 300.0260303 +22.7045896      31068.6     70.02268      1.213     1.99    -4.574776     19.78073     5428.359        63     1.148     1.055  76.18   0
        62    568.0074    822.7520 300.1065933 +22.7816516      975.978     70.12989      1.214     2.02    -4.622268     19.78073     165.0349        12     0.846     0.762  29.00   0
        63    238.5183    822.1144 300.0043254 +22.6825546     330.7324     70.25475      1.148     4.07    -4.663219     19.78073     42.65488         7     0.960     0.494  84.88   0
        64    980.9421    821.6893 300.2355765 +22.9052186     512.9927     70.18343      1.001     1.84    -4.735627     19.78073     114.4368         8     0.721     0.621  48.79   0
        65    596.8700    818.7859 300.1168673 +22.7891756     561.5262     70.12989      1.231     2.41    -4.615066     19.78073     103.0343         9     0.914     0.616  29.83   0
        66    608.1704    817.2521 300.1208839 +22.7921267     388.3406     70.12989      1.092     2.35    -4.606348     19.78073     80.71594         8     0.819     0.627  23.67   0
        67    713.7307    813.4727 300.1549814 +22.8227153     232.3922     70.18343      1.108     3.94    -4.598975     19.78073     43.36788         6     0.903     0.573  63.45   0
        68    750.7823    803.7454 300.1696862 +22.8310397     385.3461     70.09417      1.147     1.81    -4.401407     19.78073     83.58423         6     0.689     0.512  57.80   0
        69    359.8784    801.1132 300.0488845 +22.7129742      18297.9     70.25475      1.236     1.95    -4.563779     19.78073     3256.331        50     1.107     1.043  78.82   0
        70    374.1572    801.6622 300.0531461 +22.7174183     1164.996     70.11203      1.209     2.14    -4.564357     19.78073     184.5985        13     0.855     0.826 -80.06   0
        71    882.8734    796.8503 300.2130861 +22.8686803     1630.178     70.12989      1.097     1.84    -4.166472     19.78073     349.1678        14     0.893     0.754  88.61   0
        72    370.7052    795.7065 300.0540100 +22.7146744      458.353     70.27258      1.285     2.89    -4.528958     19.78073     57.75653         5     0.753     0.427  74.98   0
        73    640.8594    793.0255 300.1389419 +22.7949858     542.2849     70.11203      1.178     2.20    -4.483229     19.78073     99.23302         8     0.755     0.655  51.06   0
        74    242.3277    792.8910 300.0150156 +22.6753226     425.4384     70.27258      0.970     1.97    -4.671208     19.78073     85.02408         7     0.696     0.581  78.65   0
        75    487.8630    787.8303 300.0930140 +22.7475832     512.0076     70.12989      1.131     1.78    -4.368201     19.78073     102.3718         8     0.825     0.616 -22.66   0
        76    729.6583    785.0411 300.1691912 +22.8193359     1269.668     70.11203      0.611     0.95    -4.398427     19.78073     660.6505         6     0.475     0.375   2.84   0
        77    888.8279    784.5466 300.2189445 +22.8669345     194.8109     70.12989      0.991     1.57    -4.175935     19.78073     56.67564         5     0.628     0.461  26.13   0
        78    345.8044    783.5690 300.0502151 +22.7037191     266.1714     70.09417      1.145     2.59    -4.447001     19.78073     39.35526         5     0.707     0.464  19.00   0
        79     75.5470    782.0066 299.9667403 +22.6221145      342.968     70.09417      1.362     3.67    -4.823454     19.78073     46.25056         6     0.933     0.497  88.36   0
        80    239.9470    776.9405 300.0194638 +22.6700358     347.6222     70.16559      1.226     3.37    -4.628759     19.78073     70.49403         7     0.997     0.521  59.02   0
        81    532.9492    765.9918 300.1141466 +22.7548508     453.5067     70.11203      1.155     2.11     -4.24875     19.78073     71.29514         8     0.788     0.624  45.70   0
        82    554.8259    763.2057 300.1218610 +22.7606165     749.2173     70.09417      1.250     2.21    -4.247871     19.78073     131.7267        13     0.972     0.748  83.61   0
        83    949.1995    762.0092 300.2450948 +22.8785679     2693.149     69.93322      1.083     1.73    -4.460754     19.78073     575.2828        21     0.901     0.846  50.75   0
        84    474.3655    763.0580 300.0968723 +22.7364279     267.7865     70.12989      1.423     4.44    -4.163749     19.78073     31.87785         6     0.821     0.683 -64.38   0
        85    636.1904    757.5728 300.1490202 +22.7834140     275.4056     70.11203      1.556     4.76    -4.341756     19.78073     26.90741         6     0.972     0.659 -80.81   0
        86    937.6689    753.4209 300.2442936 +22.8726450     1044.439     70.11203      1.083     1.98    -4.328743     19.78073     182.1486        12     0.844     0.690  61.96   0
        87    166.6595    747.9662 300.0061135 +22.6397240     280.0668     70.14774      1.148     4.71    -4.645426     19.78073     31.28953         5     1.332     0.472 -87.82   0
        88    301.0723    747.6236 300.0479986 +22.6799844     403.9922     70.14774      1.208     2.87    -4.197484     19.78073     79.82568         9     0.856     0.756  28.55   0
        89    764.0276    744.8274 300.1929771 +22.8181056     1336.195      70.0763      1.189     2.12    -3.997422     19.78073     244.7323        13     0.866     0.790  67.25   0
        90    968.9367    743.4742 300.2572772 +22.8791642     1032.584     70.14774      1.078     1.87    -4.504224     19.78073     189.7461        12     0.860     0.748 -83.93   0
        91    149.5893    731.3548 300.0062121 +22.6298369     304.5031     70.12989      1.069     2.79    -4.621536     19.78073     51.71051         5     0.698     0.470 -73.66   0
        92    846.3067    730.4985 300.2232728 +22.8386692      286.136     70.29039      1.133     2.43    -3.830155     19.78073     52.13725         5     0.694     0.442  25.92   0
        93    882.4896    721.7182 300.2374047 +22.8469987     85950.55      70.2191      1.117     1.94    -3.868487     19.78073     13425.52       104     1.208     1.068  80.48   0
        94    735.0544    722.0089 300.1913734 +22.8028669     408.4078     70.11203      1.174     3.40    -4.046145     19.78073     75.30192         7     0.976     0.535 -30.93   0
        95    915.5661    714.3034 300.2501260 +22.8547876     271.3559     70.11203      1.181     3.41    -3.985266     19.78073     33.88905         5     0.726     0.464 -71.93   0
        96    568.7138    710.5579 300.1433055 +22.7496809     939.8134      70.0763      1.211     2.08    -4.020061     19.78073     159.3804        14     0.952     0.809  56.91   0
        97    750.0432    707.9150 300.2006255 +22.8033177     5427.638      70.0763      1.215     1.99    -3.983318     19.78073     956.9582        25     0.997     0.916  78.27   0
        98    251.6084    703.3038 300.0470351 +22.6524282     2835.414      70.0048      1.186     2.13    -4.285415     19.78073      446.737        21     1.024     0.861  79.04   0
        99    333.5500    701.2606 300.0731726 +22.6764409     645.1446     70.16559      1.188     2.52    -4.027616     19.78073     109.0025        12     0.935     0.856 -36.06   0
       100    209.1759    698.7177 300.0353389 +22.6383739     324.8421      70.0763      1.282     4.07    -4.414844     19.78073     43.42983         7     0.865     0.594  51.77   0
       101    541.9243    696.6161 300.1395014 +22.7376434     375.8792     70.11203      1.186     2.74    -3.933475     19.78073     69.75293         9     0.974     0.608 -69.37   0
       102    533.3994    688.7949 300.1393915 +22.7328418     1814.218     69.93322      1.242     2.41    -3.885664     19.78073     252.7701        18     1.007     0.889  25.52   0
       103    523.7847    682.6830 300.1383868 +22.7282036     830.1182      70.0763      1.234     2.20    -3.846575     19.78073     127.1665        11     0.840     0.789 -33.31   0
       104    186.9442    678.5278 300.0349949 +22.6259112     449.3291     70.12989      1.299     3.05    -4.347386     19.78073     64.18547        10     0.900     0.816 -30.54   0
       105    201.2458    677.0240 300.0399279 +22.6297740     371.6349     70.12989      1.282     2.67    -4.308929     19.78073     48.80067         7     0.719     0.657  64.84   0
       106    227.0490    673.9615 300.0489422 +22.6366428     234.9222     70.12988      1.236     3.62     -4.23644     19.78073     50.23417         8     0.924     0.690 -65.47   0
       107    547.6824    672.9303 300.1489948 +22.7325759     264.6334      70.2191      1.262     3.41    -3.858917     19.78073     41.68872         5     0.804     0.419  72.74   0
       108    448.5055    672.3120 300.1183367 +22.7026401     1126.393     70.29039      1.250     2.28    -3.731009     19.78073     151.5716        14     0.934     0.813  73.31   0
       109   1023.7482    669.4451 300.2984436 +22.8743372     297.6085     54.15154      0.868     2.33    -3.871687     19.78073     91.43269         6     0.838     0.434 -88.83  24
       110    102.5882    667.4654 300.0123846 +22.5974112     11630.55     70.05843      1.195     2.15    -4.366955     19.78073     1547.309        43     1.132     1.019  73.26   0
       111     23.3281    668.9878 299.9872748 +22.5740449     322.8443     70.12989      1.121     1.98    -4.075366     19.78073      69.3698         7     0.673     0.626 -82.75   0
       112    533.4241    667.7418 300.1462444 +22.7268094     556.5391     70.11203      1.289     2.46    -3.809293     19.78073      69.6842        10     0.854     0.714  54.18   0
       113    568.6069    666.2708 300.1576724 +22.7369429      279.907      70.0763      1.114     2.86    -3.882775     19.78073     40.33883         5     0.702     0.475 -77.08   0
       114    951.3152    653.7595 300.2809576 +22.8481210     581.1848      70.0763      1.160     2.81    -3.790997     19.78073     98.23345        11     0.910     0.793 -85.55   0
       115     48.4796    651.4916 300.0007726 +22.5765843     930.8638      70.2191      1.679     5.69    -4.168729     19.78073     84.71785        17     1.506     0.752 -85.40   0
       116    497.0036    648.1105 300.1412935 +22.7102501     206.3454     70.02268      1.127     3.67    -3.690668     19.78073     42.88153         5     0.644     0.602 -89.55   0
       117    891.7554    646.2679 300.2648267 +22.8281148     463.6963      70.0763      1.309     2.17    -3.659329     19.78073     51.11287         6     0.688     0.559 -51.81   0
       118    453.7742    640.3547 300.1303652 +22.6950542     377.5238     70.12989      1.085     2.48    -3.661715     19.78073      60.2567         6     0.728     0.554 -45.41   0
       119    601.6145    639.1568 300.1767617 +22.7390649     314.1306     70.12989      1.180     3.43    -3.786811     19.78073     39.06841         5     0.773     0.440 -70.89   0
       120    648.9987    637.4792 300.1920591 +22.7527967     279.9679      70.0048      1.171     2.90    -3.917091     19.78073     37.39367         6     0.774     0.499  -2.88   0
       121    618.9990    636.6560 300.1829866 +22.7435620     277.7862     70.04056      1.230     3.04    -3.815955     19.78073     50.05153         7     0.907     0.587  55.80   0
       122    497.4800    636.0912 300.1453491 +22.7069449     475.8065      70.2191      1.193     3.06    -3.656228     19.78073     71.81478         7     0.761     0.617  64.55   0
       123    931.4896    631.7287 300.2819393 +22.8358515     1948.447     70.27258      1.140     2.10    -3.674812     19.78073     279.3792        17     0.944     0.855 -84.06   0
       124    463.0773    631.8947 300.1360096 +22.6954187     969.9608      70.2191      1.345     2.67    -3.640457     19.78073     131.8473        16     1.064     0.870 -43.91   0
       125     25.4447    625.6956 300.0020047 +22.5622737     2829.135     70.12989      1.205     2.25    -4.091133     19.78073     401.7628        21     1.002     0.888  87.97   0
       126    970.5340    621.3550 300.2974847 +22.8445759     85.36726     70.11203      1.059     3.21    -3.604193     19.78073     46.31842         5     0.825     0.636 -42.97   0
       127    326.7115    618.6465 300.0979042 +22.6506972     5279.159     70.09417      1.274     2.24    -3.862099     19.78073     770.3524        29     1.092     0.965  66.56   0
       128    449.1173    615.6497 300.1369472 +22.6865698     5139.013     70.11203      1.286     2.29    -3.612833     19.78073     696.8911        28     1.088     0.968  76.77   0
       129     93.2860    611.7910 300.0275926 +22.5786597     199.0867     70.04056      1.205     3.46    -4.276321     19.78073     34.89909         5     0.978     0.353  45.47   0
       130    860.6899    609.3213 300.2671555 +22.8081930     1076.876     70.23693      1.189     2.25    -3.580691     19.78073     143.0014        14     0.912     0.815 -69.14   0
       131    945.3812    606.7599 300.2943870 +22.8328451     7154.542     70.12989      1.165     2.04    -3.544212     19.78073     1140.505        32     1.016     0.975 -86.72   0
       132    509.7192    605.2345 300.1591877 +22.7017639     6589.769     70.05843      1.277     2.29    -3.563869     19.78073     956.8599        33     1.135     1.009  63.08   0
       133    237.1705    600.7903 300.0758732 +22.6187014     808.6031     70.11203      1.263     2.65    -4.128498     19.78073     108.8505        11     0.979     0.678  87.10   0
       134    678.9456    600.9720 300.2132512 +22.7513006     337.2557     70.11203      1.329     3.95    -3.827417     19.78073     39.13693         6     0.762     0.587  48.91   0
       135    441.3919    593.4109 300.1417723 +22.6778721     2535.989      70.0048      1.335     2.42    -3.579068     19.78073     286.8255        22     1.040     0.972 -84.77   0
       136    784.3092    593.0945 300.2486299 +22.7806341     390.8166     70.27258      1.141     2.77    -3.674508     19.78073     64.29346         9     0.918     0.614  39.46   0
       137    419.5244    591.7919 300.1354963 +22.6708464     744.1594     70.09417      1.432     2.45    -3.600218     19.78073     99.84463        11     0.861     0.785  35.60   0
       138    173.8404    591.5362 300.0592005 +22.5970375     579.7864      70.0763      1.367     2.67    -4.228711     19.78073     69.98353        10     0.910     0.718 -51.92   0
       139    860.9401    588.6320 300.2739585 +22.8023272     936.9047     70.14774      1.385     2.91    -3.566225     19.78073     126.1057        18     1.050     0.999 -24.22   0
       140    557.9968    580.9066 300.1821191 +22.7092657     119182.8     70.02268      1.356     2.39    -3.428934     19.78073     16331.66       152     1.408     1.320 -76.46   0
       141    381.6149    587.2073 300.1251955 +22.6581561     175.7746     70.02268      1.133     2.80    -3.616577     19.78073     34.51905         5     0.735     0.438 -68.97   0
       142    741.8215    585.6224 300.2378229 +22.7657494     411.9394     70.11203      1.053     2.29    -3.847231     19.78073     62.49214         7     0.701     0.627  20.69   0
       143    244.0583    581.0312 300.0844357 +22.6151027     2139.941     70.12988      1.322     2.40    -4.053895     19.78073     302.8152        22     1.045     0.955 -89.20   0
       144    809.9043    577.1382 300.2617907 +22.7837268     245.3427     70.20126      1.189     4.00    -3.566969     19.78073     43.75818         6     0.977     0.655 -79.03   0
       145    448.5637    561.2433 300.1544577 +22.6707950     1599.171     70.16559      1.364     2.37     -3.51572     19.78073     214.9579        18     1.174     0.832  87.15   0
       146    859.8452    557.0576 300.2838794 +22.7929321     236.8606     70.14774      1.367     3.78    -3.543148     19.78073     29.01146         5     0.798     0.515  31.35   0
       147    845.4843    547.3043 300.2825737 +22.7858264     1014.039     70.29039      1.188     2.37     -3.53603     19.78073     128.0141        13     0.887     0.783  51.56   0
       148    716.6988    544.9816 300.2432060 +22.7465492     1415.269     70.04056      1.259     2.45    -3.567127     19.78073      213.596        16     0.910     0.888 -81.44   0
       149     76.5135    545.4306 300.0439486 +22.5546004     342.7664     70.09417      1.854     4.22    -3.994814     19.78073     32.54496         6     1.076     0.472  80.22   0
       150    504.1812    540.7425 300.1784240 +22.6815974     443.3828      70.0763      1.457     4.23    -3.335948     19.78073     48.81455         7     0.908     0.563 -84.34   0
       151    973.9286    538.8760 300.3253513 +22.8219034     791.6849     70.20126      1.278     2.05    -3.427817     19.78073      127.516        12     0.907     0.780  82.40   0
       152    845.7979    537.6617 300.2858049 +22.7831514     1379.927     70.09417      1.399     2.52    -3.532739     19.78073      166.716        15     0.988     0.819 -77.01   0
       153    959.7320    537.9100 300.3212388 +22.8173714      448.202     70.25475      1.176     2.37     -3.45701     19.78073      66.6643         7     0.712     0.641 -70.11   0
       154    883.9385    532.4901 300.2993724 +22.7930986     2460.187     70.20126      1.239     2.18    -3.527147     19.78073     361.6252        22     1.104     0.917  64.69   0
       155    599.0682    535.2714 300.2097338 +22.7084875      357.718     70.14774      1.474     3.80    -3.378993     19.78073      41.2501         5     1.118     0.370  13.53   0
       156    975.6873    522.7457 300.3311414 +22.8177969     461.5986     70.14774      1.119     2.26     -3.45207     19.78073     86.02498         8     0.840     0.573 -80.25   0
       157    116.2977    522.9011 300.0636262 +22.5600846     434.9128       70.326      1.174     2.74    -3.985549     19.78073      76.3642         8     0.848     0.629  77.34   0
       158    971.9686    511.7289 300.3335618 +22.8135177     205.5437     70.11203      1.202     3.84    -3.475446     19.78073     29.05268         5     0.844     0.502  50.76   0
       159    657.6489    502.8735 300.2384992 +22.7167548      378.365     70.11203      1.268     3.59    -3.451978     19.78073     53.80854         8     0.915     0.604 -81.61   0
       160    971.9340    495.1677 300.3389321 +22.8087497     442.4911     70.11203      1.465     2.88    -3.502913     19.78073     52.49252         7     0.909     0.558  76.30   0
       161    718.1680    495.0540 300.2598868 +22.7326553     603.3122     70.12989      1.433     2.58    -3.508358     19.78073     67.38093        10     0.837     0.746  14.55   0
       162    875.5045    491.3145 300.3101230 +22.7787447     567.8342     70.29039      1.146     2.54    -3.520041     19.78073     78.42278        11     0.876     0.756 -38.49   0
       163    859.7712    487.8174 300.3063556 +22.7730248     371.3924     70.11203      1.279     2.32    -3.520019     19.78073     59.76817         8     0.738     0.685 -32.77   0
       164    604.0147    485.7716 300.2273569 +22.6957626     1931.737     70.12989      1.394     2.55    -3.393078     19.78073     249.5229        20     1.071     0.990  87.01   0
       165    964.5028    484.2581 300.3401596 +22.8033888     285.8858     70.18343      1.370     4.33    -3.520233     19.78073     43.21052         7     1.101     0.484  41.40   0
       166   1015.2567    464.5977 300.3623737 +22.8129476     720.0275      70.0763      1.127     2.34    -3.307344     19.78073     118.0382        12     0.935     0.724 -75.67   0
       167    973.5871    463.6231 300.3496961 +22.8001826     552.1168     70.11203      1.245     3.04    -3.399708     19.78073     74.17764        11     1.004     0.707  65.78   0
       168    887.0311    463.8819 300.3226281 +22.7743196     192.9003     70.11203      1.106     3.76    -3.516573     19.78073     39.04821         5     0.826     0.492 -62.36   0
       169    510.2762    460.1444 300.2065065 +22.6602951     219.7804     70.14774      1.035     4.31    -3.252497     19.78073     37.49571         6     1.256     0.422 -82.85   0
       170    714.6068    459.4754 300.2703362 +22.7213719     582.0782     70.04056      1.352     3.13    -3.281489     19.78073     95.41992        14     1.012     0.974 -59.64   0
       171    218.6716    458.2083 300.1164513 +22.5722582     398.0734     70.09417      1.402     2.92    -3.680589     19.78073     53.95756         5     0.741     0.440 -73.89   0
       172    281.0666    453.8256 300.1372689 +22.5897237     2091.699     70.09417      1.365     2.49    -3.571697     19.78073     303.5794        23     1.074     1.031  36.01   0
       173   1013.9039    452.0221 300.3660372 +22.8089290     2579.578     70.02268      1.259     2.08    -3.128426     19.78073     416.6662        23     1.028     0.967  44.43   0
       174    228.1917    448.7434 300.1224844 +22.5724001     4438.152     70.09417      1.343     2.57    -3.657251     19.78073     543.7705        32     1.183     1.034  63.46   0
       175    993.8785    443.1426 300.3626768 +22.8003780     1026.087     70.14774      1.225     2.13    -3.123357     19.78073     164.5641        13     0.939     0.752  85.71   0
       176    368.8931    442.8365 300.1681463 +22.6129202     2934.968      70.0763      1.407     2.66    -3.463954     19.78073      366.002        24     1.110     1.000  65.09   0
       177    613.0394    439.3450 300.2452481 +22.6851408     10763.17     70.11203      1.396     2.61    -3.154338     19.78073     1260.556        44     1.204     1.136  62.20   0
       178    630.2805    439.4337 300.2505870 +22.6903357     522.6015      70.0763      2.107     5.89     -3.14708     19.78073     42.08037         8     1.454     0.671 -58.38   0
       179    946.5264    421.8996 300.3548123 +22.7800870     348.7606     70.23693      1.197     2.25    -3.343156     19.78073      64.7142         8     0.738     0.686   7.84   0
       180    167.8414    419.7694 300.1131404 +22.5459793     1100.392     70.14774      1.260     2.20    -3.567152     19.78073      180.046        16     1.028     0.837  81.38   0
       181    553.6387    408.8075 300.2366761 +22.6585629     3788.442     70.12989      1.395     2.53    -2.949477     19.78073     497.8543        28     1.168     1.013  81.53   0
       182    967.2145    409.1016 300.3654195 +22.7826083     658.3595     70.02268      1.228     2.23     -3.13368     19.78073     117.1565        11     0.912     0.700  55.61   0
       183    268.8236    408.4633 300.1481962 +22.5730366     423.1354     70.09417      1.563     1.70    -3.524175     19.78073     56.03569         5     0.635     0.479 -19.42   0
       184    126.2938    401.3586 300.1062109 +22.5282304     322.3533     70.12989      1.450     4.55    -3.444134     19.78073      40.9384         7     1.372     0.428  59.65   0
       185    758.0074    397.8606 300.3038683 +22.7166873     595.6226     70.09417      1.337     2.53    -2.843616     19.78073     93.04662        11     0.858     0.803  71.59   0
       186    460.2639    395.1590 300.2120522 +22.6266440     3647.859      70.0763      1.429     2.77    -3.077049     19.78073     398.4295        32     1.202     1.146 -67.01   0
       187    852.3384    389.4188 300.3360021 +22.7425328     855.3034     70.09417      1.399     2.97    -3.344203     19.78073     100.3482        15     1.023     0.891  22.52   0
       188    949.6075    389.0527 300.3664412 +22.7715725     415.6018     70.11203      1.396     2.68    -3.333495     19.78073     50.77927         7     0.737     0.639 -77.88   0
       189    445.5050    384.0180 300.2110785 +22.6190200     313.6215     70.04056      1.408     3.68    -3.055377     19.78073     36.94962         5     0.768     0.620  -2.53   0
       190    825.0529    377.1086 300.3314968 +22.7308199     351.7214     70.16559      1.299     4.22    -3.072584     19.78073     49.57608         7     1.065     0.585 -67.08   0
       191    348.0078    374.2592 300.1839227 +22.5869769     1537.745      70.0763      1.445     2.62    -3.238966     19.78073     184.7929        18     1.060     0.892  80.55   0
       192     66.1420    371.9881 300.0970634 +22.5017546     505.0317      70.0763      1.290     2.56    -3.150621     19.78073     73.22918        10     0.872     0.681  78.72   0
       193    317.2529    363.9100 300.1777201 +22.5747818      17466.1     70.14774      1.418     2.61    -3.189223     19.78073     1980.397        54     1.282     1.158  86.08   0
       194    851.6322    361.1859 300.3449504 +22.7342103     793.8093     70.11203      1.400     2.76    -3.311463     19.78073     99.11171        12     0.911     0.839 -64.62   0
       195     13.6491    351.8569 300.0872981 +22.4802267     2845.729     70.16559      1.324     2.37    -2.979624     19.78073     390.6373        24     1.151     0.927  81.09   0
       196    767.3513    350.1549 300.3222709 +22.7057853     173.7463     70.14774      1.185     4.14    -2.842241     19.78073     38.84404         6     0.769     0.636  -7.23   0
       197    191.6182    350.1837 300.1431245 +22.5331529     303.9974     70.09417      1.225     3.43    -3.475559     19.78073     40.29319         5     0.740     0.459 -74.15   0
       198    415.8171    348.5430 300.2133623 +22.5999343     266.6196      70.0763      1.218     2.90    -2.989674     19.78073     48.88048         5     0.823     0.546  49.69   0
       199    727.6067    343.2023 300.3121476 +22.6918768     1162.474     69.93322      1.410     2.87    -2.863039     19.78073     133.9124        16     1.147     0.854 -78.68   0
       200    942.8405    336.0545 300.3815416 +22.7543161     266.1903      70.0763      1.196     2.62    -3.308575     19.78073     47.32561         5     0.621     0.581  10.37   0
       201    389.5077    328.2300 300.2117740 +22.5862138     1115.646      70.0763      1.550     3.41    -3.036356     19.78073     120.0952        17     1.227     0.824  69.08   0
       202    828.6884    321.1365 300.3508041 +22.7158294     419.1413      70.2191      1.397     3.40     -2.95187     19.78073     50.93575         8     0.902     0.640  81.54   0
       203    465.4013    307.5670 300.2420908 +22.6030409     712.7348      70.0763      1.447     2.59     -2.84043     19.78073      76.5276        13     0.945     0.804 -45.05   0
       204    710.1079    299.3104 300.3209473 +22.6740252     1117.732     70.27258      1.379     2.58    -2.834283     19.78073     138.6766        17     1.006     0.945 -37.34   0
       205    971.1841    293.5135 300.4041905 +22.7505806     1743.625     70.05843      1.232     2.36    -2.937432     19.78073     247.0025        17     0.960     0.864  39.48   0
       206    418.5421    283.4109 300.2353544 +22.5820554     421.2119      70.0763      1.450     2.93    -2.959606     19.78073     48.71882         6     0.832     0.491   2.50   0
       207    124.2951    277.4677 300.1458116 +22.4920927     294.6168     70.25475      1.089     2.87    -3.033267     19.78073     56.49072         9     0.975     0.609 -89.63   0
       208     93.3136    277.5839 300.1361496 +22.4828304     832.2422      70.0763      1.532     3.22     -2.96003     19.78073     85.50864        15     1.128     0.817 -35.76   0
       209    986.9511    273.5386 300.4155915 +22.7495619     379.1089     70.16559      1.293     2.66    -2.912239     19.78073     48.49934         6     0.774     0.497  -4.16   0
       210    177.3255    269.1195 300.1649979 +22.5056071     247.0786      70.2191      1.257     5.01    -3.105513     19.78073     36.69033         8     1.132     0.628 -81.28   0
       211    971.9227    266.5718 300.4131667 +22.7430582     214.7123     70.11203      1.243     4.15    -2.889704     19.78073     36.88167         5     1.045     0.623  60.59   0
       212    781.6040    260.6219 300.3557777 +22.6843352     413.5167      70.0763      1.590     3.89    -2.801807     19.78073     52.19947         8     1.116     0.540 -38.11   0
       213    879.6779    249.6900 300.3898884 +22.7105759     1170.338     70.25475      1.275     2.38    -2.769718     19.78073     157.5114        14     0.895     0.881  42.41   0
       214    298.5697    247.4468 300.2097173 +22.5357546      1328.39     70.12989      1.453     2.75    -2.915095     19.78073     153.1158        20     1.129     1.022  78.70   0
       215    376.4315    242.6710 300.2354791 +22.5577330     665.1263     70.11203      1.513     3.28    -2.981473     19.78073     70.50681        11     1.036     0.716 -24.74   0
       216    778.1662    241.5695 300.3608905 +22.6778310     280.6462     70.12989      1.213     2.75    -2.816819     19.78073     51.44759         5     0.713     0.471 -16.56   0
       217    193.1849    234.5452 300.1811469 +22.5004437     429.6241     70.09417      1.375     2.95    -2.978528     19.78073     54.92147         9     0.957     0.646 -68.64   0
       218    730.7817    231.1526 300.3495098 +22.6606405     936.6501     70.14774      1.305     2.79    -2.963441     19.78073     121.3028        15     1.030     0.851 -61.37   0
       219    795.7744    230.8049 300.3698703 +22.6800135     248.3109      70.0763      1.209     2.58    -2.749017     19.78073     40.26839         6     0.721     0.563  37.25   0
       220    214.7929    227.4300 300.1901712 +22.5048831     232.9505     70.11203      1.165     2.09    -3.037676     19.78073     41.77783         5     0.674     0.469 -19.13   0
       221   1002.2519    223.5138 300.4365998 +22.7397644     505.0555     70.12989      1.160     2.39    -2.943274     19.78073      67.4909         7     0.857     0.489   8.42   0
       222    735.0657    222.4618 300.3536647 +22.6594273     510.2022     70.14774      1.577     2.46    -2.974193     19.78073     62.88832         9     0.874     0.673 -71.37   0
       223    655.5180    221.9257 300.3290639 +22.6354366     810.2104      70.2191      1.444     3.08    -2.787877     19.78073     87.04713        13     1.014     0.870  60.08   0
       224    850.9083    213.2144 300.3927597 +22.6914753     782.2507     70.04056      1.301     2.64    -2.679499     19.78073      106.929        14     0.962     0.848  38.52   0
       225    581.7437    213.7641 300.3087434 +22.6109824     546.1363     70.12989      1.502     3.47    -2.761284     19.78073     67.33622        11     0.957     0.863 -77.53   0
       226    862.8458    212.4039 300.3967432 +22.6948182     291.0084     70.09417      1.100     3.34    -2.685181     19.78073     53.15599         9     1.028     0.590 -13.71   0
       227   1023.4662    202.7913 300.4499411 +22.7401595     910.9071     55.56661      1.150     2.07    -2.801216     19.78073      150.964        11     1.047     0.605 -86.84  24
       228    979.4672    202.4420 300.4363329 +22.7268835     646.4639     70.09417      1.144     2.27    -2.681353     19.78073     96.14754         8     0.838     0.575  71.20   0
       229      3.4849    199.9596 300.1334418 +22.4336099     259.1874     64.82288      1.254     3.72    -2.746494     19.78073     27.65672         6     0.797     0.500  89.80  16
       230    214.0777    196.0745 300.2001234 +22.4956700     450.0478      70.2191      1.303     3.38    -3.061905     19.78073     61.96467         8     0.943     0.682 -61.73   0
       231     75.6429    190.8374 300.1588108 +22.4526420     1353.544     70.20126      1.391     2.44    -2.704185     19.78073     172.4255        17     1.035     0.928  73.54   0
       232    898.8979    187.5329 300.4160513 +22.6984684     375.7842     70.20126      1.030     1.86    -2.549348     19.78073     72.93805         6     0.709     0.497   4.78   0
       233    233.0854    184.2813 300.2098575 +22.4979859     3273.395     70.25475      1.369     2.60    -3.154292     19.78073     367.4513        26     1.106     1.033 -65.37   0
       234     17.1915    178.4444 300.1446784 +22.4315502     687.0488     70.12989      1.260     2.74    -2.635339     19.78073     98.68398        13     1.007     0.781  40.80   0
       235    216.3683    174.8910 300.2077083 +22.4902772      340.809     70.05843      1.213     3.16    -3.104635     19.78073     48.97665         7     0.855     0.585 -10.88   0
       236    876.9014    165.4451 300.4163617 +22.6855316     1959.969     70.12989      1.330     2.42    -2.519197     19.78073     254.0401        21     1.032     0.982 -60.72   0
       237    980.6583    164.0297 300.4491686 +22.7161971     1526.433     70.12989      1.254     2.36    -2.380922     19.78073     216.1765        17     1.069     0.796  70.55   0
       238    426.5397    160.3792 300.2777675 +22.5491293     238.4651     70.05843      1.228     2.91    -2.440067     19.78073     49.74641         6     0.846     0.477   7.27   0
       239    352.3730    152.3562 300.2573019 +22.5245908     452.8458     70.12989      2.392     6.92    -3.066263     19.78073     43.84065         8     1.918     0.700 -22.42   0
       240    116.7622    149.8307 300.1848874 +22.4532103     367.8881     70.11203      1.151     2.27    -2.559506     19.78073     54.11943         6     0.711     0.552  47.41   0
       241    478.1118    148.1315 300.2977860 +22.5610711     1043.092     70.27258      1.425     3.34    -2.631862     19.78073     89.79937        17     1.112     0.968  47.14   0
       242    405.5826    148.7587 300.2750182 +22.5395100     277.5858     70.12989      1.429     3.41    -2.524541     19.78073     36.80092         5     0.805     0.419  67.69   0
       243    221.5875    143.1081 300.2196413 +22.4827199     206.9985     70.05843      1.323     4.55      -3.0091     19.78073     32.23917         5     0.850     0.692  30.59   0
       244    251.9991    128.0404 300.2339818 +22.4875143     3522.002     70.12988      1.376     2.66    -2.875224     19.78073      450.127        26     1.166     0.995  88.91   0
       245    103.1644    127.3225 300.1879644 +22.4426725     443.4328      70.0763      1.559     3.82    -2.559844     19.78073     58.45063         8     1.053     0.763 -75.75   0
       246    758.9280    126.6196 300.3921955 +22.6390362     195.6479     70.14774      1.458     4.98    -2.582576     19.78073     36.08886         5     1.086     0.645  57.58   0
       247    881.2940    124.8724 300.4308939 +22.6751845     312.7656     70.23693      1.814     3.37    -2.469871     19.78073     39.00601         5     0.739     0.681  32.17   0
       248    267.0063    119.4349 300.2414383 +22.4895438     242.9917     70.11203      1.601     4.37    -2.772707     19.78073     37.44469         6     0.909     0.766 -89.50   0
       249    497.9948    113.2626 300.3152842 +22.5570156     3496.031     70.09417      1.421     2.77    -2.558545     19.78073     382.3473        25     1.141     1.024  84.16   0
       250    383.5283    113.4991 300.2795962 +22.5227737     370.4286     70.25475      1.435     4.35    -2.781288     19.78073     45.55748         9     1.014     0.760  25.25   0
       251    750.4656    103.1471 300.3971733 +22.6297555     535.1233     70.14774      1.723     3.79    -2.635082     19.78073     61.61517        13     1.163     0.929 -32.45   0
       252    191.5144     96.8926 300.2252854 +22.4604359     358.2456     70.27258      1.523     5.12    -2.519607     19.78073     31.42025         7     0.926     0.801 -24.20   0
       253    626.2756     93.3465 300.3616742 +22.5897345     3677.342     70.14774      1.451     2.70    -2.794095     19.78073     374.6829        29     1.204     1.047  89.31   0
       254    401.2054     92.3273 300.2919615 +22.5219927     859.2242     70.05843      1.388     2.71    -2.641442     19.78073     120.1154        16     1.053     0.905 -68.03   0
       255    667.2139     90.7948 300.3752495 +22.6012665     486.5069     69.98691      1.379     3.66     -2.79235     19.78073     55.44596         8     0.819     0.687  30.26   0
       256    150.4120     85.1102 300.2163344 +22.4447280     365.3024     70.05843      1.354     3.13    -2.519348     19.78073     46.36824         5     0.741     0.441  68.46   0
       257    952.9788     84.1228 300.4664598 +22.6849345     359.5128     70.11203      1.167     2.47    -2.339945     19.78073     61.40826         6     0.752     0.525 -33.15   0
       258    722.1533     81.8674 300.3952559 +22.6151590     311.6826     70.09417      1.261     3.69    -2.719269     19.78073     36.39979         6     0.744     0.582 -44.25   0
       259    670.4669     78.0542 300.3803947 +22.5985799      1550.45     70.16559      1.382     2.88    -2.815363     19.78073     170.8276        20     1.136     0.939  81.78   0
       260    685.5767     76.9068 300.3854725 +22.6027766     516.1923     70.04056      1.748     5.77    -2.793378     19.78073      42.6746        10     1.354     0.691  46.19   0
       261    757.0334     69.6943 300.4100696 +22.6221082     909.3811      70.0763      1.360     2.92    -2.674615     19.78073     113.9317        15     1.048     0.852 -13.14   0
       262    694.8585     63.3373 300.3927641 +22.6016576     353.8795     70.16559      1.330     2.63    -2.802403     19.78073      70.1594         7     0.913     0.500 -59.57   0
       263    500.3399     62.4113 300.3325067 +22.5431116     604.3422      70.0763      1.376     2.90    -2.441264     19.78073     81.43566        11     0.952     0.777  24.71   0
       264     73.2204     62.0898 300.1998192 +22.4149707     317.7507     70.05843      1.329     4.32    -2.665616     19.78073     43.69094         8     1.260     0.422  59.83   0
       265    404.5689     60.5192 300.3033235 +22.5138658     525.3598     70.11203      1.447     3.94    -2.577688     19.78073     60.05585        12     1.054     0.913 -42.75   0
       266    699.9810     55.6459 300.3968539 +22.6009815     157.6216     70.14774      1.508     5.00    -2.806016     19.78073     26.11725         5     1.250     0.566  50.82   0
       267    175.8105     50.6282 300.2354087 +22.4424463     2248.804     70.11203      1.448     2.52    -2.601118     19.78073     277.3492        24     1.131     1.005  72.88   0
       268    743.9728     50.7726 300.4121373 +22.6127578     489.3822      70.0763      1.875     2.45    -2.734383     19.78073     46.21296         7     0.695     0.677 -15.38   0
       269    737.0274     42.9068 300.4125245 +22.6084167     455.5385     70.05843      1.262     2.81    -2.762679     19.78073     70.63678         9     0.801     0.722  23.35   0
       270    291.9104     42.6682 300.2740771 +22.4749697     622.8524     70.25475      1.392     2.91    -2.521766     19.78073     81.60987        11     0.983     0.695  76.01   0
       271    774.6020     37.8937 300.4258559 +22.6182294     446.3182     70.02268      1.819     5.59    -2.696294     19.78073     34.87496        10     1.215     0.753  85.43   0
       272    794.9005     33.9342 300.4334644 +22.6231702     1193.384     70.20126      1.311     2.53    -2.663662     19.78073      158.521        16     0.971     0.895 -59.54   0
       273    500.5023     32.1939 300.3423561 +22.5344796     140.2444     70.02268      1.165     3.09     -2.37839     19.78073     46.35565         5     0.887     0.486  81.01   0
       274    178.2890     29.3115 300.2430908 +22.4370701      535.718     70.27258      1.317     2.96    -2.653986     19.78073     66.52251        11     0.982     0.723  41.20   0
       275    969.6323     27.2497 300.4900970 +22.6735660     209.7759     70.14774      1.046     2.60    -2.296475     19.78073     68.31777         6     0.697     0.616  57.72   0
       276    743.1644     26.7428 300.4196777 +22.6056087     585.3401     70.11203      1.575     2.86    -2.779655     19.78073      72.9334        10     0.880     0.744 -83.63   0
       277    132.4963   1002.5292 299.9126710 +22.7023973     800.4893      70.2191      6.154     6.78     16.27571     19.78073      33.0189         8     1.490     0.864  66.41   1
       278     64.0331   1017.4484 299.8865506 +22.6860966     2354.893     70.14774     14.250    40.47     8.335377     19.78073     59.81555       348     7.512     6.052 -31.02  19
       279    103.7894    987.4654 299.9086582 +22.6894569     1506.032     70.05843     22.593    27.50     12.31007     19.78073     38.37321        69     5.698     3.686 -69.13  19
       280    206.3568   1011.2622 299.9327747 +22.7270908     964.1542     70.11203      7.703     7.43      8.06603     19.78073     32.31312         9     1.973     0.784 -25.76  16
       281    151.0918   1002.6190 299.9184183 +22.7080105     1020.742     70.04056      6.323     8.94     16.12907     19.78073     44.64003        20     1.980     1.346  13.57   0
