#   1 NUMBER                 Running object number                                     
#   2 X_IMAGE                Object position along x                                    [pixel]
#   3 Y_IMAGE                Object position along y                                    [pixel]
#   4 ALPHA_J2000            Right ascension of barycenter (J2000)                      [deg]
#   5 DELTA_J2000            Declination of barycenter (J2000)                          [deg]
#   6 FLUX_APER              Flux vector within fixed circular aperture(s)              [count]
#   7 FLUXERR_APER           RMS error vector for aperture flux(es)                     [count]
#   8 FLUX_RADIUS            Fraction-of-light radii                                    [pixel]
#   9 FWHM_IMAGE             FWHM assuming a gaussian core                              [pixel]
#  10 BACKGROUND             Background at centroid position                            [count]
#  11 THRESHOLD              Detection threshold above background                       [count]
#  12 FLUX_MAX               Peak flux above background                                 [count]
#  13 ISOAREA_IMAGE          Isophotal area above Analysis threshold                    [pixel**2]
#  14 A_IMAGE                Profile RMS along major axis                               [pixel]
#  15 B_IMAGE                Profile RMS along minor axis                               [pixel]
#  16 THETA_IMAGE            Position angle (CCW/x)                                     [deg]
#  17 FLAGS                  Extraction flags                                          
         1    645.4401     17.1046 300.4126045 +22.5515392     1519.925     70.21101      1.956     4.86    -1.188442     19.80866     107.0033        29     1.491     1.317 -59.67   0
         2    741.7932     17.0712 300.4426202 +22.5803945     511.0854     70.17523      1.934     6.92    -1.304811     19.80866     42.45896        14     1.370     0.981 -14.99   0
         3    579.3397      7.0726 300.3952821 +22.5288511     660.6122     70.24677      1.784     4.79   -0.9836017     19.80866     65.42528        15     1.143     1.101  19.84  16
         4    368.5628      1.1310 300.3316345 +22.4639746     336.9192     53.48191      1.404     2.40    -2.187286     19.80866     66.65018         5     0.918     0.326  -5.77  24
         5    789.5216   1010.0231 300.1346872 +22.8798327      6519.24     70.19312      1.309     2.26    -5.505763     19.80866      861.163        33     1.077     1.052 -28.80   0
         6    732.8442   1022.2228 300.1130611 +22.8663195     461.6194     62.02609      1.599     5.02    -5.421751     19.80866     49.28625         9     1.295     0.653  70.16  24
         7    108.2299   1021.6264 299.9190160 +22.6785340     1241.377     64.50692     10.517    16.17    -1.237609     19.80866     37.38007        42     4.770     1.524  18.29  27
         8     97.8216   1022.4570 299.9155133 +22.6756436     1162.989     60.90252      5.755    10.19    -1.415427     19.80866     45.47194        24     2.409     1.203  45.89  27
         9     93.8108   1023.4687 299.9139382 +22.6747278     1005.553     55.64505      5.847     8.78    -1.600923     19.80866     59.89702        16     2.875     0.749   1.96  27
        10    834.8088   1009.8430 300.1488533 +22.8933729     252.3278     70.22888      1.252     3.60     -5.45188     19.80866     35.95867         6     0.768     0.550  51.52   0
        11    101.4411   1002.2507 299.9232188 +22.6709442     481.3311     70.21101      2.135     7.03    -2.058019     19.80866     64.59396        13     1.658     0.836  86.31   0
        12    494.6458    997.9641 300.0468265 +22.7878460     240.2605     70.24677      1.159     2.38    -5.515727     19.80866     43.31165         5     0.836     0.478  89.41   0
        13    797.9325    992.2047 300.1431115 +22.8772460     719.5739     70.19312      1.183     2.68     -5.39358     19.80866     115.8458        12     0.944     0.752 -60.55   0
        14    980.5342    990.8264 300.2004626 +22.9316429     269.1322     70.19312      1.251     4.63    -5.009549     19.80866     46.14064         6     0.958     0.636  13.42   0
        15    650.6796    989.4700 300.0981487 +22.8322613     327.9992     70.31822      1.168     3.69    -5.357894     19.80866     38.38292         6     0.959     0.408 -19.31   0
        16    835.9322    985.8161 300.1570302 +22.8868173     475.9099     70.21101      1.381     3.23    -5.332093     19.80866     57.31411         8     0.879     0.727 -70.04   0
        17    944.2206    982.4832 300.1918608 +22.9183540      218.877     70.17523      1.047     4.45    -5.071503     19.80866     32.90318         6     0.951     0.592  65.02   0
        18    884.4485    976.8857 300.1750558 +22.8988138     263.1983     70.19312      1.258     2.61     -5.23592     19.80866     44.05364         5     0.724     0.448 -67.73   0
        19    735.8463    975.5013 300.1292154 +22.8538205     380.2939     70.24677      1.348     3.25    -5.395304     19.80866     54.71499         7     0.924     0.675   2.99   0
        20    747.6211    973.2541 300.1336143 +22.8567101     441.4547     70.21101      1.667     4.69    -5.372492     19.80866     39.48525         9     1.007     0.668 -87.48   0
        21    448.6218    972.4527 300.0408202 +22.7667112     2513.635     70.21101      1.429     2.29    -5.206328     19.80866      319.558        26     1.147     1.088  30.34   0
        22    174.2384    958.1561 299.9601898 +22.6801898     320.4336     70.30037      1.331     3.78    -3.270669     19.80866     42.95135         7     0.877     0.571 -59.21   0
        23    151.0956    955.4813 299.9538721 +22.6724695     862.4039     70.35393      1.296     2.58    -3.435483     19.80866      112.794        15     0.945     0.901  27.19   0
        24     25.5966    944.7473 299.9183970 +22.6316798     239.9071     70.21101      1.448     3.95    -5.580881     19.80866     39.48701         5     1.085     0.412  74.61   0
        25   1022.5320    943.6246 300.2289312 +22.9306946     1099.919     60.55102      1.136     2.33    -4.522156     19.80866     155.5283        14     0.938     0.782 -40.67  24
        26    976.7262    942.3478 300.2150660 +22.9165880     1144.973     70.22889      1.238     2.27    -4.734439     19.80866     175.6611        15     0.934     0.849  38.44   0
        27    760.3578    936.1301 300.1496719 +22.8498836     359.9067     70.17522      1.405     4.59     -5.24263     19.80866     47.14679        10     1.183     0.810  50.95   0
        28    628.4802    930.3337 300.1104986 +22.8086382     2854.803     70.31822      1.469     2.70    -4.972134     19.80866     294.4208        26     1.144     1.048  37.26   0
        29    431.2489    927.7589 300.0499723 +22.7486821     378.5808     70.22889      1.559     4.04    -4.665756     19.80866     45.71474         7     1.133     0.750  22.22   0
        30    178.7561    924.3928 299.9725876 +22.6718740     830.0705     70.22889      1.537     2.77    -4.643809     19.80866     88.69121        15     0.987     0.901  87.95   0
        31    649.1473    922.6450 300.1194357 +22.8126369     283.6984     70.22889      1.111     2.18    -4.840617     19.80866     55.36771         7     0.779     0.561  32.36   0
        32    197.9300    921.5606 299.9794664 +22.6768232     249.2829     70.17523      1.442     4.19    -4.706732     19.80866     42.71718         7     1.138     0.590  42.87   0
        33   1021.2761    909.8697 300.2395325 +22.9206290     713.2704     65.91254      1.327     2.88    -4.485959     19.80866     96.30241        12     1.008     0.777  75.08  16
        34    804.4397    910.0527 300.1718946 +22.8556307     2377.593     70.19312      1.379     2.67    -4.768909     19.80866      262.993        21     1.087     0.945  -4.18   0
        35    213.4575    904.8020 299.9897472 +22.6766862     326.7157     70.15733      1.429     3.54    -4.735576     19.80866     56.02421         5     0.775     0.596 -30.49   0
        36    521.5095    902.3879 300.0863099 +22.7685106      284.075     70.15733      1.680     3.94    -4.574398     19.80866     35.84206         5     1.034     0.429 -14.17   0
        37    168.2005    900.8602 299.9769706 +22.6619601     681.9999     70.17523      1.430     2.78    -4.602416     19.80866     73.44315        11     0.901     0.789  62.47   0
        38    317.7006    893.0132 300.0259812 +22.7046208     30806.22     70.12153      1.486     2.77    -4.912157     19.80866      3465.26        74     1.345     1.295  39.01   0
        39    583.4303    895.6384 300.1077751 +22.7851645     320.2851     70.21101      1.415     4.00     -4.70313     19.80866     30.84206         6     0.957     0.478  -3.46   0
        40    575.5127    891.7078 300.1065909 +22.7816605     929.5114     70.37177      1.457     2.82     -4.64802     19.80866     101.6237        14     0.933     0.916  45.86   0
        41    988.4784    890.5095 300.2356111 +22.9052345     505.9927     70.35393      1.336     2.90     -4.57189     19.80866      69.7606        11     0.947     0.794  49.77   0
        42    604.3531    887.4747 300.1169448 +22.7891039     450.1908     70.21101      1.392     3.58    -4.752453     19.80866     49.66987        12     1.028     0.791  54.84   0
        43      3.9807    887.5411 299.9303123 +22.6087985     464.0773     66.70784      1.353     2.83    -5.008908     19.80866      58.6491         8     0.805     0.652 -80.11  16
        44    615.5204    885.9597 300.1209138 +22.7920215     405.4719     70.19312      1.417     3.73    -4.742178     19.80866     38.95365         6     0.803     0.497 -85.10   0
        45    758.5433    872.4600 300.1698392 +22.8310729     604.9161      70.2825      1.673     4.38    -4.656019     19.80866     60.69843        12     1.224     0.958 -36.73   0
        46    367.3793    870.1705 300.0488620 +22.7129930     18269.94     70.21101      1.527     2.75    -4.687871     19.80866     1978.352        64     1.342     1.300  26.08   0
        47    381.7696    870.5321 300.0532186 +22.7174181      1173.91     70.19312      1.557     3.12    -4.671299     19.80866     119.6272        17     1.055     0.995  67.90   0
        48    890.2040    865.6573 300.2130714 +22.8686228     1459.722     70.17523      1.299     2.57     -4.38405     19.80866      181.164        17     1.001     0.909 -18.93   0
        49    648.5818    861.8243 300.1390629 +22.7950221     452.4119     70.21101      1.443     5.22     -4.47436     19.80866     53.43561        10     1.018     0.754 -30.11   0
        50     54.6969    857.5942 299.9558057 +22.6154607     393.9335     70.12153      1.704     5.09    -4.549779     19.80866     35.00519         6     1.019     0.719  72.78   0
        51    495.3573    856.5339 300.0931027 +22.7475104     333.8069     70.19312      1.654     5.14    -4.482751     19.80866      39.6085         9     1.099     0.918  22.16   0
        52    249.6314    862.1378 300.0148770 +22.6753263     463.7941     70.22889      1.380     4.60     -4.74929     19.80866     53.00394         8     0.922     0.806 -77.55   0
        53    353.2345    852.5582 300.0501978 +22.7036963     246.3543     70.26463      1.215     3.76    -4.672381     19.80866      28.3509         5     0.996     0.408  82.73   0
        54     83.3592    852.0571 299.9665079 +22.6224866     255.8374     70.19312      1.620     3.98    -4.521257     19.80866     27.82092         6     1.068     0.424 -76.73   0
        55    440.9047    852.1045 300.0776070 +22.7298916     221.7572     70.37177      1.336     3.79    -4.560439     19.80866     35.73159         7     0.907     0.732  33.34   0
        56    247.4197    846.3980 300.0193134 +22.6701509     370.9378     70.13943      1.625     3.07    -4.614041     19.80866     45.58092         6     0.856     0.493 -88.22   0
        57    571.1415    837.1931 300.1229783 +22.7647135     323.7995     70.19312      1.876     4.50    -4.279339     19.80866     29.78333         6     1.189     0.485  61.83   0
        58    539.9631    834.5398 300.1141401 +22.7545937     480.1102     70.22889      1.672     6.24    -4.154657     19.80866      37.5472        10     1.285     0.852  45.71   0
        59    562.3588    832.0932 300.1219053 +22.7606145     776.2708     70.22889      1.579     4.00    -4.198653     19.80866     67.46464        16     1.144     0.967  55.94   0
        60    956.5350    830.8963 300.2450617 +22.8785417     2519.654     70.31822      1.354     2.52    -4.236065     19.80866     309.1487        22     1.017     0.998  55.00   0
        61    945.1067    822.0941 300.2443647 +22.8725873     1115.435     70.37177      1.390     3.62    -4.165229     19.80866     120.8877        18     1.183     0.904 -78.48   0
        62    308.7120    816.6373 300.0480495 +22.6800286     493.9609     70.19312      1.440     5.47    -4.441853     19.80866      45.1523        12     1.288     0.838 -64.55   0
        63    771.6193    813.7161 300.1930354 +22.8181407      1461.37     70.13943      1.734     3.33    -4.197333     19.80866      125.394        22     1.237     1.047  27.77   0
        64    976.0644    812.3530 300.2571860 +22.8790755     977.6168     70.24677      1.356     2.60    -4.120793     19.80866     115.3601        17     1.043     0.923 -15.78   0
        65    156.9572    800.3594 300.0061920 +22.6297838     337.5495     70.30037      1.306     3.33    -4.300046     19.80866     44.85918         8     0.913     0.725 -72.09   0
        66    853.8925    799.6975 300.2232286 +22.8387993     475.2379     70.38961      2.202     4.84    -4.045943     19.80866     33.54392         7     1.041     0.637  10.53   0
        67    889.8102    790.5837 300.2373872 +22.8469569     84366.94     70.13943      1.505     2.84    -4.043321     19.80866     7865.667       111     1.374     1.350   4.28   0
        68    742.3679    790.8470 300.1913686 +22.8028020     410.5397     70.24677      1.892     5.44    -4.138103     19.80866     33.52206         9     1.299     0.644 -79.59   0
        69    575.9855    779.5099 300.1432605 +22.7496217     862.6393     70.15733      1.603     3.80    -3.893781     19.80866     81.18629        18     1.132     1.044  22.70   0
        70    757.3316    776.8119 300.2005968 +22.8032639     5242.065     70.21101      1.549     3.07    -4.097529     19.80866     453.6886        31     1.219     1.150  33.04   0
        71    259.0746    772.3217 300.0470442 +22.6524183     2654.009     70.31822      1.521     3.05    -4.161989     19.80866      230.147        29     1.203     1.172 -62.36   0
        72    341.1994    770.1884 300.0732651 +22.6764675      670.247     70.03194      1.565     3.64    -4.300215     19.80866     69.66146        15     1.036     1.012 -31.92   0
        73    215.8712    767.1383 300.0353057 +22.6379576     301.6509     70.24677      1.821     4.94     -4.21411     19.80866     25.51937         6     1.059     0.653 -11.48   0
        74    548.9940    765.0993 300.1395508 +22.7373871     522.4373     70.10362      1.840     5.92    -3.724633     19.80866     37.30612         9     1.214     0.813  34.52   0
        75    540.8778    757.8407 300.1393874 +22.7328690     1745.683     70.19312      1.687     3.94    -3.687365     19.80866     131.9151        24     1.263     1.164 -27.38   0
        76    531.2394    751.6683 300.1383969 +22.7282057     822.0085     70.17523      1.659     4.34    -3.664962     19.80866      69.5196        17     1.136     1.035   3.79   0
        77    194.8066    747.5375 300.0351388 +22.6260129     340.6038     70.17523      1.600     4.87    -4.156489     19.80866     47.95604         7     1.048     0.642  58.44   0
        78    208.6674    746.8883 300.0396565 +22.6299895     331.6425     70.31822      1.743     4.45    -4.159112     19.80866     34.76466         7     1.105     0.509 -18.40   0
        79    977.6328    742.2756 300.2804825 +22.8594259     359.8416     70.21101      1.449     4.79    -3.996445     19.80866     36.12709         8     1.004     0.646 -72.90   0
        80    455.9827    741.1816 300.1183972 +22.7026092      994.262     70.19312      1.658     4.98    -3.731955     19.80866     75.77448        17     1.199     1.049 -57.14   0
        81    110.0975    736.6376 300.0123722 +22.5974461     11227.79     70.21101      1.529     2.84    -4.131466     19.80866     1068.318        52     1.350     1.241  52.96   0
        82     31.1751    737.8536 299.9874698 +22.5740864     461.7543     70.22889      1.533     4.53    -4.136713     19.80866     48.35809         9     1.008     0.675  88.59   0
        83    540.6910    736.4532 300.1462886 +22.7266778      562.773     70.26463      1.641     5.51    -3.601187     19.80866     47.57954        11     1.024     0.835  14.23   0
        84    958.3002    722.3759 300.2809312 +22.8479150      542.098     70.15733      1.517     3.56    -3.998188     19.80866     62.91743        10     0.932     0.768 -43.97   0
        85     56.1424    720.8329 300.0007591 +22.5767094     923.0135     70.22889      1.755     4.55    -4.136794     19.80866     76.14117        21     1.455     1.034 -79.07   0
        86    122.0854    721.8060 300.0209207 +22.5967961     188.2137     70.13943      1.328     4.60    -4.119537     19.80866     27.68563         5     0.943     0.638 -28.77   0
        87    899.5182    715.5903 300.2648174 +22.8283398      491.417     70.15733      1.998     6.83    -4.042664     19.80866     43.04398        10     1.346     0.973  21.74   0
        88    460.9563    710.1372 300.1300449 +22.6951979     410.7895     70.21101      1.722     4.22    -3.627927     19.80866     46.14908         6     1.051     0.560 -26.00   0
        89    505.3170    705.1309 300.1454735 +22.7070761     418.6646     70.31822      1.746     4.16    -3.554497     19.80866     57.76978         9     1.179     0.633  49.75   0
        90    938.6957    700.6100 300.2819021 +22.8357868     1875.183     70.13943      1.572     3.08    -3.995422     19.80866     153.4034        24     1.150     1.117 -51.85   0
        91    470.8494    700.9929 300.1360972 +22.6955444     950.9635     70.21101      1.683     4.02     -3.59247     19.80866     68.25874        16     1.156     0.958 -65.68   0
        92     32.8693    694.8151 300.0019970 +22.5622623     2917.621     70.22889      1.558     2.89    -4.136794     19.80866     314.7979        29     1.234     1.196 -86.97   0
        93    334.1466    687.7998 300.0978782 +22.6507257     5173.212     70.15733      1.710     3.35    -4.008091     19.80866     465.0305        40     1.350     1.328 -39.09   0
        94     64.1104    689.0889 300.0135597 +22.5700056     671.1583     70.37177      0.518     0.98    -4.136794     19.80866     437.1088         5     0.414     0.378 -22.04   0
        95    456.5089    684.6778 300.1369441 +22.6865603     4995.977     70.35393      1.787     3.65    -3.580247     19.80866     392.4224        42     1.408     1.362  88.38   0
        96    868.0383    678.4424 300.2670933 +22.8082341     1134.418     70.30037      1.671     3.35     -4.03813     19.80866     80.61004        19     1.106     1.038 -57.05   0
        97    952.6893    675.7050 300.2943667 +22.8328312     7197.473     70.38961      1.602     3.14    -3.924706     19.80866     579.8396        44     1.366     1.216   2.65   0
        98    517.0441    674.1912 300.1591873 +22.7017196     6593.189     70.22889      1.759     3.80    -3.483137     19.80866     481.1286        47     1.522     1.369  71.31   0
        99    244.6779    670.0037 300.0758584 +22.6187613     738.6439     70.12153      1.784     4.34    -4.068458     19.80866      61.0572        16     1.151     1.054 -86.08   0
       100    448.6928    662.3950 300.1417613 +22.6778226     2426.348     70.10362      1.782     4.05    -3.538542     19.80866     157.0098        30     1.406     1.233 -63.05   0
       101    791.7194    662.3740 300.2485428 +22.7807329     526.3598     70.19312      2.029     5.73    -3.953527     19.80866       37.139        10     1.085     0.851  27.60   0
       102    427.0665    661.0916 300.1354590 +22.6709580     770.1639     70.35393      1.742     5.17    -3.540188     19.80866     62.72876        13     1.160     0.992  -5.50   0
       103    181.5139    660.5620 300.0593033 +22.5970881     484.3499     70.19312      1.808     2.98    -4.008213     19.80866     60.94572         7     0.906     0.763 -53.13   0
       104    868.4079    657.8954 300.2738925 +22.8024456      875.559     70.10362      1.656     4.65    -3.947301     19.80866     59.93195        16     1.256     0.906  -4.84   0
       105    748.9086    654.7970 300.2376729 +22.7657175     408.2036     70.12153      1.664     5.54    -3.875948     19.80866     42.82133         8     1.080     0.801  18.33   0
       106    565.3119    649.9018 300.1821073 +22.7092344     115445.2     70.37177      1.854     3.91    -3.271768     19.80866     8136.387       149     1.620     1.615 -75.33   0
       107    251.5087    650.0699 300.0844648 +22.6150966     1884.801     70.33607      1.697     3.54    -3.978036     19.80866     166.9498        24     1.199     1.157 -18.93   0
       108    455.9208    630.3572 300.1544300 +22.6708012     1530.278     70.19312      1.877     3.98     -3.49314     19.80866     111.3492        26     1.293     1.256  69.23   0
       109    852.6338    616.2803 300.2825132 +22.7857666     1017.333     70.15733      1.610     3.93     -3.69302     19.80866     71.46973        17     1.166     0.981 -32.89   0
       110    723.9659    613.8593 300.2432201 +22.7464849     1489.427     70.24677      1.824     4.12    -3.476999     19.80866     98.01579        23     1.284     1.128  51.85   0
       111    968.1724    610.9184 300.3202670 +22.8188671     238.8004     70.22889      1.558     4.33    -3.742935     19.80866     30.49471         5     1.029     0.519  53.27   1
       112    981.1032    607.5868 300.3253819 +22.8217865     742.9586     70.10362      1.661     4.03    -3.729369     19.80866     68.32216        15     1.135     0.950  59.87   0
       113    853.0823    606.3865 300.2858708 +22.7830601     1290.327     70.19312      1.915     4.42    -3.619388     19.80866     77.42613        24     1.354     1.222  79.47   0
       114    966.6954    606.6602 300.3211915 +22.8172013     464.0905      70.2825      1.776     4.58    -3.715316     19.80866      37.9815         8     0.966     0.617 -80.75   0
       115    891.1690    601.3892 300.2993645 +22.7930448     2421.947     70.21101      1.679     3.69    -3.595935     19.80866     166.5897        28     1.276     1.202 -59.44   0
       116    605.8886    602.5199 300.2101461 +22.7078114     495.3475     70.33607      2.986     5.04    -3.086114     19.80866     31.41881         6     1.047     0.686 -54.97   0
       117    982.9310    591.7443 300.3311040 +22.8177839     397.3854     70.22889      1.516     5.42    -3.547361     19.80866     40.60797        10     1.322     0.627 -59.40   0
       118    123.4977    591.7335 300.0636647 +22.5599342     600.9274     70.30037      1.886     4.96    -3.634193     19.80866     68.28964        13     1.336     0.984 -81.93   0
       119    722.8513    576.2366 300.2551079 +22.7353502     257.1373     70.22889      1.400     4.41    -3.378468     19.80866     30.47167         5     0.769     0.720  39.38   0
       120    664.6560    572.6187 300.2381637 +22.7168574     401.2349     70.19312      1.867     4.40    -3.098294     19.80866     35.77833         8     1.077     0.817  -8.44   0
       121    725.3515    564.3191 300.2597617 +22.7326787     556.8605     70.24677      2.019     8.08    -3.368254     19.80866     34.19505        12     1.480     1.234  87.59   0
       122    978.6892    564.5026 300.3386403 +22.8086874     252.9346     70.38961      1.359     4.61    -3.239208     19.80866     33.43826         7     0.911     0.663  73.49   0
       123    882.5688    560.0802 300.3101176 +22.7786030        477.2     70.21101      1.682     4.37    -3.142313     19.80866     43.12521         8     1.218     0.446 -79.10   0
       124    866.5531    556.5117 300.3062870 +22.7727766     337.4439     70.19312      1.764     5.69    -3.097755     19.80866     25.53502         6     0.991     0.921 -24.02   0
       125    611.2618    554.8448 300.2273211 +22.6957400     1244.299     70.22889      1.835     4.43    -2.943253     19.80866     111.5493        25     1.333     1.193  24.43   0
       126    971.7543    553.1964 300.3401546 +22.8033610     256.7926     70.19312      1.412     4.68    -3.102084     19.80866     37.40847         8     1.147     0.542 -71.19   0
       127   1022.3491    533.4717 300.3623430 +22.8128587     757.5592     61.43623      1.636     3.97    -3.016019     19.80866     63.51585        15     1.161     0.897  76.34  24
       128    981.0201    532.4064 300.3498031 +22.8001660     572.3111     70.17523      1.586     4.72    -3.009467     19.80866     52.61876        12     1.015     1.006 -61.54   0
       129    722.1861    528.3500 300.2704707 +22.7214025     701.6123     70.24677      1.913     5.33    -3.246275     19.80866     57.53916        13     1.324     0.859 -75.45   0
       130    288.4460    523.0021 300.1372623 +22.5897424     2034.819     70.21101      1.834     3.52    -3.406004     19.80866     182.4279        29     1.324     1.269 -87.74   0
       131   1021.0532    520.7490 300.3660754 +22.8088151     2512.891     66.65135      1.579     3.25     -3.01845     19.80866     199.1197        26     1.166     1.155  60.42  24
       132    235.5894    517.7055 300.1225566 +22.5723582     4231.179     70.15733      1.849     3.64    -3.368883     19.80866     364.0333        39     1.464     1.297  83.38   0
       133    376.1970    511.9341 300.1681410 +22.6129018     2810.422     70.22889      1.907     4.12    -3.416469     19.80866     189.0648        35     1.437     1.340 -76.77   0
       134   1001.1024    511.7038 300.3627951 +22.8002372     1185.352     70.38961      1.643     4.48    -3.013368     19.80866     84.35508        21     1.324     1.052 -65.04   0
       135    620.3251    508.3903 300.2452450 +22.6851238     10443.93     70.21101      1.951     4.26    -2.864527     19.80866      710.235        61     1.582     1.514  -9.37   0
       136    953.1741    490.4249 300.3547702 +22.7797596     390.4536     70.17522      1.585     4.41    -2.987362     19.80866     39.51758         8     1.008     0.698 -75.37   0
       137    175.0176    488.9620 300.1130787 +22.5459324     1168.422     70.21101      1.886     3.89    -3.194356     19.80866     100.9637        22     1.213     1.202  38.25   0
       138    561.0112    477.8604 300.2367079 +22.6585696     3795.241     70.15733      2.032     4.38    -2.465724     19.80866     237.8538        46     1.597     1.497   1.45   0
       139    974.5931    477.7420 300.3655703 +22.7825352     651.6873     70.19312      1.639     5.10    -2.997062     19.80866     61.10531        15     1.223     0.916 -48.61   0
       140    765.4656    466.5595 300.3040362 +22.7166366     596.5175     70.17523      2.092     6.26    -3.048772     19.80866      40.5961        10     1.189     0.925   2.21   0
       141    467.6742    464.2294 300.2120974 +22.6266590     3426.693     70.22889      1.907     4.37    -2.558672     19.80866     227.8437        37     1.460     1.388  61.41   0
       142    859.6552    458.3540 300.3360475 +22.7425161     778.7411     70.24677      1.811     5.19    -2.967584     19.80866       67.284        20     1.375     1.072 -82.42   0
       143    957.4834    458.4142 300.3665185 +22.7718545      275.357     70.17523      1.693     3.96    -2.976758     19.80866     33.60071         6     0.911     0.492  -1.73   0
       144    832.7347    446.2258 300.3316011 +22.7309628     324.9198     70.19312      1.759     3.83    -3.002079     19.80866     26.77599         5     0.836     0.626 -42.35   0
       145    355.2588    443.6930 300.1838102 +22.5870389     1428.531     70.26463      1.973     4.53    -3.325889     19.80866     101.3883        26     1.341     1.298 -20.05   0
       146     73.9006    441.4037 300.0971266 +22.5019387     423.5924     70.10362      1.457     3.62    -3.022625     19.80866     49.20419         9     0.854     0.801  40.00   0
       147    324.5845    433.0231 300.1777407 +22.5747735     16849.65     70.21101      1.928     4.06    -3.232076     19.80866     1129.564        63     1.559     1.531  73.19   0
       148    858.9948    429.8339 300.3451108 +22.7341256     703.8709     70.19312      1.733     5.78      -2.9618     19.80866     56.11369        16     1.269     0.969  46.19   0
       149     21.0604    421.0123 300.0873453 +22.4802277     2806.425     70.17522      1.655     3.14     -2.93142     19.80866     243.9524        32     1.381     1.197 -62.30   0
       150    774.6483    418.4897 300.3225189 +22.7055837     406.8146     70.21101      2.389     5.09    -3.055008     19.80866     27.19497         5     1.332     0.550  47.06   0
       151    734.8083    412.4242 300.3120810 +22.6918981     1067.452     70.21101      2.111     5.20    -3.054034     19.80866     69.04732        21     1.285     1.170 -49.08   0
       152    950.1284    405.2509 300.3815032 +22.7543753     446.8532     70.21101      2.231     4.78    -2.952785     19.80866     36.00808         7     1.046     0.618 -17.28   0
       153    396.7562    397.6829 300.2116646 +22.5862855     1241.747     70.17523      2.114     4.65    -2.927232     19.80866     78.15683        23     1.316     1.212 -44.91   0
       154    835.6725    390.1573 300.3507367 +22.7157373     380.2439     70.19312      1.947     4.16    -2.981413     19.80866     24.49457         6     0.755     0.656  22.88   0
       155    473.2181    376.9494 300.2421834 +22.6032702     543.4316     70.21101      1.572     5.02    -2.393445     19.80866     53.47478        11     1.340     0.647 -64.15   0
       156    717.1962    368.6018 300.3208349 +22.6740320     1247.415     69.99607      2.033     4.32    -3.052683     19.80866     93.01876        24     1.294     1.278  52.34   0
       157    978.4351    362.3064 300.4042816 +22.7505165     1722.639     70.17523      1.769     4.13    -3.040132     19.80866     123.0017        26     1.369     1.221 -70.68   0
       158    426.1648    353.0003 300.2353275 +22.5822823     328.3674     70.17523      1.920     4.60    -2.293526     19.80866     27.97383         5     1.205     0.498 -24.38   0
       159    100.7725    346.9369 300.1361633 +22.4829114     824.0999     70.21101      1.861     4.60    -3.104481     19.80866     73.26894        18     1.284     1.072  38.63   0
       160    131.3890    346.4436 300.1458331 +22.4919587     373.9662     70.21101      1.475     4.21    -3.044011     19.80866     39.38004         7     1.121     0.451 -79.57   0
       161    788.2228    330.4409 300.3553547 +22.6843603     384.6102     70.24677      1.882     2.95    -3.069167     19.80866     38.67455         5     0.805     0.661 -56.35   0
       162    887.0311    318.7828 300.3899289 +22.7106215      1123.57     70.19312      1.750     5.31    -2.884407     19.80866      90.3036        24     1.448     1.208  84.89   0
       163    305.7217    316.4385 300.2097524 +22.5356590     1171.088     70.19312      1.946     4.57    -2.525955     19.80866     87.90566        23     1.350     1.208  50.72   0
       164    384.0153    311.5231 300.2356918 +22.5577339     572.3968     70.22889      2.397     7.03    -2.489376     19.80866     36.23979        13     1.370     1.012  81.46   0
       165    200.3716    304.5819 300.1808610 +22.5006492     367.6906     70.19312      1.836     5.53    -2.627622     19.80866     40.38369         9     1.463     0.665 -48.48   0
       166    802.8099    300.7507 300.3695430 +22.6802020      402.589     70.22889      1.615     3.42    -3.079823     19.80866     29.38975         5     0.964     0.351 -45.03   0
       167    737.8090    300.1147 300.3495021 +22.6605381      944.204     70.15733      2.209     8.15    -3.087149     19.80866     50.77657        22     1.548     1.201  52.06   0
       168   1009.4332    292.5767 300.4365983 +22.7397615     409.4783     70.21101      1.685     4.07    -3.147247     19.80866     42.42658        10     1.047     0.949 -72.98   0
       169    663.7640    291.0292 300.3293952 +22.6357336     604.8624     70.22889      1.833     5.30    -2.917149     19.80866     41.95828        11     1.340     0.622 -56.10   0
       170    741.7998    290.4817 300.3538738 +22.6589669     388.9785     70.08571      2.015     3.75    -3.092811     19.80866       26.279         5     1.042     0.387  84.05   0
       171    857.8931    282.2950 300.3927000 +22.6914054     732.4401     70.37177      1.773     6.29    -2.859004     19.80866     55.26405        14     1.338     1.059  45.74   0
       172    589.4996    282.9036 300.3089155 +22.6111365     373.9469     70.40745      1.680     4.42    -2.616465     19.80866     40.45919         6     1.140     0.487  83.77   0
       173    869.9007    282.1373 300.3964930 +22.6949581     452.3792     70.30037      1.808     4.82    -2.841083     19.80866     34.07374         8     1.108     0.595  -7.59   0
       174    986.8011    271.4921 300.4363894 +22.7269212     622.5228     70.10362      1.869     5.79    -2.885587     19.80866     43.42429        14     1.482     0.808   2.69   0
       175     83.2091    260.3444 300.1588308 +22.4528000      1247.54     70.21101      1.912     4.98    -2.842432     19.80866     96.71609        20     1.321     1.188  10.33   0
       176    905.6790    256.7953 300.4158737 +22.6983948     480.6878     70.12153      1.687     5.69    -2.696359     19.80866     37.04831         9     1.007     0.905  82.92   0
       177     32.5955    256.9923 300.1442020 +22.4366490     307.3204     70.06779      1.596     2.79    -2.935171     19.80866     36.46764         5     0.749     0.573   1.13   0
       178    240.3678    253.3360 300.2099315 +22.4979432       3210.6     70.21101      1.913     3.96    -2.475188     19.80866     235.6756        36     1.478     1.328  76.82   0
       179     24.7051    248.0647 300.1446508 +22.4317200      771.923     70.30037      1.706     3.85    -2.898647     19.80866     60.77853        13     1.047     0.927  -2.72   0
       180    884.2404    234.4525 300.4164474 +22.6855503     1939.343     70.21101      1.909     4.36    -2.563214     19.80866     124.9467        28     1.419     1.195 -67.99   0
       181    987.6786    233.2086 300.4490954 +22.7161790     1493.242     70.17523      1.731     4.49    -2.485785     19.80866     113.1321        24     1.385     1.138  59.21   0
       182    434.4074    230.3961 300.2777094 +22.5495563     455.6838     70.04987      1.844     4.04    -2.335298     19.80866     36.25245         6     0.859     0.542 -42.24   0
       183    485.0676    216.9850 300.2978231 +22.5608956     890.0778     70.19312      1.978     6.61    -2.419548     19.80866     83.23082        22     1.506     1.252  78.06   0
       184    259.2791    197.2032 300.2340336 +22.4875050     3357.203     70.12153      1.944     3.99    -2.327078     19.80866     271.8587        39     1.531     1.402 -85.55   0
       185    110.3168    197.5585 300.1876345 +22.4429197     447.6238     70.17523      2.021     3.45    -2.387872     19.80866     33.42642         5     0.753     0.456 -19.24   0
       186     21.2386    187.3839 300.1632743 +22.4132718     301.4708     70.22889      1.564     5.21    -2.753029     19.80866      32.0144         6     1.068     0.719  14.05   0
       187    505.2014    182.4598 300.3152958 +22.5570166     3506.838     70.17523      2.044     4.30    -2.419922     19.80866     225.3724        37     1.479     1.395  -6.43   0
       188    391.5035    182.4263 300.2799391 +22.5229174     439.3767     70.17523      1.424     3.37    -2.123455     19.80866     39.44966         6     0.916     0.409 -69.47   0
       189    633.4553    162.4844 300.3616967 +22.5897225      3621.35     70.30037      1.985     4.33    -2.257454     19.80866     240.3015        38     1.515     1.411 -89.34   0
       190    408.3287    161.6685 300.2919099 +22.5220019     840.7213     70.24677      2.070     6.64    -1.971694     19.80866     56.72986        20     1.524     1.123  60.10   0
       191    690.7705    156.4057 300.3815153 +22.6051524     398.0665     70.21101      1.809     3.43    -1.918908     19.80866     26.95122         5     0.754     0.450 -18.93   0
       192    157.8190    154.4162 300.2163944 +22.4447899     410.7583     70.19312      1.799     4.53    -2.146715     19.80866     32.67319         7     0.940     0.620 -80.01   0
       193    677.5691    147.2705 300.3803698 +22.5985715     1654.128     70.21101      1.986     5.22    -1.911719     19.80866     103.4308        30     1.488     1.352  42.20   0
       194    764.2540    138.5331 300.4102026 +22.6220347     734.6029     70.24677      1.808     6.58    -1.823036     19.80866     71.26604        15     1.273     0.955 -83.20   0
       195    507.9883    131.7637 300.3326185 +22.5432911     560.9918     70.19312      1.856     6.18     -2.20405     19.80866     43.18813        10     1.322     0.877  -9.89   0
       196    411.5026    129.4583 300.3033515 +22.5137038     446.1873      70.2825      1.892     7.28    -1.943022     19.80866     32.46486        11     1.402     1.059  25.64   0
       197    183.2168    119.8514 300.2355032 +22.4424874     2285.652     70.21101      1.887     3.67    -1.981193     19.80866     191.0545        30     1.404     1.279  89.83   0
       198    299.2564    112.1095 300.2740795 +22.4750660     731.5086     70.26463      1.806     5.59    -2.177102     19.80866     61.94682        14     1.386     0.982 -68.05   0
       199    744.6509    112.5011 300.4125456 +22.6086800     417.9324     70.30037      1.718     5.56     -1.64341     19.80866     38.26131         9     1.276     0.684 -69.03   0
       200    802.1472    103.1198 300.4335008 +22.6232085     1303.573     70.22889      2.055     4.62    -1.685016     19.80866     88.87009        24     1.340     1.212 -80.74   0
       201    185.2023     99.4661 300.2427353 +22.4372314     653.1329     70.21101      1.914     5.16    -1.877689     19.80866     54.77523        12     1.318     0.892 -28.61   0
       202    977.1030     96.5925 300.4901469 +22.6737325     399.0909     70.10362      1.604     5.16    -1.904189     19.80866     38.01496         7     0.993     0.759  54.96   0
       203    750.4233     95.8085 300.4197608 +22.6056118     581.3599     70.21101      1.934     5.53     -1.56926     19.80866     34.76868        11     1.154     0.748 -40.27   0
       204    603.7131     81.7695 300.3786339 +22.5576186     389.0136     70.19312      1.559     3.38    -1.810308     19.80866     37.21788         5     0.935     0.353 -43.98   0
       205    766.3587     75.6290 300.4312729 +22.6045856     366.9877     70.22889      1.803     6.09    -1.515095     19.80866     30.73323         9     1.258     0.828  -9.36   0
       206    574.7015     73.6744 300.3722304 +22.5465986     1153.339     70.33607      1.984     5.03    -1.722126     19.80866     68.02591        24     1.364     1.247 -89.98   0
       207     12.6439     70.4241 300.1985621 +22.3771337      447.036     70.24677      1.690     6.38    -2.303328     19.80866     32.92599        12     1.286     0.888 -85.10   0
       208    297.8815     71.4455 300.2868472 +22.4629777     379.4037     70.19312      1.815     4.69    -2.157164     19.80866     34.26327         6     0.962     0.648  26.63   0
       209    531.9091     68.2635 300.3606685 +22.5322195      740.683     70.30037      1.884     4.69    -1.719119     19.80866     65.06815        17     1.241     1.130 -15.64   0
       210    637.5800     64.3954 300.3948144 +22.5627746     714.2284     70.17523      1.847     5.80    -1.578951     19.80866     57.94624        15     1.268     0.964 -44.54   0
       211    457.7023     58.4650 300.3407594 +22.5071631     1107.004     70.31822      1.855     4.16    -2.010709     19.80866     88.61148        22     1.236     1.225  61.52   0
       212    105.1663     55.9094 300.2320037 +22.4007228     751.3895     70.19312      1.786     5.55    -1.640607     19.80866     60.61805        19     1.483     1.048 -65.99   0
       213    166.2965     38.3726 300.2566831 +22.4140232      709.686     70.13943      1.933     3.57    -1.351728     19.80866     55.92636        13     1.033     0.873   6.42   0
       214    767.0872   1016.3158 300.1256496 +22.8749040     521.7972     70.33607      1.304     2.44    -5.482738     19.80866     79.46448         9     0.827     0.712 -62.03   0
       215    545.1679   1016.8521 300.0563918 +22.8084324     389.1759     70.22889      1.615     3.73    -5.681133     19.80866     42.38213         5     1.300     0.307 -60.73  16
       216     86.4085   1021.0000 299.9124438 +22.6717959     1003.987     66.68902      5.793    11.27    -2.194123     19.80866      46.8791        14     2.064     1.715 -34.12  19
