#   1 NUMBER                 Running object number                                     
#   2 X_IMAGE                Object position along x                                    [pixel]
#   3 Y_IMAGE                Object position along y                                    [pixel]
#   4 ALPHA_J2000            Right ascension of barycenter (J2000)                      [deg]
#   5 DELTA_J2000            Declination of barycenter (J2000)                          [deg]
#   6 FLUX_APER              Flux vector within fixed circular aperture(s)              [count]
#   7 FLUXERR_APER           RMS error vector for aperture flux(es)                     [count]
#   8 FLUX_RADIUS            Fraction-of-light radii                                    [pixel]
#   9 FWHM_IMAGE             FWHM assuming a gaussian core                              [pixel]
#  10 BACKGROUND             Background at centroid position                            [count]
#  11 THRESHOLD              Detection threshold above background                       [count]
#  12 FLUX_MAX               Peak flux above background                                 [count]
#  13 ISOAREA_IMAGE          Isophotal area above Analysis threshold                    [pixel**2]
#  14 A_IMAGE                Profile RMS along major axis                               [pixel]
#  15 B_IMAGE                Profile RMS along minor axis                               [pixel]
#  16 THETA_IMAGE            Position angle (CCW/x)                                     [deg]
#  17 FLAGS                  Extraction flags                                          
         1    596.3232      8.2625 300.3788636 +22.5571079     439.6024     70.01349      1.384     3.39    -2.663224     19.73786     50.05228         8     0.889     0.628 -80.13   0
         2    205.5305      5.7137 300.2581115 +22.4392772     335.1467     70.06689      1.367     4.02    -2.109048     19.73786     46.23762         8     1.074     0.727 -38.34  16
         3    759.1841      3.0263 300.4312901 +22.6043759     313.2295      62.8842      1.281     4.06    -1.663407     19.73786     47.32147         7     0.921     0.511  45.57  16
         4    567.7200      1.6712 300.3720957 +22.5466460     951.7936      56.4047      1.176     2.86    -2.657513     19.73786     139.6094        12     1.026     0.690  14.16  24
         5    167.6411   1009.1036 299.9202364 +22.7156811     674.8118     69.97787      4.069     4.10     18.27374     19.73786     28.80356         5     0.878     0.679  59.24   2
         6    207.3216   1021.0095 299.9286897 +22.7310119     1943.161     66.52566     13.911    27.35      11.3956     19.73786     66.37175       131     5.878     3.533   0.07  27
         7    242.5976   1016.1995 299.9412202 +22.7402303      5259.17     69.74589      9.459    31.74     3.318186     19.73786     142.2616       571     8.450     5.906  43.44  26
         8    195.2796   1022.8134 299.9243599 +22.7279113     885.7476     58.99738      3.793     6.23     14.75511     19.73786     49.69289        12     1.330     0.820  54.00  25
         9    172.7853   1020.9250 299.9179849 +22.7206128     1717.898     66.84347      5.813    12.84     19.88865     19.73786     52.99351        45     2.381     1.926  87.21  26
        10     83.4981    959.4976 299.9102493 +22.6761931      1826.56     70.15579     29.738    71.48     3.430769     19.73786     129.0343       528    19.175     7.394 -60.95  19
        11    657.3453    997.1905 300.0764450 +22.8593065     4047.601     69.96005      1.129     1.99    -5.113647     19.73786     659.9082        20     0.963     0.805  23.93   0
        12    223.7193   1022.4395 299.9333202 +22.7363473     2408.282     60.74644      4.847    15.29     7.268116     19.73786     66.40591        69     3.249     2.001  14.47  27
        13     81.9663    979.3831 299.9032985 +22.6814288     2549.966     69.94223     20.811    31.58     7.974541     19.73786     61.30235       225     9.073     3.051 -20.35  19
        14     55.1848    997.2680 299.8891564 +22.6785045     990.5354     69.96005      5.079     5.14     3.571371     19.73786     39.83312         5     1.020     0.733 -17.90   1
        15    237.0563    993.1739 299.9469966 +22.7319689     949.3602     69.96005      6.410     8.90     2.131443     19.73786      41.0476        19     2.034     1.086  42.36   1
        16    536.9792    991.6772 300.0407686 +22.8215983     291.4291     69.96005      0.988     2.08    -4.930027     19.73786     50.03063         7     0.691     0.632  -5.13   0
        17    248.8266    991.4734 299.9512090 +22.7350169     200.2747     69.96005      0.996     2.19    0.4903985     19.73786     61.78007         6     0.722     0.497   5.21   0
        18    565.8247    987.9808 300.0509507 +22.8291970      784.673     69.97787      1.023     1.67    -4.984672     19.73786      199.915        11     0.802     0.730  48.58   0
        19     12.9399   1020.9534 299.8683241 +22.6725932     620.9814     66.82481      6.350     8.57     -11.6124     19.73786     28.38499         9     1.922     1.066 -46.95  25
        20    154.0313   1000.8929 299.9186816 +22.7092405     890.4501     69.88874      5.789     7.70     17.85604     19.73786     37.96111        12     2.416     0.686  52.58   2
        21    390.3689    982.6041 299.9981080 +22.7749817     3797.906     69.94223      1.051     1.86    -4.904205     19.73786     612.1189        21     0.949     0.827 -77.60   0
        22    459.6564    984.4164 300.0190718 +22.7963043     540.9529     69.92441      1.023     2.21    -4.928015     19.73786     103.2663         6     0.777     0.457 -17.02   0
        23    115.9914    982.4691 299.9128629 +22.6925350      1200.04     69.94223      7.860     8.86     12.62368     19.73786     39.88447        22     1.529     1.435  68.40   2
        24     67.2093   1002.6171 299.8911491 +22.6836494     2474.327     69.90657     21.096    39.22     8.411916     19.73786     53.66109       288     9.269     4.605 -51.81  19
        25    936.5658    960.9731 300.1752429 +22.9326869      1170.55     69.97787      1.010     1.74    -4.763587     19.73786     260.6779        12     0.801     0.724 -27.52   0
        26    725.1436    949.2780 300.1131639 +22.8659094     442.5764     69.99568      1.109     2.16    -5.141939     19.73786     66.79085         4     0.615     0.438 -12.66   2
        27     87.5766    998.3051 299.8988794 +22.6885340      3384.87     69.85305     23.532    62.59     14.37746     19.73786     79.45385       845    12.255     8.869 -76.13  19
        28    760.1657    944.1974 300.1257283 +22.8749595     690.9291      69.9244      1.160     1.70    -5.177109     19.73786     138.6075        10     0.787     0.682  60.81   0
        29    782.4078    937.8658 300.1347198 +22.8798159     6652.885     69.97787      1.022     1.68    -5.161173     19.73786      1284.06        26     0.883     0.847 -32.72   0
        30    973.2700    937.3544 300.1943789 +22.9369160     231.7874     69.94223      1.139     2.92    -4.697112     19.73786     42.06685         5     0.723     0.456  14.98   0
        31    828.0705    937.6309 300.1490250 +22.8934465     266.8445     69.96005      0.904     2.13    -5.051442     19.73786     73.59507         5     0.712     0.425 -23.53   0
        32    915.4792    931.6471 300.1782185 +22.9179469     240.4762     69.97787      0.990     3.39    -4.735147     19.73786     56.12226         5     0.824     0.403  65.75   0
        33     93.7757    929.7140 299.9231388 +22.6707491     528.0327     69.92441      1.306     3.68    -3.281023     19.73786     66.13392         9     1.107     0.562  77.28   0
        34    487.4599    926.0273 300.0467358 +22.7879114     201.6791     69.96005      1.049     2.49    -4.924005     19.73786     42.94794         6     0.760     0.498  88.80   0
        35    790.9379    919.9736 300.1432035 +22.8772416     795.3562     69.96005      1.059     1.62    -5.002374     19.73786     204.0249        11     0.843     0.622  86.00   0
        36    829.0717    913.4382 300.1572144 +22.8868053     507.8927      69.9244      1.023     1.80     -4.87402     19.73786     94.57934         6     0.697     0.495   3.59   0
        37    168.7218    913.3679 299.9517447 +22.6885783     325.6411     69.94223      0.956     3.46    -1.645552     19.73786     35.19445         5     0.736     0.470 -11.18   0
        38    729.0854    903.7983 300.1292001 +22.8540455     410.2377     69.88874      1.189     1.73    -4.955872     19.73786     89.05298         6     0.657     0.540 -47.57   0
        39    441.5326    900.3127 300.0408177 +22.7667526     2434.271     70.06689      1.075     1.87    -4.751084     19.73786     447.4299        18     0.909     0.806 -81.95   0
        40    740.0566    901.0245 300.1335208 +22.8565411      461.951     69.96005      1.257     2.39    -4.917594     19.73786     71.38464         7     0.712     0.628 -86.35   0
        41    219.7537    889.3173 299.9754332 +22.6970130     188.7639     69.92441      0.963     2.38    -3.892554     19.73786     48.02545         5     0.714     0.445 -14.27   0
        42      1.7578   1022.3137 299.8644090 +22.6696223     503.3917     49.38095      2.060     5.15    -16.42889     19.73786     41.41882         6     1.182     0.634 -75.09  25
        43     83.2492    888.1291 299.9334062 +22.6556739     378.2934     69.96005      1.399     3.43    -4.253424     19.73786     32.74597         5     0.997     0.342 -43.43   0
        44    166.7555    885.5175 299.9601998 +22.6800077     577.1445     69.92441      1.690     4.70    -2.912909     19.73786     83.41817         9     1.140     0.607  89.07   0
        45    143.9738    883.0706 299.9539176 +22.6724643     889.8718     69.96005      1.157     2.02    -3.301777     19.73786     183.3259        12     0.851     0.742  70.13   0
        46     75.1671    884.3375 299.9321300 +22.6521599     246.1227     69.96005      1.013     3.30    -4.350037     19.73786     40.37143         5     0.734     0.452  13.81   0
        47   1015.5234    871.7324 300.2289221 +22.9307490     1245.147      70.0491      0.986     1.70    -4.673979     19.73786     241.6421        12     0.758     0.737 -13.72   0
        48    969.7734    870.2559 300.2151349 +22.9166082     1293.264     69.96005      1.095     1.67    -4.627812     19.73786     272.5751        13     0.791     0.743  57.34   0
        49    175.9418    864.6552 299.9698449 +22.6767885     254.6895     70.01349      1.314     2.23    -3.980823     19.73786     51.73859         5     0.762     0.480 -59.72   0
        50    753.2285    864.1148 300.1496399 +22.8499029     280.5028     69.96005      0.916     1.78     -4.64381     19.73786     84.02684         6     0.665     0.540  47.36   0
        51    621.3969    858.2324 300.1104959 +22.8086648     2790.112     69.94223      1.053     1.87    -4.781452     19.73786      482.739        18     0.842     0.822  38.64   0
        52    110.9388    859.1104 299.9514529 +22.6556770     303.4513      70.0491      1.190     1.77    -4.403494     19.73786     66.75947         5     0.700     0.463  57.26   0
        53    423.8404    855.3367 300.0499541 +22.7485467     315.7898     69.94223      1.079     2.15    -4.535536     19.73786     72.13168         6     0.691     0.600  69.71   0
        54    171.5708    852.1247 299.9725649 +22.6718850     745.7318     69.97787      1.085     2.14    -4.064464     19.73786     153.8127        10     0.833     0.681  46.25   0
        55    641.8259    850.7230 300.1193012 +22.8126402     474.8339     69.97787      1.043     1.92    -4.770754     19.73786     96.05546         8     0.747     0.597 -53.88   0
        56    190.8622    849.2425 299.9794979 +22.6768524     39.45103     69.96005      1.086     3.71    -4.085628     19.73786     42.28128         6     0.912     0.553 -67.25   0
        57    797.3752    837.8497 300.1719440 +22.8556080     2490.936     69.97787      1.070     1.71    -4.556589     19.73786     479.3742        19     0.911     0.804  75.77   0
        58   1014.3273    837.8661 300.2395733 +22.9206677     749.5475     69.99568      1.010     1.53    -4.674114     19.73786     166.2723         9     0.765     0.601  36.02   0
        59    206.2374    832.4222 299.9897504 +22.6766488       296.94     69.97787      1.258     4.84    -4.128757     19.73786     53.09623         9     1.260     0.827 -53.33   0
        60    514.2979    830.4595 300.0861970 +22.7685618      434.164      70.0313      1.144     2.98     -4.56735     19.73786     61.54525         7     0.802     0.668 -63.19   0
        61    160.8706    828.7444 299.9768490 +22.6619715     683.4717     69.97787      1.214     2.70    -4.257051     19.73786     105.1927        10     0.946     0.644 -70.83   0
        62    310.5656    820.7281 300.0259879 +22.7046208      31142.3     69.96005      1.128     1.93    -4.318041     19.73786     5202.275        63     1.102     1.057 -80.54   0
        63    568.4568    819.6302 300.1065784 +22.7817075     1020.425     69.97787      1.060     1.99    -4.637375     19.73786     156.0937        14     0.826     0.825  67.68   0
        64    981.2404    818.6983 300.2354931 +22.9052453     666.4785     69.96005      1.154     1.94    -4.630105     19.73786     99.75439         9     0.783     0.628  18.01   0
        65    238.6693    818.6370 300.0043168 +22.6824359     318.0663     69.94223      1.085     2.42    -4.102456     19.73786     57.40089         6     0.767     0.551 -45.55   0
        66    597.2659    815.6355 300.1168470 +22.7892056     442.4746     69.96005      1.105     2.28    -4.653749     19.73786     86.75235         9     0.842     0.620  69.37   0
        67    608.3409    814.1260 300.1207863 +22.7920954     422.9742     69.99568      1.305     2.21     -4.65996     19.73786      71.1507         7     0.708     0.620 -79.94   0
        68    751.2151    800.5042 300.1697164 +22.8310464     459.4614     69.88874      1.091     1.98    -4.432468     19.73786     96.38622         8     0.776     0.585  54.55   0
        69    360.2926    797.9267 300.0488716 +22.7130111     18565.36     70.08468      1.156     1.96    -4.569177     19.73786     3234.289        45     1.032     1.009  82.88   0
        70    374.5826    798.2962 300.0531957 +22.7174064      1239.07      69.8709      1.107     2.04    -4.560853     19.73786     183.1241        13     0.918     0.742 -89.51   0
        71    883.3326    793.5641 300.2131467 +22.8686750     1683.903     69.96005      1.060     1.78    -4.444307     19.73786     305.0294        15     0.862     0.775 -44.90   0
        72    641.1968    789.6540 300.1389804 +22.7949319     540.8138      69.9244      1.102     2.42    -4.670276     19.73786     88.42046         8     0.842     0.570   3.42   0
        73    477.3348    789.6349 300.0879799 +22.7457611     281.4384     69.96005      1.279     2.99    -4.384909     19.73786     40.54165         6     0.825     0.500  42.57   0
        74    242.8986    789.7000 300.0150477 +22.6754112     482.3959     70.19133      1.180     2.63     -4.08168     19.73786     68.62804         7     0.734     0.632  -5.87   0
        75    488.5158    784.7374 300.0930528 +22.7477117     534.9545      70.0491      1.191     2.41    -4.365237     19.73786     78.25449        10     0.850     0.734  62.08   0
        76     47.4728    785.2611 299.9557709 +22.6154553     270.4312     69.99568      0.985     1.82     -4.46653     19.73786     58.54293         5     0.650     0.459  64.81   0
        77    889.4295    781.2979 300.2190390 +22.8669820     347.5411     69.88874      1.194     2.18    -4.424745     19.73786      54.0595         5     0.675     0.461  68.67   0
        78    434.5291    779.7638 300.0778734 +22.7300841     146.8995     69.96005      0.928     3.06    -4.480209     19.73786     41.65433         5     0.726     0.456  68.84   0
        79    866.7447    775.7169 300.2137839 +22.8585781     129.4439     70.01349      1.155     2.81    -4.337749     19.73786     64.49583         6     0.851     0.667  16.41   0
        80    555.1489    760.1896 300.1217783 +22.7606639     786.4887     69.97787      1.136     2.02     -4.34576     19.73786     147.6635        10     0.786     0.694  77.22   0
        81    949.5671    758.7787 300.2451159 +22.8785468     2613.525     69.96005      1.014     1.65    -4.611971     19.73786     534.8073        17     0.846     0.774 -46.00   0
        82    475.4623    759.1738 300.0973087 +22.7364626     171.2406     69.96005      1.344     4.60    -4.274665     19.73786      28.4746         6     1.010     0.595 -23.73   0
        83    636.5891    754.8766 300.1488617 +22.7835716     216.6498     69.96005      0.831     1.72    -4.664745     19.73786     49.46196         5     0.647     0.460  67.47   0
        84    938.0103    750.2820 300.2442771 +22.8726427     972.5726      69.9244      1.099     1.84    -4.577879     19.73786     203.0035        11     0.762     0.723 -38.50   0
        85    301.2844    744.5506 300.0478887 +22.6799948     427.1164     69.94223      1.108     2.68    -4.042228     19.73786      81.0763         9     0.862     0.671 -75.98   0
        86    764.3002    741.4955 300.1929940 +22.8180359     1642.155     70.15579      1.172     1.87    -4.537376     19.73786     274.3111        16     0.907     0.821  81.51   0
        87    969.1456    740.3062 300.2572315 +22.8791118     835.3068     70.01349      1.036     1.70    -4.698146     19.73786     185.6661        10     0.743     0.652  89.72   0
        88    150.0752    728.6035 300.0060767 +22.6300291     466.0968      69.8709      1.293     3.06    -4.470727     19.73786     56.86969         9     0.806     0.762  44.97   0
        89    882.8420    718.5104 300.2374147 +22.8469818     85989.85     69.96005      1.097     1.80     -4.22416     19.73786     15334.24       104     1.145     1.093 -85.91   0
        90    735.2593    718.8448 300.1913157 +22.8028260     487.2546     69.97787      1.072     2.49    -4.476413     19.73786     72.29991         7     0.813     0.579 -29.20   0
        91    915.5938    710.9184 300.2500948 +22.8546206     193.3446     69.88874      0.961     1.66    -4.314872     19.73786     73.60835         6     0.708     0.491  87.98   0
        92    569.0877    707.4670 300.1432694 +22.7497200     1011.961      70.0491      1.107     1.93    -4.145524     19.73786     177.2274        10     0.813     0.653  62.83   0
        93    750.3483    704.7181 300.2006120 +22.8032963     5550.232     69.97787      1.124     1.91    -4.338207     19.73786     910.4098        27     0.965     0.918 -16.29   0
        94    251.9592    700.1228 300.0470058 +22.6524507     2829.359     69.94223      1.219     2.06    -4.012813     19.73786     489.4798        21     0.948     0.918 -77.41   0
        95    334.0836    698.1232 300.0731903 +22.6765265     605.5322     70.06689      1.156     2.26    -4.026782     19.73786     118.2973        11     0.921     0.684 -46.60   0
        96    209.5193    695.9523 300.0351704 +22.6385154     246.1516     69.97787      1.083     3.60    -4.073491     19.73786     36.54836         6     0.786     0.500 -89.68   0
        97    542.1245    693.6795 300.1393612 +22.7376756     371.5957     70.06689      1.115     2.44    -3.987434     19.73786     63.86661         7     0.711     0.635 -44.80   0
        98    533.7843    685.6816 300.1393667 +22.7328790     1854.924     69.94223      1.227     2.20    -3.952614     19.73786     271.5031        19     0.956     0.908  85.02   0
        99    524.1363    679.4354 300.1383955 +22.7281926     881.8737     69.96005      1.203     2.27    -3.919927     19.73786     125.8226        10     0.829     0.690 -73.65   0
       100    452.7541    678.4252 300.1165107 +22.7064871     195.5031     69.97787      1.490     3.91    -3.921802     19.73786     32.55879         5     1.049     0.417  83.48   0
       101    917.7824    676.9872 300.2618149 +22.8455337     270.0802      69.9244      1.241     1.98    -4.111296     19.73786     53.27148         5     0.741     0.453  30.86   0
       102    187.4813    675.6396 300.0349277 +22.6260763     280.7036     69.92441      1.089     2.35    -4.076135     19.73786     76.15427         6     0.760     0.521  45.86   0
       103    201.6594    674.3188 300.0397636 +22.6299537     431.0236      70.0313      1.243     2.84    -4.031857     19.73786     63.39639         6     0.818     0.517  41.13   0
       104    227.3498    671.0703 300.0488051 +22.6367338     218.5094     69.96005      1.127     2.68    -3.967967     19.73786      51.4068         7     0.824     0.570 -60.37   0
       105    448.9020    669.1476 300.1183296 +22.7026700     1055.298      70.0491      1.181     2.02    -3.874629     19.73786     177.5414        14     0.901     0.806  71.54   0
       106   1023.7108    666.3959 300.2982933 +22.8742404     389.6156     54.10333      0.899     1.99    -4.959933     19.73786     95.54819         6     0.814     0.401 -72.64  24
       107    102.9308    664.2722 300.0123531 +22.5974344     11664.72      70.0313      1.218     2.01    -4.264457     19.73786     1924.105        43     1.105     1.001  61.79   0
       108    533.7078    664.4470 300.1462495 +22.7267636     543.1162     69.97787      1.308     2.57    -3.836237     19.73786      79.0299        10     0.849     0.770  -7.62   0
       109     23.8896    665.6116 299.9873666 +22.5740856     425.2787     69.90657      1.201     2.20    -4.204482     19.73786     64.47115         6     0.745     0.484  -5.74   0
       110    568.6791    663.8071 300.1573433 +22.7370702     188.1948     69.88874      1.335     4.46    -3.861451     19.73786     29.94287         6     0.944     0.600 -25.91   0
       111    951.7133    650.4143 300.2810375 +22.8480729     591.4811     69.90657      1.044     1.99    -4.068029     19.73786     99.82961         9     0.838     0.600 -85.04   0
       112     48.9748    648.4486 300.0007386 +22.5766988     1128.244     69.97787      1.826     4.44     -4.25526     19.73786     99.93466        18     1.369     0.910 -79.83   0
       113    818.7027    648.7613 300.2401115 +22.8077278     154.6372     69.94223      1.198     3.74    -3.989585     19.73786     37.05025         5     0.849     0.474  43.43   0
       114    497.0642    645.0434 300.1411554 +22.7102040     195.8985     69.96005      1.089     3.64    -3.719318     19.73786     36.06688         5     0.641     0.596 -87.08   0
       115    892.0909    643.1726 300.2648036 +22.8281227     426.2697      69.9244      1.075     1.59    -3.991591     19.73786     92.03127         6     0.642     0.531  50.64   0
       116    453.9815    637.4240 300.1302270 +22.6950932     505.3885     69.97787      1.379     2.81    -3.742777     19.73786       64.009         8     0.829     0.635  89.00   0
       117    649.3032    634.4911 300.1919801 +22.7528383      266.434     70.13802      1.359     4.38     -3.74227     19.73786     37.28783         7     0.987     0.554 -57.22   0
       118    619.4928    633.8165 300.1829168 +22.7437046     432.5586     69.88874      1.497     3.80    -3.665788     19.73786     44.11208         8     0.958     0.742  67.08   0
       119    498.0788    633.1459 300.1453402 +22.7070948     541.4511     69.99568      1.254     2.93    -3.648809     19.73786     64.01191         9     0.896     0.651  13.94   0
       120    931.7301    628.4832 300.2819390 +22.8357853     1961.657     70.06689      1.111     1.97    -3.756486     19.73786     326.5634        17     0.913     0.795  70.34   0
       121    463.6658    628.6647 300.1360887 +22.6954856     998.5708     70.01349      1.235     2.25    -3.685948     19.73786     155.7592        14     0.941     0.809 -24.30   0
       122     25.6062    622.4176 300.0019451 +22.5622211     3088.589     69.92441      1.261     2.21     -4.29037     19.73786     407.9256        25     1.082     0.942  77.71   0
       123    327.1172    615.4821 300.0978997 +22.6507347     5394.585     70.08468      1.280     2.28    -3.901618     19.73786       721.52        31     1.111     0.989  88.86   0
       124    449.4992    612.5181 300.1369311 +22.6866033     5084.644     70.12025      1.167     2.18    -3.662399     19.73786       761.15        29     1.034     1.005  72.51   0
       125     93.3895    608.7753 300.0274347 +22.5786610     152.0427     69.96005      0.994     3.37    -4.286862     19.73786     42.68588         5     0.765     0.431 -68.85   0
       126    861.1202    606.3585 300.2671213 +22.8082679     1218.799     69.94223      1.235     2.17    -4.036524     19.73786      175.774        14     0.996     0.719  85.74   0
       127    945.7254    603.5967 300.2943957 +22.8328322     7388.354      69.8709      1.099     1.87    -3.571725     19.73786     1305.412        33     1.017     0.966 -58.99   0
       128    510.0186    602.0735 300.1591598 +22.7017608     6672.331     69.96005      1.269     2.22    -3.432637     19.73786      995.809        28     1.030     0.996  65.83   0
       129    679.5978    598.0169 300.2132753 +22.7514535     329.7021      69.8709      1.176     2.30    -3.620069     19.73786     63.31635         8     0.817     0.630  -1.63   0
       130    237.6125    597.5549 300.0759004 +22.6187336     895.6664     69.96005      1.470     2.64    -3.727925     19.73786     99.65376        13     0.923     0.845  52.97   0
       131    441.7325    590.1852 300.1417760 +22.6778659     2610.428     69.94223      1.291     2.31    -3.568013     19.73786     367.3023        23     1.068     0.944 -80.06   0
       132    784.4663    589.9644 300.2485629 +22.7805827     607.3795     69.96005      1.323     2.76    -3.652639     19.73786     76.56458         9     0.875     0.654  28.54   0
       133    173.8041    588.2535 300.0590923 +22.5969156     458.2188     69.94223      1.397     5.18    -3.657887     19.73786     70.83713        11     1.138     1.071  32.73   0
       134    419.9194    588.6214 300.1354981 +22.6708734     655.1838      69.9244      1.258     2.66    -3.672618     19.73786     112.9813        12     0.874     0.831  63.00   0
       135    861.5118    585.4828 300.2740312 +22.8023905     907.8701     70.06689      1.372     2.89    -3.847368     19.73786     121.7928        14     1.081     0.762 -37.80   0
       136    742.0910    582.6002 300.2377544 +22.7657646     363.6684     69.83521      1.133     2.24    -3.625296     19.73786     75.35895         7     0.791     0.551  29.70   0
       137    558.3275    577.7542 300.1821032 +22.7092712     119738.4     69.96005      1.269     2.28    -3.219003     19.73786     16705.86       138     1.302     1.258 -42.57   0
       138    244.4846    577.8740 300.0844352 +22.6151518     1948.902     70.06689      1.278     2.28    -3.688604     19.73786     278.9794        19     0.973     0.920  85.60   0
       139    810.4161    573.5839 300.2619751 +22.7836581     354.1569     69.92441      1.122     3.02    -3.613061     19.73786     44.33024         8     0.897     0.651  -3.25   0
       140    449.0287    558.2970 300.1544132 +22.6709051     1588.623     69.90657      1.317     2.49    -3.342156     19.73786     227.7825        20     1.181     0.886  71.37   0
       141    293.4099    560.8410 300.1051831 +22.6249478     129.3944     69.96005      0.949     2.25    -3.739217     19.73786     41.39941         5     0.700     0.452 -68.64   0
       142    860.7929    553.8942 300.2840774 +22.7931032     305.1291     69.85305      1.474     5.64     -3.55944     19.73786     39.51888         8     1.138     0.787 -51.88   0
       143    766.2937    546.4424 300.2570502 +22.7626385     252.1721     69.97787      0.998     2.53    -3.480773     19.73786     41.59213         5     0.688     0.469  18.82   0
       144    845.9001    544.0941 300.2826214 +22.7858251      1060.98     70.13802      1.233     2.16    -3.467204     19.73786     163.1468        11     0.842     0.713 -82.16   0
       145    717.0355    541.7908 300.2432164 +22.7465364     1495.864     69.96005      1.282     2.20    -3.376181     19.73786     222.4884        16     0.917     0.870  51.02   0
       146    622.1047    538.5996 300.2146882 +22.7171583     321.3741     69.83521      1.328     4.20    -3.074643     19.73786     39.12401         6     0.938     0.537  73.14   0
       147    504.1799    537.8342 300.1782271 +22.6815751     343.9975     69.97787      1.263     3.54    -2.974882     19.73786     72.14424        10     1.014     0.853  -5.08   0
       148    926.5499    537.8005 300.3098089 +22.8081871     74.53902     69.94223      0.999     3.47    -3.363057     19.73786     28.86021         5     0.760     0.458  71.38   0
       149    974.5311    535.7147 300.3254488 +22.8219651     655.3387      70.0491      1.068     2.09    -3.354542     19.73786     133.1486        12     0.885     0.711  20.39   0
       150    959.9819    534.5228 300.3212991 +22.8172633     552.4373     69.96005      1.283     2.35    -3.351029     19.73786     77.52087         8     0.796     0.668 -55.52   0
       151    846.3181    534.5261 300.2858620 +22.7832025     1226.808     70.06689      1.214     2.29    -3.380237     19.73786     160.6953        16     0.977     0.858  18.39   0
       152    599.4722    532.4519 300.2096396 +22.7086072     476.9702     69.96005      1.688     3.36    -3.022497     19.73786     42.34208         6     0.861     0.496   2.79   0
       153    884.2300    529.2938 300.2993804 +22.7930616     2574.375      69.8709      1.181     2.15    -3.324543     19.73786     408.6675        21     0.951     0.875 -88.81   0
       154    438.0886    531.0861 300.1598546 +22.6598156      174.456     70.12025      1.264     4.12      -3.3009     19.73786     36.24138         7     0.939     0.515  41.11   0
       155    170.9895    523.9896 300.0791074 +22.5776424     881.2765     69.85305      0.437   -16.97    -3.552887     19.73786     656.4319         5     0.329     0.269 -89.83   0
       156    976.0880    519.4398 300.3312248 +22.8177561     382.6987     69.94223      1.228     2.24    -3.294822     19.73786     78.07338         9     0.859     0.623 -70.92   0
       157    116.4177    519.9655 300.0634583 +22.5601103     521.0865     69.96005      1.259     2.53    -3.661624     19.73786     77.87816        10     0.912     0.663  31.91   0
       158    109.0289    509.6125 300.0645275 +22.5549239     267.3442     69.96005      1.309     4.05    -3.662726     19.73786     41.68753         5     1.087     0.431 -65.48   0
       159    716.3361    503.8968 300.2553160 +22.7354463     184.0231     70.06689      1.188     3.25    -3.077101     19.73786     36.85312         7     0.826     0.615  63.44   0
       160    657.6856    499.9879 300.2383187 +22.7167416     497.1957     69.90657      1.317     3.02    -3.041386     19.73786     61.97301         9     0.941     0.614  43.29   0
       161    972.5062    492.1036 300.3389932 +22.8088293     365.3727     70.13802      0.989     2.49    -3.199972     19.73786     59.10991         7     0.853     0.554 -34.94   0
       162    718.5217    491.7635 300.2599404 +22.7326175     464.5956     69.92441      1.296     2.69    -2.981063     19.73786      73.9875        10     0.938     0.661   6.99   0
       163    875.8795    488.3905 300.3100725 +22.7788103     435.3337      69.9244      1.113     3.26    -2.970737     19.73786     89.43069        10     1.019     0.629  66.13   0
       164    859.8127    484.7482 300.3062481 +22.7729494     346.8499     69.99568      1.163     4.05    -2.897087     19.73786     55.80418         8     0.935     0.661 -23.78   0
       165    604.2963    482.6506 300.2273282 +22.6957575     1946.302      70.0313      1.295     2.52    -2.972528     19.73786     230.3058        18     1.005     0.910  89.96   0
       166     80.7556    474.1468 300.0672693 +22.5362683     54.13708     69.97787      0.853     3.16     -3.72241     19.73786     35.66148         6     0.752     0.565 -37.30   0
       167    444.1622    469.6039 300.1817264 +22.6439938     269.3327     69.99568      1.234     3.42    -3.050545     19.73786     31.45722         5     0.743     0.455 -17.75   0
       168   1015.5398    461.4386 300.3623811 +22.8129102     794.3144     69.97787      1.034     2.05    -3.067751     19.73786      114.736        12     0.807     0.768  54.81   0
       169    887.5666    461.3933 300.3224898 +22.7745570     316.9366     69.96005      1.228     3.61    -2.952771     19.73786     44.65348         8     0.830     0.768  -2.27   0
       170    973.9111    460.2526 300.3497829 +22.8000988     368.7828     69.97787      1.085     1.87     -3.09003     19.73786     96.49432         8     0.732     0.619  53.22   0
       171    714.7390    456.3122 300.2702832 +22.7213035     569.8156      70.0491      1.302     2.88     -2.86925     19.73786     88.83995        11     0.965     0.764 -80.96   0
       172    510.6656    457.1855 300.2064568 +22.6603730     188.4184     69.94223      1.092     3.54    -2.907269     19.73786     36.00812         5     0.948     0.382   4.74   0
       173    219.1151    454.8594 300.1165304 +22.5722555     287.6929     70.06689      1.140     3.70    -3.256317     19.73786     55.09691         9     1.031     0.669 -76.39   0
       174    281.3740    450.6294 300.1372599 +22.5897205     2114.372     69.96005      1.263     2.45    -3.203375     19.73786     291.2426        24     1.129     0.953  80.61   0
       175   1014.2210    448.8099 300.3660738 +22.8088862     2443.654     69.94223      1.128     1.84     -3.01356     19.73786     497.1448        19     0.893     0.843 -54.80   0
       176    228.5349    445.3992 300.1225323 +22.5723679     4447.231     69.96005      1.286     2.30    -3.171855     19.73786     590.0146        28     1.108     1.014  84.89   0
       177    369.2336    439.5904 300.1681693 +22.6129079     2905.822     69.96005      1.371     2.46    -3.182279     19.73786     325.0086        25     1.143     1.013  30.69   0
       178    994.1494    439.8567 300.3627228 +22.8003009     993.5983     70.01349      1.112     1.88    -2.997063     19.73786     197.2388        12     0.832     0.735 -41.71   0
       179    613.3769    436.2551 300.2452322 +22.6851597     10873.17     69.97787      1.312     2.40    -2.908685     19.73786     1310.499        41     1.156     1.080  69.30   0
       180    631.1418    436.2456 300.2507671 +22.6904825     506.1532     69.99568      1.977     5.43    -2.902594     19.73786     41.58354        10     1.383     0.602 -29.32   0
       181    233.3922    422.8722 300.1313613 +22.5673626     336.1977     69.94223      1.573     3.85    -3.056284     19.73786     40.64185         6     0.959     0.564 -24.40   0
       182    946.9037    418.4510 300.3549443 +22.7799970     420.5331      70.0313      1.395     3.23    -2.999422     19.73786     63.59324        10     1.115     0.687 -40.25   0
       183    168.1977    416.5599 300.1131488 +22.5459920     1133.948     69.96005      1.278     2.47    -3.505881     19.73786     160.9002        18     1.126     0.871  27.55   0
       184    554.0474    405.6569 300.2367025 +22.6585879     3770.676     69.99568      1.361     2.50    -2.952103     19.73786     491.4023        28     1.111     1.032  75.54   0
       185    967.7642    405.8333 300.3655491 +22.7826203     701.4449     69.99568      1.096     1.92    -2.957317     19.73786      141.752         8     0.733     0.626 -53.09   0
       186    268.9236    404.9782 300.1482208 +22.5728878     371.9468     69.94223      1.324     3.62    -3.023435     19.73786     45.44804        10     0.918     0.752 -88.40   0
       187    758.1458    394.5050 300.3038886 +22.7165616     725.6648      70.0313      1.325     2.74    -2.855249     19.73786     84.59464        11     0.866     0.827  71.75   0
       188    460.7104    392.0686 300.2120675 +22.6267021     3557.122     70.10246      1.352     2.47    -2.956004     19.73786     458.9041        26     1.085     1.033  79.95   0
       189    852.4794    386.2396 300.3359716 +22.7424534     839.2973     69.94223      1.200     2.66    -2.929134     19.73786     124.1621        13     1.006     0.787 -60.56   0
       190    950.2648    385.9942 300.3665376 +22.7716774     420.3652      69.9244      1.408     2.68    -2.993326     19.73786     59.80576         7     0.744     0.651 -70.77   0
       191    445.2936    380.6785 300.2109705 +22.6188098     383.5455     70.08468      1.577     4.59    -2.964852     19.73786     38.65052         8     0.933     0.642  83.08   0
       192    825.4881    373.7627 300.3316121 +22.7307819     324.6835     69.94223      1.014     2.89    -2.955984     19.73786     57.11422         6     0.917     0.500 -89.36   0
       193    348.2817    371.2235 300.1838631 +22.5870042     1589.986     69.92441      1.411     2.63    -3.046988     19.73786     166.5037        21     1.101     0.996 -76.64   0
       194     66.7957    368.7607 300.0971701 +22.5018554     554.3177     69.97787      1.100     2.29    -3.191154     19.73786     95.66548         9     0.791     0.677 -87.80   0
       195    317.5927    360.7342 300.1777261 +22.5747899     17492.35     69.97787      1.370     2.41    -3.023483     19.73786     2446.392        55     1.201     1.174  58.90   0
       196    852.1981    358.0542 300.3450400 +22.7342712      723.561     69.90657      1.244     2.58    -2.994575     19.73786     110.5201        11     0.854     0.793 -46.42   0
       197    579.0511    354.4543 300.2611196 +22.6513820      4124.58     69.99568      0.557     0.87    -2.867043     19.73786     2159.952         6     0.510     0.264  84.04   0
       198     14.0150    348.6773 300.0872993 +22.4802570     2776.789     69.97787      1.260     2.16    -3.025688     19.73786      419.455        22     1.027     0.942  77.98   0
       199    191.8607    347.0040 300.1430967 +22.5331369     292.9975     69.94223      1.419     3.37    -3.014688     19.73786     36.74722         5     0.798     0.477  21.66   0
       200    767.4606    346.3394 300.3224372 +22.7055170     323.0526     69.99568      1.349     3.45    -2.939503     19.73786      43.1923         5     0.747     0.461  71.24   0
       201    727.8116    340.3138 300.3120414 +22.6919053     1074.553     69.90657      1.401     2.61    -2.881783     19.73786     133.1277        15     0.967     0.862  24.90   0
       202    943.0118    332.8562 300.3815372 +22.7542342     257.9525     69.96005      1.263     2.09      -3.0079     19.73786     68.03146         7     0.799     0.607  58.25   0
       203    389.7167    324.9993 300.2117646 +22.5861623     1202.948     69.83521      1.554     3.14    -2.959781     19.73786     127.0522        17     1.109     0.935  88.33   0
       204    601.9637    324.4502 300.2779985 +22.6496336     196.7919     69.97787      1.193     4.89    -2.847594     19.73786     28.02678         6     1.059     0.638 -55.27   0
       205    828.4917    317.8896 300.3506967 +22.7156288     327.0249     70.12025      1.162     3.74    -3.006261     19.73786     47.51775        10     1.036     0.721  78.00   0
       206    465.7261    304.5412 300.2420571 +22.6030784      736.722     69.99568      1.403     2.61    -2.829379     19.73786     84.02583        12     0.934     0.775  53.69   0
       207    710.3957    296.1687 300.3209530 +22.6740055     1187.065     69.94223      1.335     2.51    -2.884154     19.73786     141.4106        18     0.998     0.944 -81.42   0
       208    971.6732    290.3598 300.4042769 +22.7506041      1868.25     69.94223      1.165     2.17    -2.957851     19.73786     272.4995        16     0.923     0.838 -77.93   0
       209    418.6379    279.9045 300.2354058 +22.5818881     328.8466     69.94223      1.357     2.88    -2.821934     19.73786     52.53027         7     0.882     0.559   9.80   0
       210    124.6443    274.2622 300.1458298 +22.4921028     492.0952     69.97787      1.496     3.48    -2.901302     19.73786     55.02661        12     1.073     0.806 -49.83   0
       211     93.6081    274.3867 300.1361465 +22.4828281     862.2717     69.85305      1.568     3.33    -2.893649     19.73786     88.27058        17     1.178     0.896 -45.67   0
       212    987.4376    270.7829 300.4155507 +22.7496976     254.6505     69.96005      1.045     2.49    -2.929052     19.73786     43.85817         5     0.704     0.457 -68.84   0
       213    972.6436    263.2509 300.4133825 +22.7431023     182.3034     69.99568      0.950     3.17    -2.942103     19.73786     41.52787         5     0.893     0.418   8.34   0
       214    781.9855    257.4934 300.3558162 +22.6843426     302.9332     69.88874      1.095     2.52    -2.898852     19.73786     52.71953         6     0.752     0.484  12.48   0
       215    880.0592    246.4738 300.3899615 +22.7105527     1132.937     69.99568      1.245     2.50    -2.891913     19.73786     159.9118        12     0.870     0.826 -37.14   0
       216    298.7663    244.0764 300.2097537 +22.5356618     1353.839     69.96005      1.454     2.68    -2.737471     19.73786     160.8622        17     1.069     0.942  71.58   0
       217    376.8884    238.9867 300.2357028 +22.5576240       716.67     69.90657      1.725     2.82    -2.726254     19.73786     74.57317        10     0.890     0.719 -86.54   0
       218    128.0281    239.0140 300.1583247 +22.4830041     210.6118     69.97787      1.470     3.77    -2.812787     19.73786     25.51073         5     1.020     0.401  30.13   0
       219    778.7188    238.4541 300.3609799 +22.6778931     405.5337     69.99568      1.409     2.84    -2.833696     19.73786     53.11943         7     0.899     0.494   4.55   0
       220    841.2582    234.0279 300.3819074 +22.6953543     1275.754     69.96005      0.530     0.83    -2.898713     19.73786     752.4144         6     0.440     0.359  -9.85   0
       221    193.3198    231.7363 300.1809780 +22.5004986     332.4889     70.06689      1.237     3.12    -2.737733     19.73786     53.78551         9     0.957     0.636 -59.54   0
       222    731.2610    228.0369 300.3495752 +22.6606828     1037.893     69.97787      1.327     2.88    -2.430498     19.73786     116.2192        14     0.955     0.892   1.66   0
       223    795.8997    227.6388 300.3698451 +22.6799319     313.9713     69.97787      1.255     2.81    -2.961277     19.73786     52.22926         8     0.874     0.618  21.41   0
       224    215.1019    224.7659 300.1900113 +22.5050306     350.0761     69.94223      1.402     3.37    -2.684545     19.73786     53.47213         7     1.001     0.681 -41.45   0
       225   1002.6180    220.3469 300.4366613 +22.7397437     649.1917     69.94223      1.275     2.27    -2.913224     19.73786     90.15121        11     0.853     0.753  23.21   0
       226    735.3046    219.3911 300.3536418 +22.6594100     324.5132      69.8709      1.300     3.50    -2.402343     19.73786     51.23798         7     0.827     0.641 -31.13   0
       227    655.8168    218.7151 300.3291011 +22.6354011     746.3976      69.9244      1.371     3.09    -2.407338     19.73786     93.79562        12     0.953     0.834  56.20   0
       228    582.2600    210.5906 300.3088335 +22.6110264     556.8273     69.94223      1.278     2.50    -2.499105     19.73786     69.05022        10     0.895     0.783  84.66   0
       229    851.2427    210.0336 300.3928092 +22.6914487     814.8793     70.01349      1.365     2.80    -2.796685     19.73786     94.24478        13     0.950     0.820  16.61   0
       230    863.0001    209.4059 300.3966779 +22.6947896     425.6739     69.78163      1.234     3.12    -2.760302     19.73786      61.2697         7     0.754     0.654  11.45   0
       231   1023.5878    200.1684 300.4497530 +22.7402204     717.8371     54.88118      1.065     2.24    -2.888582     19.73786     164.0674         9     0.983     0.547 -78.78  24
       232    980.1307    199.2961 300.4364814 +22.7269585     686.4034     70.08468      1.234     2.79    -2.867866     19.73786     97.99409        12     0.936     0.798 -35.31   0
       233    214.2585    192.8730 300.2001014 +22.4956239     361.5081     69.99568      1.337     4.40    -2.666806     19.73786     54.88849         8     0.965     0.605  81.00   0
       234     76.0471    187.7696 300.1588083 +22.4527083     1441.424     69.97787      1.441     2.69    -2.690076     19.73786     158.3424        14     1.014     0.765  62.44   0
       235     25.6095    184.8743 300.1440809 +22.4367482     381.2543     69.96005      1.456     3.93    -2.585085     19.73786      41.0416         8     1.018     0.627  58.09   0
       236    899.0458    184.1553 300.4161118 +22.6983262     364.1251     69.99568      1.222     2.84    -2.742077     19.73786        64.83         9     0.879     0.668  -8.75   0
       237    233.4464    181.0134 300.2099153 +22.4979736     3350.492     69.96005      1.375     2.51    -2.639874     19.73786     415.9953        27     1.115     1.071 -24.13   0
       238     17.3370    175.4957 300.1445554 +22.4315758     732.2129      70.0491      1.278     2.70    -2.509135     19.73786     92.47914        14     0.937     0.882  73.73   0
       239    216.7459    171.8580 300.2076952 +22.4903379     380.3422     70.01349      1.398     3.36    -2.648939     19.73786     53.65476         5     0.775     0.421  80.08   0
       240    980.9559    160.8848 300.4492069 +22.7161617     1584.938      69.9244      1.253     2.13    -2.790404     19.73786     267.6726        19     1.064     0.823 -85.51   0
       241    877.3278    162.3167 300.4164294 +22.6855449     2006.485     70.08468      1.248     2.30    -2.629276     19.73786     251.9765        19     0.984     0.925  -7.45   0
       242    426.8550    157.4826 300.2777030 +22.5491992     401.6042     70.01349      1.308     1.84    -2.635849     19.73786     74.82623         6     0.722     0.563  63.74   0
       243    351.3379    149.3171 300.2568607 +22.5242186      372.137      70.0491      1.337     2.41     -2.60939     19.73786     47.34811         5     0.697     0.461  78.21   0
       244    478.1792    144.8967 300.2977581 +22.5609665     983.4551      69.8709      1.395     2.91    -2.647802     19.73786     113.5055        15     1.002     0.887  55.93   0
       245    406.5097    145.3083 300.2753240 +22.5396050     334.6126     70.12025      1.268     2.54     -2.63279     19.73786     44.44745         5     0.693     0.484 -75.50   0
       246    252.3387    124.9355 300.2339871 +22.4875398     3491.898     69.99568      1.357     2.48    -2.631201     19.73786     458.4924        27     1.141     1.024 -78.53   0
       247    103.0852    124.3665 300.1877838 +22.4426229     496.7518      69.9244      1.520     4.17     -2.73492     19.73786     58.01979         8     1.068     0.591 -34.88   0
       248     13.6330    115.1836 300.1629761 +22.4131595     196.8682     69.94223      1.219     3.51    -1.825342     19.73786     27.66104         5     0.806     0.442 -73.33   0
       249    498.3180    110.1183 300.3153113 +22.5570118      3591.09     70.08468      1.392     2.65     -2.66055     19.73786     377.0914        29     1.211     1.042 -76.19   0
       250    383.5607    109.7084 300.2797367 +22.5225030     460.3852     69.96005      1.823     3.09    -2.632508     19.73786     66.68917         7     0.992     0.630  -1.82   0
       251    750.8502     99.8720 300.3972759 +22.6297191     525.9766     69.96005      1.423     2.88    -2.221129     19.73786     59.42145         6     0.748     0.556  37.02   0
       252    843.2615     98.3620 300.4265648 +22.6569588     228.7555     69.97787      1.252     3.21    -2.299443     19.73786     41.22657         5     0.732     0.453  16.07   0
       253    191.2827     93.8685 300.2250873 +22.4603156     321.5357     70.06689      1.367     3.67    -2.732543     19.73786     41.27571         7     0.874     0.566  49.47   0
       254    626.6362     90.1306 300.3617449 +22.5897141     3592.994     69.94223      1.396     2.58    -2.531405     19.73786     449.6001        27     1.106     1.090  64.11   0
       255    401.6389     89.3309 300.2919723 +22.5220688     800.9747     69.92441      1.272     2.58    -2.621968     19.73786     115.2235        13     0.927     0.838  27.20   0
       256    667.9481     87.5454 300.3754497 +22.6013461     456.5193     69.99568      1.386     3.47    -2.329916     19.73786      56.3856        10     0.952     0.754  62.68   0
       257    737.3426     85.1916 300.3978306 +22.6214542     331.6508     69.94223      1.868     5.21    -2.143452     19.73786     24.53924         6     1.122     0.683  -3.96   0
       258    683.8240     83.4874 300.3817113 +22.6049352     336.2407      69.9244      1.281     4.14    -2.241596     19.73786       43.755         6     0.756     0.648  33.53   0
       259    953.7088     81.1100 300.4665973 +22.6850659     353.9659     70.12025      1.153     3.65    -2.648217     19.73786     60.44683        10     1.050     0.746 -39.75   0
       260    150.2024     81.5144 300.2163278 +22.4444520     353.7877     69.88874      1.362     3.20    -2.817105     19.73786     60.09782         9     0.987     0.695  58.86   0
       261    670.9062     74.9932 300.3804436 +22.5986249     1520.883     69.85305      1.316     2.51    -2.211214     19.73786     205.6455        18     1.038     0.914  83.27   0
       262    686.0016     73.9423 300.3854864 +22.6028442     539.2905     69.90657      1.941     4.88     -2.16762     19.73786      54.1301        11     1.351     0.603  73.56   0
       263    757.2601     66.4585 300.4101142 +22.6220345     858.0634      70.0313      1.259     2.62    -2.031105     19.73786     114.1913        13     0.929     0.799  46.76   0
       264    695.1503     59.6484 300.3929735 +22.6014762     350.4116     69.99568      1.275     4.37    -2.048936     19.73786      48.3881        10     1.135     0.658   5.73   0
       265    500.9231     59.1150 300.3326697 +22.5431404     578.3995     70.06689      1.305     3.10    -2.589787     19.73786      71.7241         9     0.969     0.694 -13.17   0
       266     74.3192     59.2593 300.1999695 +22.4153101     361.2646      70.0313      1.614     2.50    -2.133384     19.73786     45.42144         5     0.731     0.434  73.14   0
       267    404.8507     57.3731 300.3033393 +22.5138524     534.5942     69.97787      1.477     3.31    -2.544388     19.73786     53.11046         7     0.828     0.614  26.99   0
       268    176.2878     47.3663 300.2355123 +22.4424700      2283.69     69.92441      1.367     2.56    -2.724565     19.73786     249.7516        26     1.277     1.079 -44.89   0
       269    744.1240     47.8429 300.4120604 +22.6127497     192.3383     69.94223      1.196     2.84    -1.931528     19.73786     44.96097         6     0.749     0.547 -59.41   0
       270    737.3792     39.3556 300.4127123 +22.6082901     416.9449     70.01349      1.173     2.85    -1.883362     19.73786     72.04948        10     0.940     0.728  57.87   0
       271    292.2045     39.5461 300.2740852 +22.4749723     727.0949     69.94223      1.216     2.64    -2.805978     19.73786     88.27511        13     0.932     0.835  63.14   0
       272    775.3019     34.7579 300.4260199 +22.6183244      280.381     69.96005      1.230     4.41    -1.842054     19.73786     51.30702         7     0.845     0.654  66.37   0
       273    698.8533     34.5096 300.4022821 +22.5953598     266.1523     69.99568      1.053     3.12    -1.863884     19.73786     38.88995         6     0.774     0.499  -2.08   0
       274    795.2953     30.7870 300.4335385 +22.6231694       1190.5     69.88874      1.281     2.58     -1.80776     19.73786     155.4459        14     0.897     0.859 -75.04   0
       275    178.8409     26.5005 300.2430738 +22.4372448     545.8649     69.94223      1.232     2.73    -2.650672     19.73786     75.23308         9     0.817     0.742 -47.47   0
       276    970.0513     23.9795 300.4902281 +22.6735278     459.3416     69.96005      1.214     3.47    -2.692135     19.73786     57.54631         8     0.872     0.696  88.69   0
       277    743.7521     23.4093 300.4198705 +22.6056146     477.8726     69.97787      1.359     3.00    -1.788786     19.73786     64.42257        12     0.976     0.795 -56.98   0
       278    328.6138     13.2437 300.2939392 +22.4783307     290.7856     69.97787      1.752     3.72    -2.614914     19.73786     41.81278         5     0.982     0.618 -21.83   0
       279      4.1829   1016.5413 299.8670419 +22.6686982     820.5482     67.14121      4.648     6.49    -14.99818     19.73786     32.16545         7     1.657     0.713  55.86  17
       280    931.9008   1013.7756 300.1565907 +22.9464395     334.7101     69.90657      0.984     1.94     -4.90179     19.73786     118.2052         8     0.771     0.578 -42.81   0
       281    110.8174   1012.3845 299.9015136 +22.6995493     1005.827     69.94223      9.109     9.53     21.31708     19.73786     30.76092        17     2.223     1.140  25.92  17
