#   1 NUMBER                 Running object number                                     
#   2 X_IMAGE                Object position along x                                    [pixel]
#   3 Y_IMAGE                Object position along y                                    [pixel]
#   4 ALPHA_J2000            Right ascension of barycenter (J2000)                      [deg]
#   5 DELTA_J2000            Declination of barycenter (J2000)                          [deg]
#   6 FLUX_APER              Flux vector within fixed circular aperture(s)              [count]
#   7 FLUXERR_APER           RMS error vector for aperture flux(es)                     [count]
#   8 FLUX_RADIUS            Fraction-of-light radii                                    [pixel]
#   9 FWHM_IMAGE             FWHM assuming a gaussian core                              [pixel]
#  10 BACKGROUND             Background at centroid position                            [count]
#  11 THRESHOLD              Detection threshold above background                       [count]
#  12 FLUX_MAX               Peak flux above background                                 [count]
#  13 ISOAREA_IMAGE          Isophotal area above Analysis threshold                    [pixel**2]
#  14 A_IMAGE                Profile RMS along major axis                               [pixel]
#  15 B_IMAGE                Profile RMS along minor axis                               [pixel]
#  16 THETA_IMAGE            Position angle (CCW/x)                                     [deg]
#  17 FLAGS                  Extraction flags                                          
         1    163.8011      8.7566 300.2567024 +22.4138014     635.0557     70.24039      1.726     4.37    -2.158756     19.81695      71.3392        17     1.262     1.067  53.16   0
         2    112.4760   1017.2737 299.9130170 +22.6875732     870.3358     70.32979      4.291     4.77     6.346326     19.81695     38.96489         5     1.323     0.487  85.63  19
         3    395.0949   1023.9283 299.9986884 +22.7743914     442.5478      53.2453      0.869     2.85    -5.557117     19.81695     116.8848         6     1.088     0.258   0.35  24
         4    120.3196   1022.9028 299.9136202 +22.6915425     690.2263     58.85067      3.558     5.99     7.040102     19.81695     38.28381         9     1.069     0.944  -5.89  25
         5    109.2192   1022.6469 299.9102557 +22.6881332     637.0633     60.03456      2.437     3.47     7.090901     19.81695     30.78992         5     1.297     0.268  55.22  25
         6    102.9130   1013.9995 299.9111130 +22.6837615     1297.233     70.13296      7.729     6.38      6.01006     19.81695      71.8643        22     1.853     1.239  32.42  19
         7     88.3493   1020.7675 299.9043857 +22.6813228     2221.929     67.65217     14.465    22.96     5.287146     19.81695     59.90238       140     6.044     2.422 -13.52  27
         8     73.8447   1015.6622 299.9015437 +22.6755015     1414.166     70.25828      6.197    12.53     2.383682     19.81695     39.88299        36     3.429     1.275  38.24  19
         9     86.1127   1009.2393 299.9074452 +22.6773492     2165.333      70.2225     14.455    28.12     3.695949     19.81695     53.55219       164     6.578     3.337 -17.05  19
        10     97.7110   1004.3688 299.9126334 +22.6794401     1429.713      70.2046      9.876    10.68     4.786806     19.81695     43.57494        29     2.236     1.422 -88.48   3
        11     92.9437    995.4780 299.9140478 +22.6754611     1672.508     70.27616     10.258    14.75     3.157302     19.81695     46.71171        44     2.707     2.236 -39.42   3
        12     83.6312    998.9328 299.9100306 +22.6736519      2011.56     70.24039      7.832    17.24     2.395602     19.81695     48.45646        76     3.882     2.128 -86.08  19
        13     88.4857    995.6726 299.9125999 +22.6741771     1156.328     70.34766      5.675    11.44     2.621027     19.81695     43.38449        34     3.551     1.027 -82.71   3
        14    427.6906   1012.3650 300.0125921 +22.7808678     263.7615      70.2046      1.321     4.04    -5.530552     19.81695     40.92978         8     0.821     0.815   7.87   0
        15    101.7704   1007.9104 299.9127410 +22.6816743     946.5765      70.2046      4.776     5.43     5.273337     19.81695     42.64418         5     1.516     0.549  16.14   1
        16    941.4861   1004.1303 300.1752666 +22.9327373     1209.743     70.34766      1.055     1.68    -5.338828     19.81695     261.6975        11     0.760     0.721  -8.59   0
        17    591.3777   1001.4696 300.0670722 +22.8268976      266.421     70.25828      1.278     3.72    -5.310724     19.81695     38.39651         6     0.873     0.485  89.92   0
        18    117.3393   1016.1555 299.9148918 +22.6887145     790.8032     70.27616      3.671     3.66     6.206837     19.81695     28.93054         5     1.499     0.258  48.62  17
        19    730.5886    993.0909 300.1131458 +22.8662844     352.5548      70.1867      1.593     5.92     -5.17957     19.81695     61.03643         8     1.491     0.848  75.12   0
        20     71.2790   1021.8180 299.8987423 +22.6764931     1402.036     63.78965      6.416    12.64     2.317864     19.81695     48.11293        35     2.427     1.833 -13.72  27
        21    765.1262    987.2179 300.1258163 +22.8749657     617.3419     70.24039      1.183     2.15    -5.229405     19.81695     92.91962         8     0.754     0.644 -29.60   0
        22    787.2336    980.9393 300.1347478 +22.8797995     6546.664     70.25828      1.184     1.90    -5.263371     19.81695     1180.517        30     1.016     0.950 -13.16   0
        23    978.3879    980.7885 300.1943734 +22.9371103      190.266     70.13296      1.179     3.45    -5.239717     19.81695     37.53387         5     0.725     0.474 -78.01   0
        24    492.5110    968.8064 300.0469413 +22.7878488     286.9809     70.15088      1.500     2.50     -5.24063     19.81695      41.4984         5     0.716     0.467  70.87   0
        25    795.8020    963.1594 300.1432071 +22.8772708     891.0772     70.24039      1.216     1.95    -5.217559     19.81695     158.2363        11     0.857     0.680 -74.83   0
        26    647.6204    960.1257 300.0980441 +22.8319273     462.1516     70.24039      1.801     5.71    -5.261415     19.81695     41.47504         8     1.337     0.688  18.20   0
        27    833.9052    956.5355 300.1572360 +22.8868042     441.4106     70.32979      1.241     2.54    -5.200768     19.81695     73.01297        10     0.936     0.681 -70.31   0
        28    882.3244    947.9550 300.1751190 +22.8988701     365.2483      70.2225      1.428     4.26    -5.189758     19.81695     52.90847         7     0.925     0.655  78.61   0
        29    733.5391    946.8104 300.1291352 +22.8538963     415.9825      70.1867      1.002     2.00    -5.168302     19.81695     70.29163         5     0.673     0.465  68.32   0
        30    744.9205    944.1981 300.1335308 +22.8565627     319.5578     70.15088      1.282     2.30    -5.161455     19.81695     85.61288         6     0.792     0.555 -58.35   0
        31    446.3545    943.3717 300.0408633 +22.7666981     2465.134     70.27616      1.265     2.20     -5.21187     19.81695     316.4028        22     1.046     0.913 -80.89   0
        32    224.6184    931.5934 299.9757556 +22.6967251     198.8547      70.2046      1.375     3.95    -3.997784     19.81695     35.15192         5     1.194     0.374  53.18   0
        33    171.4786    929.4025 299.9599566 +22.6801329     503.3464     70.15088      1.359     3.19    -3.925832     19.81695     58.60396         8     0.990     0.490  83.44   0
        34    148.7500    926.4106 299.9538692 +22.6724472     852.4696     70.25828      1.144     2.26    -4.043051     19.81695      142.651        13     1.045     0.786 -38.18   0
        35    775.8227    922.3340 300.1502754 +22.8595643     242.0379      70.2225      1.523     3.66    -5.079153     19.81695     33.52124         5     1.200     0.320  79.65   0
        36   1020.4321    914.6507 300.2290196 +22.9307405     1390.485     68.59298      1.170     2.10     -5.07243     19.81695     250.7187        15     1.026     0.820   0.28  24
        37    974.5271    913.2364 300.2151656 +22.9165665      1232.73      70.1867      1.067     1.89     -5.08563     19.81695     203.5695        14     0.832     0.803  -5.58   0
        38    758.0280    907.2586 300.1496401 +22.8499000     403.4499     70.24039      1.178     1.87    -5.012492     19.81695      76.9035         7     0.682     0.632   0.40   0
        39    626.2501    901.3685 300.1105205 +22.8086626     2775.118     70.27616      1.265     2.27    -5.020249     19.81695     340.2079        23     1.039     0.968 -86.72   0
        40    115.9576    902.6590 299.9514139 +22.6557905     308.7007      70.2225      1.359     3.61    -4.508151     19.81695     46.22757         7     0.870     0.579 -29.74   0
        41    428.5403    898.3835 300.0499677 +22.7484528       398.68      70.2046      1.377     4.55    -4.889791     19.81695     51.36615         6     0.921     0.765  71.26   0
        42    176.4933    895.4064 299.9725808 +22.6718997     728.4714     70.13297      1.265     2.88     -4.31798     19.81695     87.33842        12     0.966     0.780  -1.80   0
        43    647.0046    893.8229 300.1194384 +22.8127279     421.7806      70.2046      1.241     2.38    -4.963919     19.81695     71.63881         7     0.833     0.576 -77.22   0
        44    195.7300    892.4932 299.9795063 +22.6768439     244.3866     70.36552      1.219     2.77     -4.26754     19.81695     40.83055         5     0.716     0.458  21.23   0
        45    802.2137    881.0962 300.1719220 +22.8556522     2314.395     70.15088      1.255     2.25     -4.81811     19.81695     346.2207        18     0.924     0.908 -76.34   0
        46   1019.0991    880.9055 300.2395897 +22.9206547     590.1097     70.41908      1.042     2.00    -4.728573     19.81695     123.9419         8     0.760     0.594  47.67  16
        47    210.7533    875.1416 299.9898222 +22.6763849     208.2659     70.29404      1.316     4.95    -4.264039     19.81695     43.69688         9     0.922     0.873 -85.42   0
        48    519.2543    873.4032 300.0863211 +22.7685261     376.4257      70.2046      1.178     2.68    -4.712232     19.81695     55.49063         6     0.707     0.596 -37.41   0
        49    165.5533    871.5954 299.9769317 +22.6617910     754.5667      70.2225      1.509     2.88    -4.655102     19.81695     81.69823        11     0.941     0.727  53.24   0
        50    315.3981    863.8716 300.0260165 +22.7045849        31080      70.1867      1.341     2.32     -4.35525     19.81695     3895.155        72     1.262     1.195  75.69   0
        51    573.2390    862.7739 300.1065815 +22.7816829     898.5901     70.25828      1.301     2.76    -4.712633     19.81695     115.0378        14     1.044     0.779 -83.35   0
        52    985.8778    861.7473 300.2354663 +22.9051925     466.8739     70.27616      1.216     2.40    -4.661139     19.81695     70.05415        10     0.833     0.722 -89.19   0
        53    602.1573    858.7775 300.1168837 +22.7892165     551.0687     70.29404      1.326     3.87    -4.801318     19.81695     68.60525        12     1.151     0.738  62.48   0
        54      1.4357    858.7445 299.9301423 +22.6088005     375.7858     55.28325      0.996     2.17     -4.52369     19.81695     79.86115         7     0.834     0.483  80.64  24
        55    613.1587    857.2808 300.1207955 +22.7920891     325.8578      70.2046      1.181     3.18    -4.812539     19.81695     62.80346         6     0.938     0.502  66.70   0
        56    718.4817    852.8918 300.1550193 +22.8224372     253.7051     70.38337      1.350     2.99    -4.746699     19.81695     43.70092         5     0.807     0.675 -35.06   0
        57    756.3342    843.5515 300.1698494 +22.8311151     472.2998     70.24039      1.178     3.34    -4.740486     19.81695     61.00648         8     0.938     0.670  29.03   0
        58    365.1013    841.1021 300.0488810 +22.7129835     18238.02     70.45476      1.372     2.51    -4.564102     19.81695     2165.828        55     1.241     1.167  66.95   0
        59    379.3950    841.6740 300.0531400 +22.7174394     1165.441     70.16879      1.336     3.10    -4.546321     19.81695      127.869        18     1.087     1.019  39.85   0
        60    888.0834    836.7158 300.2131262 +22.8686771     1695.752     70.36552      1.294     2.31    -4.762452     19.81695     252.8223        20     1.075     0.951  46.89   0
        61    376.1537    835.6343 300.0540975 +22.7147347     516.8329     70.27616      1.949     4.68    -4.542364     19.81695      41.8215         8     1.048     0.592 -57.83   0
        62    646.1380    833.1695 300.1389101 +22.7950708     607.7188     70.25828      1.231     2.67    -4.693111     19.81695     89.55185         8     0.879     0.591 -84.03   0
        63    482.5241    832.9713 300.0880513 +22.7459063     289.6322      70.2225      1.237     4.32    -4.509745     19.81695     34.29317         8     1.214     0.438 -77.73   0
        64    247.5242    833.0941 300.0149338 +22.6753797     606.5729     70.38337      1.738     3.05    -4.334864     19.81695     67.96334         9     0.937     0.683 -58.78   0
        65     52.5920    828.8749 299.9557464 +22.6156153     425.4604      70.2225      1.356     3.70    -4.648167     19.81695     52.50747         6     0.777     0.600 -43.38   0
        66    493.0880    827.8580 300.0930021 +22.7476113      382.155     70.31192      1.299     2.34    -4.466141     19.81695     62.47233         8     0.777     0.644  51.64   0
        67    894.3252    824.5193 300.2190411 +22.8670489     320.8574     70.34766      1.315     3.18    -4.723678     19.81695     44.04185         6     0.865     0.468  87.92   0
        68     80.9878    822.4006 299.9666717 +22.6222915     356.2512     70.06125      1.164     3.25    -4.715192     19.81695     61.46223         7     0.895     0.615 -71.79   0
        69    245.2984    817.3380 300.0193690 +22.6701955     374.1431     70.32979      1.836     3.85    -4.430802     19.81695     43.75033         5     0.964     0.442 -82.02   0
        70    538.5912    805.6261 300.1143960 +22.7548940     337.8063     70.24039      1.216     3.91    -4.241851     19.81695     44.61276         6     1.028     0.482 -84.01   0
        71    560.2242    803.0485 300.1219674 +22.7606476     799.9568     70.24039      1.278     2.69    -4.307676     19.81695     101.3733        12     0.942     0.784  66.84   0
        72    954.3886    801.9094 300.2451228 +22.8785727     2614.369      70.1867      1.244     2.33     -4.58764     19.81695     361.9605        19     0.995     0.887  89.38   0
        73    942.6627    793.2836 300.2442740 +22.8725802     1035.738     70.32979      1.243     2.39    -4.519634     19.81695      152.443        13     0.927     0.801 -11.02   0
        74    306.2098    787.3574 300.0480581 +22.6798936     445.5627     70.24039      1.266     3.68    -4.257747     19.81695     67.17822         8     1.049     0.572  83.13   0
        75    769.3804    784.7031 300.1930640 +22.8181436      1341.82     70.15088      1.300     3.54    -4.524326     19.81695     161.5325        18     1.224     0.862  14.50   0
        76    973.8571    783.4935 300.2571855 +22.8791241      870.091     70.29404      1.137     2.10    -4.436165     19.81695     149.2482        12     0.999     0.705  66.63   0
        77    154.8290    771.6427 300.0061234 +22.6299283     397.8653     70.27616      1.363     2.10    -4.792718     19.81695      61.0179         5     0.724     0.418  23.38   0
        78    851.8349    770.4045 300.2234076 +22.8387731     226.7681     70.24039      1.226     2.70    -4.433784     19.81695     38.49795         5     0.711     0.465 -17.08   0
        79    887.5869    761.5828 300.2374204 +22.8469635     84345.82      70.2046      1.279     2.32    -4.335032     19.81695     10370.87       105     1.266     1.225  78.21   0
        80    740.0920    762.2771 300.1912372 +22.8029221     445.6757     70.38337      1.441     3.51    -4.313777     19.81695     42.11669         7     0.731     0.680  12.53   0
        81    920.3557    754.5436 300.2499249 +22.8547699     247.9252     70.25828      1.180     3.50    -4.225684     19.81695     40.39704         7     0.829     0.671  72.77   0
        82    573.7797    750.6447 300.1432366 +22.7496845     791.1191     70.29404      1.311     2.98    -4.209496     19.81695     100.5527        13     0.908     0.891 -80.41   0
        83    755.1431    747.8427 300.2006216 +22.8032951     5387.907      70.2046      1.382     2.60    -4.191402     19.81695     613.5453        34     1.144     1.089   8.41   0
        84    256.8230    743.1951 300.0470728 +22.6524045     2881.811      70.2046      1.398     2.56    -4.344896     19.81695     371.9124        25     1.114     1.023  71.30   0
        85    338.8889    741.2799 300.0732087 +22.6764954     494.8088     70.38337      1.362     3.11    -4.286364     19.81695     68.91234        10     0.910     0.739  56.51   0
        86    214.6417    738.5176 300.0354845 +22.6383974     284.1589      70.2046      1.098     3.37    -4.681827     19.81695     39.63841         5     0.991     0.332 -68.23   0
        87    547.0049    736.5128 300.1395004 +22.7375959     458.5083     70.16879      1.498     2.41    -4.131353     19.81695     51.94363         8     0.771     0.661  71.16   0
        88    538.6158    728.7929 300.1394008 +22.7328640     1876.387     70.16879      1.495     2.93    -4.105507     19.81695     198.9203        24     1.151     1.091  26.99   0
        89     64.5568    726.2501 299.9928483 +22.5898061     91.21278     70.27616      0.992     4.64    -4.489876     19.81695      38.1686         6     1.263     0.484 -84.53   0
        90    528.9095    722.4347 300.1384484 +22.7281273     862.1334      70.2046      1.600     3.81    -4.085935     19.81695     77.33718        15     1.133     0.910  -6.24   0
        91    191.9936    718.8216 300.0348530 +22.6259507     400.5975      70.2225      1.270     3.35    -4.579754     19.81695     52.32672         8     0.797     0.692 -40.27   0
        92    206.7320    717.0447 300.0400109 +22.6298671     351.4672      70.2046      1.483     2.82    -4.534721     19.81695     41.03541         7     0.711     0.678  89.25   0
        93    263.4047    714.9263 300.0583137 +22.6462768     287.3686     70.16879      1.703     6.01    -4.203786     19.81695     26.79774         6     1.223     0.829 -55.90   0
        94    232.6203    714.1581 300.0489953 +22.6368133      378.812     70.27616      1.442     4.68    -4.418688     19.81695     41.84852         7     0.973     0.677  86.69   0
        95    975.3762    713.5949 300.2804002 +22.8595112     256.3096      70.2225      1.341     3.89       -4.013     19.81695     33.87449         5     0.971     0.446 -13.82   0
        96    453.6892    712.2857 300.1183449 +22.7026415     1109.561     70.40122      1.558     2.96    -4.029716     19.81695     117.8842        18     1.061     1.035  59.68   0
        97    107.7566    707.5094 300.0123613 +22.5974108     11433.29     70.24039      1.403     2.44    -4.578323     19.81695     1411.922        44     1.228     1.129  88.51   0
        98     28.2719    709.3594 299.9870740 +22.5740669     373.7757      70.2225      1.371     4.78    -4.266307     19.81695      58.3897        10     1.115     1.001  10.82   0
        99    538.6555    707.4314 300.1463616 +22.7267482     596.3698     70.25828      1.527     3.26    -4.040056     19.81695      61.0902        11     0.957     0.794  68.09   0
       100    956.3837    693.8217 300.2809103 +22.8481394     677.7755      70.2046      1.425     4.09    -3.977088     19.81695     80.88628        13     1.157     0.878  85.24   0
       101     53.7957    691.6002 300.0007756 +22.5766445     753.8514     70.06125      1.726     5.37    -4.356605     19.81695     80.01505        16     1.559     0.729 -88.58   0
       102    896.6030    686.2463 300.2647380 +22.8280402     493.5845      70.2225      1.525     3.19    -3.943097     19.81695     54.28054         6     0.863     0.639  72.25   0
       103    458.7237    680.2369 300.1303347 +22.6949603     377.3266      70.2046      1.549     4.68    -3.984324     19.81695     40.60487         9     1.025     0.841  70.56   0
       104    624.5331    677.2604 300.1829059 +22.7438593     368.4969     70.27616      1.285     3.30    -4.116709     19.81695     39.68363         5     0.755     0.419 -64.48   0
       105    502.6471    676.3534 300.1452639 +22.7070277     555.6006     70.24039      1.615     4.59    -3.966169     19.81695     56.11411        11     1.121     0.832  14.76   0
       106    936.5618    671.6248 300.2819500 +22.8358230      1841.66     70.25828      1.304     2.44    -3.934933     19.81695     221.9572        19     0.997     0.956 -77.78   0
       107    468.4632    671.8215 300.1361016 +22.6954694     1026.977      70.2046      1.601     3.31    -3.966941     19.81695     107.8517        16     1.085     0.961  39.28   0
       108     30.5593    665.6899 300.0019856 +22.5622402     2909.341     70.24039      1.416     2.55     -4.28746     19.81695      349.818        25     1.151     0.996 -73.36   0
       109    331.8971    658.6270 300.0979166 +22.6506966     5289.612      70.2046      1.537     2.99    -4.067235     19.81695     534.8969        35     1.270     1.136  71.22   0
       110    454.2959    655.5870 300.1369734 +22.6865610     5262.936     70.16879      1.556     2.93     -3.89276     19.81695     504.6434        37     1.267     1.189  81.72   0
       111    684.2928    652.9111 300.2094323 +22.7547989     197.3208     70.40122      2.863     5.38    -3.863177     19.81695      32.1112         5     1.442     0.566 -68.56   0
       112    865.8491    649.2741 300.2671770 +22.8082039     1104.461     70.24039      1.452     3.06    -3.760525     19.81695     110.1029        15     1.062     0.880 -63.88   0
       113    950.4160    646.6077 300.2944054 +22.8327929     7266.952     70.16879      1.362     2.50    -3.892921     19.81695     822.7114        36     1.122     1.079  57.41   0
       114    514.8181    645.1376 300.1592025 +22.7017248      6634.68      70.2046      1.571     3.09      -3.8282     19.81695      594.083        37     1.297     1.170  80.79   0
       115    242.6176    640.6741 300.0759996 +22.6187475     689.5272     70.24039      1.569     3.51    -3.924239     19.81695     74.23382        12     1.084     0.771  64.85   0
       116    446.4887    633.3903 300.1417624 +22.6778510     2469.446      70.1867      1.597     3.24    -3.783849     19.81695     226.5883        24     1.182     1.113  59.71   0
       117    789.6241    633.3618 300.2485989 +22.7807787       440.19     70.25828      1.429     3.52     -3.69609     19.81695     52.00743        10     0.901     0.804 -60.92   0
       118    424.7761    631.8786 300.1354996 +22.6709015     805.6148      70.2225      1.573     3.52      -3.7801     19.81695     65.47071        13     1.101     0.803 -54.52   0
       119    178.8970    631.2101 300.0592742 +22.5969033     439.9333     70.15088      1.468     4.69    -3.900578     19.81695     40.29811         8     0.972     0.706  22.12   0
       120    866.0941    628.7471 300.2739285 +22.8023838     970.3806     70.31192      1.537     3.51    -3.672404     19.81695     89.17857        18     1.183     0.946 -53.38   0
       121    563.0929    620.8688 300.1821178 +22.7092458       117189     70.36552      1.592     3.09    -3.741562     19.81695     10530.77       152     1.482     1.480  54.98   0
       122    746.7272    625.1929 300.2378915 +22.7655693     524.2698      70.1867      1.659     4.08     -3.59264     19.81695     53.20132        11     1.196     0.643   8.29   0
       123    249.2922    621.0209 300.0844642 +22.6151161     2138.103     70.16879      1.501     2.68    -3.805318     19.81695     253.3723        26     1.191     1.114  53.78   0
       124    815.1531    616.5856 300.2620082 +22.7836178     253.9229     70.25828      1.256     3.73    -3.603197     19.81695     44.94561         6     0.914     0.777  51.46   0
       125    453.6927    601.1602 300.1544826 +22.6707671     1445.697     70.24039      1.647     3.34    -3.635379     19.81695     124.8074        21     1.140     1.091  59.82   0
       126    684.7259    596.3644 300.2279538 +22.7386994     144.4169      70.1867      1.282     4.43    -3.388756     19.81695     26.46881         5     0.954     0.584  50.96   0
       127    850.5926    587.0466 300.2826561 +22.7857627     939.4775     70.25828      1.576     3.60     -3.55536     19.81695     86.28369        17     1.101     0.990 -63.77   0
       128    721.8566    584.9846 300.2432177 +22.7465687     1386.049      70.2225      1.494     3.10    -3.370738     19.81695     135.4873        21     1.120     1.045 -54.16   0
       129    965.9856    582.1411 300.3202218 +22.8189462     355.1258      70.2225      1.384     3.74    -3.719201     19.81695     38.24061         5     0.812     0.495 -60.22   0
       130    509.1455    581.0162 300.1782852 +22.6816258     444.6091      70.2225      1.436     4.48      -3.4916     19.81695     43.92737         7     0.924     0.623  72.90   0
       131    979.0967    578.7751 300.3254043 +22.8219093     645.9043     70.16879      1.331     2.60    -3.706774     19.81695     106.8869        12     0.921     0.830 -28.20   0
       132    964.3611    577.8244 300.3211186 +22.8172195     501.2943     70.25828      1.802     3.12     -3.70296     19.81695     46.59561         7     0.825     0.591  67.54   0
       133    850.8492    577.2165 300.2859319 +22.7830170      1248.69     70.27616      1.724     4.59    -3.547374     19.81695     110.1105        21     1.396     0.970  66.26   0
       134    604.3739    573.7648 300.2102821 +22.7081124     504.8158     70.25828      2.128     7.64    -3.468623     19.81695     35.24891        11     2.046     0.799 -80.14   0
       135    888.9379    572.3541 300.2993839 +22.7930396     2438.443     70.25828      1.510     3.01    -3.605144     19.81695     218.5757        28     1.213     1.129  29.14   0
       136    121.3042    563.3147 300.0634526 +22.5601464     659.7125     70.41908      1.540     3.11    -3.694497     19.81695     82.67891        12     1.050     0.785 -30.71   0
       137    980.5674    562.6781 300.3310961 +22.8177266      492.646      70.2225      1.427     4.22    -3.641502     19.81695     55.08881        10     0.960     0.852 -21.94   0
       138    721.6764    546.8677 300.2555526 +22.7355725     364.5726     70.32979      1.189     3.43    -3.243791     19.81695     35.72174         5     0.970     0.351 -46.96   0
       139    662.2919    543.5807 300.2381268 +22.7168203     409.5731     70.16879      1.504     3.80    -3.139472     19.81695      51.0256         7     0.861     0.604 -77.09   0
       140    723.1542    535.4720 300.2597170 +22.7327440     523.4371      70.2225      1.724     5.54    -3.176626     19.81695     48.94771        10     1.124     0.791  78.94   0
       141    977.2183    535.2705 300.3389612 +22.8088502     348.4113     70.27616      1.272     3.54    -3.488712     19.81695     52.58955         5     0.905     0.438  -5.43   0
       142    880.4952    531.2517 300.3101135 +22.7787048     590.5786     70.31192      1.426     2.99    -3.527792     19.81695     64.75336        10     0.918     0.750  21.59   0
       143    864.7773    527.7079 300.3063665 +22.7729754     342.1897     70.16879      1.604     4.77    -3.518558     19.81695     41.52732        11     1.134     0.860 -68.66   0
       144    608.9189    525.7390 300.2273079 +22.6956918      1891.34     70.32979      1.713     3.88    -3.179456     19.81695     143.7556        25     1.219     1.193 -23.87   0
       145    969.3266    524.4707 300.3400108 +22.8033828     267.7881     70.31192      1.118     3.38    -3.422345     19.81695     42.46651         5     0.756     0.438  22.87   0
       146   1020.2701    504.5548 300.3623705 +22.8129282      656.634     68.95843      1.322     3.49     -3.03518     19.81695     81.07936        13     1.110     0.813  85.14  16
       147    892.3954    504.1961 300.3226165 +22.7745014     344.4142     70.07919      1.508     3.56    -3.483053     19.81695     37.05896         5     0.822     0.444  72.83   0
       148    978.4319    503.1807 300.3497697 +22.7999958     481.2751     70.24039      1.444     3.16    -3.228933     19.81695      58.4898        10     0.905     0.788 -26.15   0
       149    719.7845    499.6166 300.2703210 +22.7214395     585.7836      70.2046      1.729     4.49    -2.958959     19.81695     49.73223        13     1.211     0.793  52.70   0
       150    224.0339    498.1240 300.1165603 +22.5722912     368.6517     70.24039      1.621     5.01     -3.31516     19.81695     36.25687         8     1.072     0.662 -84.75   0
       151    286.1085    493.9887 300.1371994 +22.5897347     2128.941      70.1867      1.578     3.34    -3.204729     19.81695       177.39        27     1.257     1.150 -89.66   0
       152   1018.8537    491.9355 300.3660300 +22.8088782     2399.762     70.27616      1.406     2.80    -2.869047     19.81695     281.4941        25     1.162     1.011  70.45  16
       153    233.3001    488.7362 300.1224908 +22.5723798     4322.697     70.32979      1.571     2.90    -3.265225     19.81695     506.7053        31     1.265     1.138  78.07   0
       154    374.0756    482.8705 300.1681651 +22.6129413     2656.039     70.31192      1.663     3.44    -2.718205     19.81695     231.2729        30     1.301     1.198 -72.10   0
       155    998.7948    482.8110 300.3627397 +22.8002460     967.2944     70.11504      1.402     3.03    -2.905107     19.81695     118.1323        16     1.106     0.900  44.32   0
       156    618.1437    479.3436 300.2452578 +22.6851408     10377.04     70.31192      1.709     3.51    -2.954468     19.81695     823.7032        49     1.411     1.317  79.00   0
       157    635.9326    479.5950 300.2507147 +22.6905476      460.665      70.2225      1.817     5.13     -2.95474     19.81695     31.06002         7     1.432     0.519 -66.07   0
       158    227.3974    470.0810 300.1267179 +22.5652576     2135.763     70.15088      0.625     1.18    -3.219449     19.81695     1049.989         7     0.520     0.349 -13.05   0
       159    951.5154    461.9560 300.3547742 +22.7800865     407.6945      70.2046      1.461     1.93     -3.16149     19.81695     53.71989         6     0.716     0.499  86.78   0
       160    172.8984    459.8528 300.1131047 +22.5459673     1229.317     70.32979      1.575     3.14    -3.202058     19.81695     109.5613        19     1.196     0.972  65.71   0
       161    558.8195    448.8970 300.2366835 +22.6586097      3800.06     70.15088      1.706     3.55    -2.783289     19.81695     290.9719        33     1.315     1.250  85.80   0
       162    972.1322    448.8489 300.3654616 +22.7824990     628.5352     70.24039      1.455     3.31    -3.015326     19.81695      66.2913        12     0.999     0.803  33.82   0
       163    274.3097    448.5991 300.1482797 +22.5731738     295.4384     70.15088      1.314     3.60    -3.140207     19.81695     46.05278         6     0.902     0.456 -84.31   0
       164    131.7036    441.9875 300.1061095 +22.5284791     436.4391     70.15088      1.699     2.50    -3.231864     19.81695      39.4815         7     0.707     0.656 -84.79   0
       165    762.8539    437.6593 300.3038703 +22.7165611     647.6225     70.29404      1.750     4.89    -2.953183     19.81695     53.35668        15     1.218     1.013 -58.59   0
       166    672.1718    439.1562 300.2751389 +22.6898042     293.4995     70.25828      1.666     3.78    -2.996598     19.81695     31.56396         5     0.921     0.445  44.54   0
       167    465.4481    435.2138 300.2120726 +22.6266775     3570.573     70.24039      1.726     3.50    -2.571818     19.81695     314.4347        32     1.328     1.214  77.00   0
       168    857.4313    429.5023 300.3359907 +22.7425674      606.051      70.2046      1.492     3.73     -3.02254     19.81695     62.90348        16     1.119     1.015   6.90   0
       169    954.5935    429.3476 300.3663293 +22.7716407     231.1846      70.2225      1.151     4.10    -2.988411     19.81695     41.00288         6     0.899     0.533  47.56   0
       170    829.7944    416.8479 300.3314891 +22.7306492     259.1183      70.2225      1.236     4.37    -2.975878     19.81695     32.24737         5     0.867     0.626  49.06   0
       171    353.1086    414.6081 300.1838230 +22.5870646     1315.591     70.15088      1.530     3.45    -2.496351     19.81695     143.4618        21     1.254     1.006  65.81   0
       172     71.7372    412.3366 300.0971140 +22.5019764      655.118     70.27616      1.596     3.30    -3.157654     19.81695     68.66447        12     1.089     0.744  32.22   0
       173    322.3654    403.9967 300.1777102 +22.5747965     16799.35     70.24039      1.698     3.25    -2.719149     19.81695     1584.147        62     1.448     1.362  72.27   0
       174    856.7227    401.1555 300.3449793 +22.7342122     821.0403      70.2225      1.612     3.65    -2.967701     19.81695     74.18275        14     1.079     0.875  86.79   0
       175     18.8392    392.1249 300.0872510 +22.4803016     2930.241      70.2046      1.498     2.78    -3.163512     19.81695     341.1442        28     1.206     1.107  77.23   0
       176    732.5334    383.4491 300.3120362 +22.6919035     1110.327      70.2225      1.730     3.95    -3.038905     19.81695     81.49689        20     1.201     1.087  40.65   0
       177    947.8675    375.7795 300.3816348 +22.7542340     310.1457      70.2225      1.550     4.81    -3.017514     19.81695     31.74208         6     1.124     0.583  70.55   0
       178    394.5754    368.4674 300.2117071 +22.5862631     1119.844      70.2225      1.716     3.80    -2.388495     19.81695     94.78838        21     1.193     1.107 -79.91   0
       179    833.8101    360.8072 300.3509451 +22.7157547     472.7493     70.11504      1.860     3.70    -3.069097     19.81695     38.13805         7     0.971     0.766 -28.87   0
       180    470.4844    347.8888 300.2420052 +22.6031235     617.9488     70.36552      1.699     5.21    -2.290468     19.81695     48.21008        11     1.050     0.903 -83.24   0
       181    714.9962    339.4326 300.3208703 +22.6740049     1204.936     70.24039      1.733     4.19    -3.053114     19.81695     102.2056        19     1.223     1.116 -62.61   0
       182    976.3908    333.5010 300.4042608 +22.7506305     1906.555     70.13297      1.638     3.30    -3.070682     19.81695     184.3407        24     1.301     1.126  49.04   0
       183    424.2175    323.5066 300.2355292 +22.5822491     286.6535     70.16879      1.659     3.46    -2.307773     19.81695     35.62346         5     0.793     0.435 -21.82   0
       184     98.5584    317.9244 300.1361073 +22.4829487     758.8206      70.2225      1.451     3.56    -2.966738     19.81695     68.56277        11     0.943     0.888  87.70   0
       185    129.4358    317.7581 300.1457537 +22.4921670     373.1439     70.29404      1.601     4.71    -2.927279     19.81695     46.16079         8     0.984     0.639 -74.11   0
       186    786.5835    300.9431 300.3556708 +22.6844041     436.5109      70.2046      2.071     5.17    -3.095312     19.81695     38.13422         9     1.147     0.773  20.48   0
       187    884.6732    289.5356 300.3899437 +22.7105183      1136.78     70.27616      1.574     3.76    -3.046374     19.81695     97.03976        19     1.175     1.051  38.08   0
       188    303.3517    287.5212 300.2096245 +22.5356691     1164.075     70.24039      1.763     3.91    -2.442386     19.81695     121.2016        21     1.290     1.145 -22.29   0
       189    381.8297    282.3024 300.2357235 +22.5577093     546.0402      70.1867      1.813     6.67    -2.387872     19.81695     44.33099        12     1.306     0.983 -17.57   0
       190    783.3693    281.7451 300.3609031 +22.6779256     355.7294     70.25828      1.598     4.07    -3.087421     19.81695      49.3889         6     1.087     0.435  -1.60   0
       191    198.4381    274.8158 300.1811373 +22.5005508      409.178     70.25828      1.443     5.16    -2.511575     19.81695     48.96964         9     1.326     0.715 -59.40   0
       192    801.4031    270.7547 300.3700906 +22.6801719     264.6332     70.24039      1.764     5.49    -3.075689     19.81695     32.61391         7     1.496     0.568 -50.49   0
       193    736.0494    271.1810 300.3495911 +22.6607100     987.4795     70.24039      1.909     3.61    -3.073639     19.81695     85.46563        17     1.089     1.052 -18.86   0
       194   1006.9938    263.7499 300.4364546 +22.7397501     538.1844      70.2225      1.494     3.53    -3.040242     19.81695     51.00476         9     1.046     0.627  42.99   0
       195    739.9837    262.7482 300.3535546 +22.6594665     513.3491     70.24039      2.467     6.75    -3.067156     19.81695     37.35768        12     1.256     1.016 -33.08   0
       196    660.6645    261.8681 300.3291357 +22.6354415     671.0052     70.29404      1.526     3.96    -2.777849     19.81695     65.72598        15     1.128     0.998 -75.55   0
       197    855.9194    253.3162 300.3927414 +22.6914956     868.6774     70.38337      1.697     4.18     -3.03811     19.81695     67.96107        17     1.183     0.982 -64.70   0
       198    586.9841    253.3785 300.3089511 +22.6109177     517.5394      70.2225      1.792     6.05    -2.321857     19.81695     37.03094        12     1.151     0.893 -74.18   0
       199    867.9529    252.1596 300.3968674 +22.6947685     505.2881     70.29404      1.609     5.83    -3.032229     19.81695     37.10294        11     1.127     0.849 -89.56   0
       200    984.4462    242.5256 300.4363137 +22.7268959     574.9921     70.24039      1.438     4.10    -2.991425     19.81695     64.01084        13     1.110     0.820 -66.34   0
       201    218.8829    235.9725 300.2001010 +22.4955380     416.3871     70.24039      1.601     5.69    -2.310231     19.81695     32.85426        10     0.998     0.913  50.34   0
       202     80.7731    231.0905 300.1587730 +22.4527024     1207.674      70.2046      1.587     3.15    -2.639269     19.81695     134.3634        21     1.289     1.060 -81.17   0
       203    903.7527    227.6750 300.4159754 +22.6984567     414.6934     70.24039      1.671     5.06    -2.988537     19.81695     44.48046         8     1.258     0.587  49.49   0
       204    238.1710    224.3359 300.2098734 +22.4979843     3312.345     70.25828      1.643     3.25    -2.262088     19.81695      297.903        33     1.376     1.211  88.76   0
       205     22.3890    218.8397 300.1446163 +22.4316690     781.8895     70.24039      1.700     3.45    -3.000305     19.81695     81.02563        16     1.180     0.890   1.53   0
       206    221.5056    215.4858 300.2075659 +22.4904455       290.75     70.41908      1.389     5.18    -2.236595     19.81695     29.80399         8     0.879     0.862  60.54   0
       207    882.0739    205.3024 300.4164800 +22.6855327     2062.269     70.36552      1.682     3.60    -2.953301     19.81695      176.169        25     1.297     1.128  56.94   0
       208    985.6919    204.0661 300.4491871 +22.7162134     1615.008     70.36552      1.492     3.02    -2.852097     19.81695     146.4906        21     1.168     0.988  55.43   0
       209    431.1764    201.1999 300.2774009 +22.5492236     307.5266     70.16879      1.426     5.15     -2.63205     19.81695     28.88055         8     0.976     0.767  82.84   0
       210    356.4818    193.1702 300.2567735 +22.5245213     341.5827     70.25828      1.718     4.23    -2.294605     19.81695     29.03594         6     1.080     0.473 -29.81   0
       211    483.0300    188.1383 300.2977736 +22.5610191     943.3159     70.25828      1.703     3.75    -2.322317     19.81695     80.43964        18     1.195     1.018 -41.19   0
       212    257.1278    168.1764 300.2339927 +22.4875515     3225.151     70.27616      1.657     3.33    -2.162698     19.81695     277.8609        32     1.323     1.227 -75.41   0
       213    108.2597    167.1548 300.1880615 +22.4426050     454.5865     70.25828      1.733     5.49    -2.261187     19.81695     44.12996         9     1.183     0.807  56.43   0
       214    503.0312    153.4556 300.3152532 +22.5570546     3446.953     70.25828      1.683     3.54    -2.221892     19.81695     277.6771        33     1.309     1.233  19.12   0
       215    755.5929    143.0085 300.3972831 +22.6297396     567.2574     70.09711      2.442     4.42    -2.476835     19.81695     39.43278         7     1.085     0.529 -58.50   0
       216    847.7419    141.9827 300.4263298 +22.6570495     253.5284      70.2046      1.312     4.64    -2.698021     19.81695     35.16323         5     0.927     0.660 -60.55   0
       217    631.2807    133.4146 300.3616785 +22.5897353     3499.714      70.2225      1.725     3.55    -2.136981     19.81695     293.3204        34     1.341     1.276  68.52   0
       218    406.3501    132.4237 300.2919972 +22.5220320     978.8859     70.24039      2.132     5.39    -2.411034     19.81695     74.44795        21     1.535     1.153  83.57   0
       219    672.6449    130.6510 300.3754561 +22.6013361     566.3861     70.25828      1.687     5.05    -2.218929     19.81695       50.769        11     1.027     0.850 -59.51   0
       220    958.0018    124.4397 300.4663947 +22.6850292     314.6505     70.25828      1.291     4.57    -2.505233     19.81695     36.70036         9     0.946     0.690  66.52   0
       221    154.9649    125.0893 300.2162218 +22.4445435     394.1772      70.2225      1.535     4.06    -2.085512     19.81695      37.6232         6     0.950     0.497  37.69   0
       222    675.5959    118.2751 300.3803908 +22.5986644       1568.2     70.15088      1.720     3.75    -2.189469     19.81695     129.1825        21     1.193     1.076 -72.78   0
       223    316.1498    118.9288 300.2683228 +22.4911133     294.2638     70.24039      1.593     3.86    -2.222104     19.81695     36.33014         5     1.235     0.346  24.98   0
       224    690.7571    117.5739 300.3853401 +22.6030056     596.0454     70.25828      2.644     4.71    -2.221951     19.81695     36.28251         7     1.147     0.698   7.72   0
       225    761.9153    109.8288 300.4100190 +22.6220985     852.0256     70.24039      1.602     3.20    -2.320324     19.81695      78.0787        14     1.028     0.901  -3.23   0
       226    505.7348    102.9517 300.3324817 +22.5433593     649.9775     70.25828      1.790     3.41    -2.042835     19.81695     52.85177         9     0.936     0.748 -44.52   0
       227    700.3783    102.9017 300.3930973 +22.6016721      437.254     70.16879      1.616     3.87    -2.186723     19.81695     49.28581         7     1.001     0.658 -84.62   0
       228     78.1159    102.0510 300.1998210 +22.4148805     445.9806     70.24039      1.736     4.77    -2.081992     19.81695     31.72587         9     1.290     0.500  58.20   0
       229    409.6282    100.9276 300.3032359 +22.5139701     464.1961     70.24039      1.543     4.85    -2.245061     19.81695     43.01408        10     1.173     0.795   0.73   0
       230    791.5257     99.1784 300.4227003 +22.6279075      258.728     70.24039      1.574     4.57    -2.306947     19.81695     30.44998         7     0.919     0.645  -7.74   0
       231    748.9700     91.1020 300.4120618 +22.6128385     368.7469      70.1867      1.561     5.23    -2.223001     19.81695     34.26836         9     0.984     0.879 -58.30   0
       232    180.9633     90.7207 300.2354508 +22.4424766     2216.927      70.1867      1.621     3.29    -2.057546     19.81695     219.4193        27     1.273     1.155 -69.73   0
       233    741.7413     83.1702 300.4123832 +22.6083935     575.1767     70.25828      1.686     4.54    -2.201523     19.81695     50.10284        11     1.088     0.721  36.37   0
       234    296.9348     82.7511 300.2740851 +22.4749649     723.2013     70.25828      1.638     3.82    -2.203305     19.81695     66.83622        14     1.195     0.814  76.40   0
       235    799.8560     74.0368 300.4334526 +22.6231763     1260.947     70.24039      1.691     3.56    -2.184068     19.81695     108.3281        21     1.178     1.120  70.37   0
       236    183.4150     69.8235 300.2429915 +22.4372134     535.1059     70.24039      1.611     3.72     -2.08322     19.81695     52.48709         9     0.919     0.808  16.53   0
       237    974.7300     67.0196 300.4902408 +22.6735282     383.2811     70.25828      1.434     3.56    -1.995732     19.81695     50.20228         7     1.088     0.432  84.16   0
       238    748.6274     66.8428 300.4198252 +22.6057637     506.6752     70.25828      1.662     5.43     -2.16973     19.81695     49.61353        11     1.157     0.839  31.98   0
       239    600.7708     51.5635 300.3787340 +22.5570764      574.335     70.25828      1.688     4.94    -1.928351     19.81695     54.57772        12     1.243     0.928 -51.66   0
       240    210.3604     49.0956 300.2580892 +22.4393433     338.6424      70.2225      1.382     3.39    -2.101259     19.81695     33.52873         5     0.785     0.424  70.01   0
       241    763.9033     46.4943 300.4311851 +22.6044908      410.946     70.41908      1.636     4.21    -2.096859     19.81695      32.3056         6     1.014     0.498   2.90   0
       242    572.5949     44.8772 300.3721312 +22.5467127     1000.571     70.15088      1.625     3.49    -1.932591     19.81695     85.83374        19     1.221     0.988 -44.26   0
       243    295.7470     42.3914 300.2868074 +22.4630203     367.5016     70.24039      1.475     4.73    -2.196702     19.81695     40.24268         9     1.049     0.757   1.93   0
       244    529.7985     38.5440 300.3608643 +22.5320690     756.2296     70.16879      1.635     4.25    -1.957851     19.81695      57.1451        15     1.114     0.941  72.43   0
       245    635.2546     35.1411 300.3947976 +22.5626894     698.8511     70.29404      1.620     4.68    -2.006829     19.81695     72.38995        15     1.199     1.041 -68.56   0
       246    455.7442     29.3508 300.3408011 +22.5072351     1172.936     70.27616      1.622     3.38    -2.044922     19.81695     106.1401        21     1.197     1.044 -52.31   0
       247    102.7711     27.3172 300.2317208 +22.4008272     785.5369     70.25828      1.403     3.26    -2.008875     19.81695     89.73913        17     1.090     0.964 -89.34   0
       248    341.9813     13.9523 300.3104077 +22.4687139     3482.136     70.27616      0.418     2.25    -2.117094     19.81695      3000.93         7     0.402     0.383  -0.59   0
       249    297.4181     14.0303 300.2965252 +22.4553774     325.6123      70.2225      1.659     4.22    -2.190536     19.81695     35.36091         5     0.818     0.620   3.55   0
