#   1 NUMBER                 Running object number                                     
#   2 X_IMAGE                Object position along x                                    [pixel]
#   3 Y_IMAGE                Object position along y                                    [pixel]
#   4 ALPHA_J2000            Right ascension of barycenter (J2000)                      [deg]
#   5 DELTA_J2000            Declination of barycenter (J2000)                          [deg]
#   6 FLUX_APER              Flux vector within fixed circular aperture(s)              [count]
#   7 FLUXERR_APER           RMS error vector for aperture flux(es)                     [count]
#   8 FLUX_RADIUS            Fraction-of-light radii                                    [pixel]
#   9 FWHM_IMAGE             FWHM assuming a gaussian core                              [pixel]
#  10 BACKGROUND             Background at centroid position                            [count]
#  11 THRESHOLD              Detection threshold above background                       [count]
#  12 FLUX_MAX               Peak flux above background                                 [count]
#  13 ISOAREA_IMAGE          Isophotal area above Analysis threshold                    [pixel**2]
#  14 A_IMAGE                Profile RMS along major axis                               [pixel]
#  15 B_IMAGE                Profile RMS along minor axis                               [pixel]
#  16 THETA_IMAGE            Position angle (CCW/x)                                     [deg]
#  17 FLAGS                  Extraction flags                                          
         1    567.4515     14.8844 300.3722056 +22.5466330      1023.83     69.85188      1.423     2.83     -2.56355     19.70733     119.4183        15     1.006     0.879  60.81   0
         2      4.9945     11.0777 300.1985764 +22.3769614     305.9448     69.11855      1.253     3.57    -1.745649     19.70733     41.75278         7     0.877     0.537  43.39  16
         3    524.7404      8.5294 300.3609726 +22.5320124     868.2163     69.88745      1.583     3.88    -2.517224     19.70733     85.29384        17     1.226     0.897  34.85   0
         4    630.0649      5.3068 300.3948035 +22.5626355     841.4628     69.78067      1.517     3.48    -2.407677     19.70733     93.87527        15     1.135     0.886 -89.02  16
         5    225.6252      4.6677 300.2691959 +22.4412699     340.0611     68.43186      1.820     3.84    -2.641083     19.70733     35.65751         6     0.875     0.494 -45.69  16
         6    274.1813      2.5507 300.2849757 +22.4552159     187.7386     60.61151      1.312     5.06    -2.642068     19.70733     34.35141         6     0.965     0.833  55.09  24
         7    450.1641      1.0000 300.3402083 +22.5075067     256.3508     52.40818      1.126     3.29    -2.466986     19.70733     66.03275         5     1.243     0.289   0.00  24
         8    656.9650   1010.7175 300.0765025 +22.8593117     4065.961     69.81628      1.176     2.00    -5.848089     19.70733     702.5661        24     1.021     0.857  62.75   0
         9    227.1746   1012.8147 299.9421368 +22.7308668     1302.275     69.86966      8.694    11.18     3.297279     19.70733     39.15361        22     2.800     1.244 -16.82  19
        10    240.5722   1011.1177 299.9468527 +22.7344050     1241.922     69.85188      6.751    14.68     1.614237     19.70733     45.44949        44     5.153     1.163  48.21  19
        11    233.0125   1022.8793 299.9406741 +22.7355035     2007.656     58.48266      9.571    21.47     3.408717     19.70733     63.31614        93     4.455     2.873  45.09  27
        12    243.4139   1022.4612 299.9440426 +22.7385081     2300.018     60.52944      4.398    14.57     2.119986     19.70733     76.66755        60     3.144     2.166 -85.00  27
        13    239.3042   1019.6691 299.9436745 +22.7364738     1753.589     69.83408      5.331    12.59     2.463777     19.70733     67.50797        41     3.663     1.204  51.66  19
        14    209.1785   1022.6364 299.9333470 +22.7282744     615.3527     59.72331      6.224     8.81     6.677603     19.70733     28.97073        13     1.923     1.126  21.02  25
        15    169.6285   1022.4521 299.9211191 +22.7163403     800.8235     60.61151      5.642     8.24     12.10203     19.70733     39.54919        15     1.945     0.975 -25.45  26
        16    101.8038    998.7997 299.9077517 +22.6891892     1583.371     69.63804     21.657    28.80     9.644185     19.70733     42.84968       103     6.959     3.310 -83.50  19
        17    114.4502    997.0409 299.9122520 +22.6924850     1520.691     69.86966     17.850    25.19     9.219799     19.70733     38.24916        91     5.593     3.150 -56.14  19
        18    128.7414   1003.5114 299.9145844 +22.6986318      980.642       69.923      4.985     4.88     10.49399     19.70733     29.88888         5     1.085     0.621 -63.82   0
        19    565.4698   1001.4080 300.0510535 +22.8291805     895.4789     69.83408      1.087     1.98    -5.788275     19.70733     128.7537        12     0.790     0.750 -32.91   0
        20    742.7725    998.1080 300.1073282 +22.8814459     226.5343     69.79848      1.066     4.33    -5.751368     19.70733     31.05553         5     0.841     0.634 -51.56   0
        21    459.1335    997.9478 300.0190947 +22.7962661     644.4611     69.86966      1.150     2.12    -5.597898     19.70733     110.2338         9     0.750     0.677 -48.39   0
        22    389.9073    996.0524 299.9981811 +22.7749374     3629.593     69.90523      1.131     1.78    -5.033899     19.70733     802.0854        25     0.921     0.888  52.34   0
        23    248.1169   1005.0785 299.9511635 +22.7349411     316.0244     69.95854      0.980     2.24    0.4988276     19.70733     60.46924         6     0.697     0.567  42.45   0
        24     82.3390    973.7271 299.9098685 +22.6761604     1917.089     69.88745     21.201    52.71     2.446229     19.70733     61.74867       560    10.332     7.462 -47.45  19
        25    171.1640   1004.8408 299.9273298 +22.7117573     601.7339       69.923      4.394     4.48     9.288602     19.70733     29.59991         6     0.938     0.608  63.74   1
        26     66.5832   1016.1667 299.8911599 +22.6835802       2690.3     69.83408     11.743    25.72     4.871892     19.70733     60.08791       159     5.421     3.388 -35.61  19
        27    936.1649    974.5335 300.1752625 +22.9327001     1251.544     69.85188      1.060     1.70    -5.493599     19.70733     238.2313        15     0.877     0.788  74.23   0
        28    586.3350    971.8728 300.0671629 +22.8269756     248.0129     69.88745      0.962     3.34    -5.651421     19.70733     44.00053         5     0.779     0.416 -70.17   0
        29    725.0023    963.6160 300.1130233 +22.8662215     520.0316     69.72722      1.564     5.11    -5.415081     19.70733     64.93067        10     1.328     0.560  66.92   0
        30     84.9958   1011.6404 299.8983514 +22.6878165      3435.73     69.86966     21.094    61.44     9.150174     19.70733     70.91594       947    12.742     8.220  30.03  27
        31    759.6064    957.5675 300.1257700 +22.8748693     661.4014     69.85188      1.141     2.56    -5.381993     19.70733     109.4959        10     0.913     0.662  53.32   0
        32    781.9449    951.3347 300.1347574 +22.8797834     6605.109     69.90523      1.075     1.66    -5.337428     19.70733     1411.582        29     0.923     0.900 -84.11   0
        33    973.0161    951.0223 300.1944050 +22.9370056     119.1533     69.83408      0.848     1.90    -5.025834     19.70733     65.79597         5     0.619     0.528 -89.80   0
        34    827.3356    951.3096 300.1489067 +22.8933932      174.148     69.95854      0.939     2.35    -5.358053     19.70733     61.43422         5     0.700     0.457   7.30   0
        35     93.3493    943.1503 299.9232403 +22.6707106     413.8498     69.88745      1.217     2.72    -1.870558     19.70733     63.66202         5     0.767     0.403  67.02   0
        36    486.6589    939.8688 300.0465641 +22.7878813     335.7397     69.86966      1.258     2.06    -5.480672     19.70733     60.64195         6     0.758     0.471 -85.19   0
        37    833.5142    938.6418 300.1549555 +22.8916124     187.8399     69.81628      0.967     3.17    -5.238682     19.70733      52.6894         5     0.896     0.497 -86.11   0
        38    790.5930    933.4643 300.1432686 +22.8772515     696.3299     69.83408      0.942     2.09    -5.168885     19.70733     151.4931         9     0.754     0.630  72.23   0
        39    973.5257    932.2522 300.2006741 +22.9317718     68.46972     69.86966      0.905     2.19    -4.956092     19.70733     51.65148         5     0.675     0.490 -78.01   0
        40    642.7910    930.3865 300.0982413 +22.8320227     233.5683     69.76286      0.980     2.25    -5.277238     19.70733     52.51517         6     0.690     0.594  59.13   0
        41    828.7374    926.6586 300.1573678 +22.8867416     511.8544     69.90523      1.183     2.12    -5.124524     19.70733     88.05379         8     0.852     0.564 -71.98   0
        42    937.3875    923.8626 300.1921389 +22.9185268     190.5019     69.83408      0.929     2.44    -4.990373     19.70733     42.24453         5     0.712     0.450 -70.20   0
        43    876.8710    917.9809 300.1751913 +22.8986894     341.9723     69.88745      1.274     2.14    -5.041111     19.70733     78.44846         6     0.817     0.450 -50.30   0
        44    727.8882    917.1166 300.1290582 +22.8537503     508.0748     69.95854      1.357     3.13    -5.010431     19.70733     90.32307         8     0.925     0.732  33.11   0
        45    441.1550    913.7485 300.0409104 +22.7667337     2422.802     69.86966      1.092     1.74    -5.040061     19.70733     486.9504        18     0.887     0.825 -76.50   0
        46    102.9727    902.5344 299.9394473 +22.6619674     291.0313     69.83408      1.306     3.20    -4.486796     19.70733     48.75567         5     0.986     0.421 -65.51   0
        47    166.4094    899.6577 299.9600887 +22.6801976     473.6442     69.81628      1.065     2.85    -3.478404     19.70733     79.49944         9     0.892     0.716 -89.04   0
        48     82.0677    993.2800 299.9034193 +22.6816787     2879.367     69.95854     13.098    17.17     5.405372     19.70733     66.10928        84     3.142     2.609 -11.64   3
        49    143.4455    896.5792 299.9539566 +22.6724183     891.2228     69.90523      1.130     2.23    -3.833077     19.70733     129.2067        12     0.823     0.772  78.88   0
        50   1015.0716    885.0833 300.2289811 +22.9306914      1179.83      69.9763      1.126     1.63    -4.954363     19.70733     297.2949        14     0.998     0.658 -83.14   0
        51    969.3286    883.6365 300.2151892 +22.9165606     1209.557     69.85188      0.990     1.64    -4.860897     19.70733     275.8675        12     0.828     0.711  17.05   0
        52    675.3282    883.6924 300.1235688 +22.8283936      224.952     69.99406      0.920     3.42    -4.943256     19.70733     38.25515         6     0.855     0.508  41.99   0
        53    752.8983    877.6713 300.1496855 +22.8499380      270.805     69.99406      1.023     2.25    -4.774611     19.70733     61.98344         7     0.794     0.556 -30.52   0
        54    175.4493    878.0934 299.9699142 +22.6767342      295.311     69.88745      1.184     2.86    -4.220373     19.70733      55.1912         7     0.869     0.588  -8.95   0
        55    620.9907    871.7385 300.1105418 +22.8086613     2823.756     69.78067      1.166     1.81    -5.074082     19.70733     569.9902        22     0.974     0.853  70.53   0
        56    423.1353    868.8427 300.0499191 +22.7484512     394.6032     69.83408      1.112     1.96    -4.580889     19.70733     76.47742         8     0.744     0.642  41.20   0
        57    356.1819    867.0612 300.0296776 +22.7278414     2001.771     69.79848      0.488     2.24    -4.515779     19.70733     1324.737         7     0.424     0.361  22.60   0
        58    171.1811    865.8116 299.9725845 +22.6719333     891.2717     69.81628      1.274     2.35    -4.567733     19.70733     125.3729        11     0.883     0.771  88.15   0
        59    641.7336    864.1420 300.1194713 +22.8127064      461.562     69.88745      1.256     2.41    -4.972806     19.70733     71.68459         7     0.819     0.601 -88.03   0
        60    190.4138    863.1434 299.9794281 +22.6769447     285.1055     69.83408      1.073     3.34    -4.591273     19.70733     46.46812         5     0.762     0.424  66.63   0
        61    797.0395    851.5094 300.1719492 +22.8556726     2425.492     69.85188      1.076     1.80    -4.656191     19.70733     486.1315        18     0.892     0.830 -89.60   0
        62   1013.8188    851.3202 300.2395780 +22.9206240     768.0109     69.85188      1.106     1.82    -4.913953     19.70733     143.0787         9     0.773     0.628  67.13   0
        63    205.4198    845.5290 299.9898218 +22.6764036     445.3053     69.88745      1.612     2.79    -4.496313     19.70733     48.71006         6     0.861     0.439 -72.35   0
        64    513.9381    843.9977 300.0862510 +22.7685813     319.5988     69.83408      1.048     3.41    -4.887235     19.70733     73.48586         9     1.075     0.605 -76.91   0
        65    160.2084    842.0556 299.9769047 +22.6618312     573.0563     69.85188      1.335     2.98    -4.599879     19.70733     81.02872        12     0.946     0.875  -8.45   0
        66    310.0853    834.2703 300.0260150 +22.7046033     30991.74     69.95854      1.188     2.02    -4.308113     19.70733     5226.289        65     1.147     1.068  78.30   0
        67    567.9471    833.2988 300.1065391 +22.7817204      896.501     69.94078      1.160     1.86    -4.928479     19.70733     181.8159        10     0.860     0.627  65.84   0
        68    980.6649    832.0181 300.2355210 +22.9051434     586.1093     69.83408      1.034     1.84    -4.712229     19.70733      111.466         7     0.687     0.582  67.49   0
        69    238.7339    832.3531 300.0044609 +22.6826311     271.4795     69.86966      1.205     3.45    -4.330628     19.70733     37.01682         5     0.768     0.448 -15.51   0
        70    596.8371    829.0517 300.1169128 +22.7891709      437.674     69.86966      1.114     2.02    -4.909537     19.70733     100.5884         7     0.715     0.591  87.94   0
        71    607.8065    827.4716 300.1208414 +22.7920090     335.4765     69.81628      1.247     4.09    -4.900152     19.70733     43.30249         7     0.868     0.590  88.46   0
        72    507.3976    820.6793 300.0918026 +22.7599317     160.7095     69.76286      1.306     4.83    -4.700491     19.70733     28.48139         6     0.925     0.716  73.42   0
        73    750.8738    813.8762 300.1698129 +22.8310276     542.1425     69.94078      1.139     1.74    -4.609947     19.70733     117.1763         8     0.731     0.603 -36.91   0
        74    359.8209    811.5129 300.0488818 +22.7130103     17974.33     69.78067      1.194     2.01      -4.1738     19.70733     2801.346        44     1.077     1.020  73.59   0
        75    374.0486    812.0222 300.0531402 +22.7174270     1079.842     69.85188      1.213     2.04    -4.185606     19.70733     196.9604        13     0.915     0.775  74.65   0
        76    882.7764    807.1356 300.2131025 +22.8686509     1734.873     69.83408      1.113     1.85    -4.466378     19.70733     342.8179        15     0.885     0.753 -78.69   0
        77    370.9471    805.7433 300.0542184 +22.7146960     390.3421     69.90523      1.134     2.47    -4.146554     19.70733     51.29407         7     0.696     0.656 -62.82   0
        78    242.2012    803.3715 300.0149665 +22.6753660     583.7721     69.81628      1.209     2.35    -4.112672     19.70733     76.02857         9     0.847     0.639 -69.37   0
        79    640.8384    803.1858 300.1390254 +22.7949530     659.8804     69.86966      1.218     2.23    -4.762636     19.70733     111.2099         8     0.895     0.525 -35.79   0
        80    477.2272    803.2454 300.0880875 +22.7458781     201.5007     69.86966      0.987     3.62    -4.395452     19.70733     41.08754         5     0.832     0.492  45.61   0
        81     47.0264    798.7407 299.9558419 +22.6154284      217.763     69.85188      1.105     2.94     -4.67836     19.70733      46.9953         7     0.732     0.662 -30.75   0
        82    487.9842    798.0413 300.0931271 +22.7476139      461.903     69.86966      1.219     2.53     -4.40739     19.70733     80.19699         9     0.820     0.677 -36.42   0
        83    888.8738    794.7910 300.2190190 +22.8669361     284.5692     69.85188      0.987     2.20    -4.398815     19.70733     67.87688         5     0.716     0.480 -61.18   0
        84    345.4364    793.9109 300.0501351 +22.7036462     197.6096     69.83408      1.175     4.14    -4.090954     19.70733     34.96647         5     0.803     0.608 -10.69   0
        85    434.0205    793.0000 300.0779798 +22.7299734     149.6788     69.76286      1.032     1.85    -4.171082     19.70733     48.74728         5     0.579     0.572  90.00   0
        86     75.6611    792.4005 299.9667963 +22.6222121      310.256     69.81628      1.165     2.43    -4.613853     19.70733     47.55479         5     0.681     0.470 -16.19   0
        87    866.7276    789.6743 300.2137816 +22.8588270     316.4644     69.90523      1.208     3.46    -4.353512     19.70733     45.58244         5     0.772     0.448  12.55   0
        88    239.7954    787.5582 300.0193627 +22.6701113     368.4364     69.86966      1.241     2.26    -4.091476     19.70733     65.06882         5     0.740     0.545 -57.35   0
        89    532.8544    776.2157 300.1141881 +22.7548188     464.6288     69.81628      1.441     2.35    -4.460207     19.70733     61.91898         6     0.735     0.560  86.19   0
        90    554.8289    773.5659 300.1218885 +22.7606521     863.7653     69.86966      1.150     2.01    -4.546397     19.70733     136.3192        13     0.865     0.765  80.55   0
        91    949.1381    772.3699 300.2450977 +22.8785686     2655.218     69.86966      1.075     1.72    -4.282778     19.70733     505.0066        20     0.911     0.825  70.64   0
        92    474.3542    773.3134 300.0969302 +22.7364324     197.5131     69.83408      1.143     3.87    -4.117456     19.70733     40.81991         5     0.966     0.445  -8.80   0
        93    937.5753    763.8790 300.2442551 +22.8726646     927.5834     69.83408      1.054     1.91    -4.209212     19.70733     168.2633        12     0.830     0.742 -72.34   0
        94    300.7434    757.8946 300.0479549 +22.6799052     409.6884     69.90523      1.020     1.85    -4.055812     19.70733      98.5387         7     0.666     0.631 -72.26   0
        95    763.9696    755.0707 300.1930216 +22.8180812     1538.746     69.85188      1.269     2.09    -4.425596     19.70733      249.831        16     0.955     0.929  56.70   0
        96    968.6872    753.9005 300.2572003 +22.8791267     1060.249     70.01182      1.095     1.65    -4.176036     19.70733     227.8484        11     0.800     0.653  83.74   0
        97    982.8110    744.3819 300.2647000 +22.8806277     103.0206     69.81628      0.898     3.44    -4.111603     19.70733     28.13334         5     0.777     0.440 -18.70   0
        98    149.0027    741.8856 300.0060059 +22.6297610     283.0428     69.78067      1.047     2.05     -4.16299     19.70733     64.60841         5     0.614     0.549  89.77   0
        99    846.3779    740.6287 300.2233937 +22.8386480      205.654     69.85188      0.976     3.46    -3.964937     19.70733     53.85985         6     0.927     0.394 -19.44   0
       100    882.3890    732.0325 300.2374120 +22.8469775     86099.66     69.85188      1.153     1.87    -3.927384     19.70733     15272.34       111     1.193     1.122  81.55   0
       101    735.0046    732.1999 300.1914382 +22.8028314     465.3567     69.67372      1.186     1.87    -4.587723     19.70733     90.37079         8     0.741     0.622 -46.08   0
       102    568.6586    721.0308 300.1432791 +22.7497315     931.0703     69.86966      1.247     2.06    -4.199988     19.70733     155.9653        15     0.961     0.850   5.15   0
       103    749.8719    718.2056 300.2006202 +22.8032740     5606.781     69.79848      1.223     1.96    -4.339551     19.70733     947.6584        31     1.036     0.990  64.90   0
       104    251.4422    713.5637 300.0470471 +22.6523972     2826.117       69.923      1.205     2.15    -4.059667     19.70733     401.0386        23     0.993     0.977 -73.41   0
       105    333.6861    711.6597 300.0732324 +22.6765373     840.3793     69.95854      1.327     2.90    -4.035313     19.70733     101.5107        10     0.997     0.656  59.74   0
       106    209.5072    709.3674 300.0353793 +22.6386058     331.1379     69.78067      1.364     2.74    -4.086319     19.70733     61.02642         7     0.897     0.712 -44.86   0
       107    541.9087    707.0135 300.1395124 +22.7376855      437.439     69.79848      1.327     2.80    -3.813548     19.70733     55.57496         8     0.819     0.637 -55.14   0
       108    533.5147    699.2249 300.1394329 +22.7329330     1872.032     69.81628      1.204     2.20    -3.734851     19.70733     255.2517        17     0.992     0.838  67.29   0
       109    523.6423    692.8497 300.1384338 +22.7281424     753.8027     69.86966      1.225     2.29    -3.688165     19.70733     118.3797        13     0.889     0.798  53.30   0
       110    917.5381    690.7027 300.2618084 +22.8456495     387.2233     69.94078      1.003     2.47     -3.91823     19.70733     49.35717         5     0.710     0.426  62.89   0
       111    186.8178    689.3495 300.0348378 +22.6260561     378.8584     69.85188      1.196     2.44    -4.099268     19.70733     65.05708         7     0.780     0.648  70.18   0
       112    201.2778    687.6917 300.0398699 +22.6299217     319.8238     69.99406      1.130     2.50    -4.090743     19.70733     57.39823         8     0.893     0.563  21.14   0
       113    257.6869    684.6716 300.0583823 +22.6459886     196.4876     69.97631      1.100     3.22    -4.055181     19.70733     37.85618         6     0.838     0.532 -46.39   0
       114    227.0898    684.3580 300.0489750 +22.6367145     438.6271     69.86966      1.335     3.68    -4.075048     19.70733     48.71622         9     1.070     0.558  62.69   0
       115    970.2346    683.9058 300.2804467 +22.8594934     179.8328     69.83408      1.076     3.78    -3.987106     19.70733     44.58203         7     0.840     0.672 -40.69   0
       116    448.5349    682.7495 300.1183502 +22.7027112      1041.52     69.88745      1.237     2.33    -3.746956     19.70733     152.1807        14     0.952     0.787  68.19   0
       117    102.4633    677.8351 300.0123760 +22.5974304        11375     69.85188      1.240     2.24    -4.055446     19.70733      1586.46        41     1.144     1.014  76.98   0
       118   1023.7379    679.7200 300.2984912 +22.8743268     344.2954     54.06567      0.800     1.24    -4.069796     19.70733     118.0679         5     0.638     0.398  67.87  24
       119     22.8070    679.0724 299.9872367 +22.5738667     405.9973     69.81628      1.601     4.71    -4.042479     19.70733      39.2413         9     1.008     0.790 -42.07   0
       120    533.3428    677.9294 300.1463038 +22.7267723     610.2967     69.86966      1.288     2.56    -3.557147     19.70733     73.35291         9     0.827     0.690  27.21   0
       121    951.2498    663.7427 300.2810841 +22.8480134     710.6267     69.90523      1.239     2.30    -3.906141     19.70733     102.9188        10     0.830     0.722  32.53   0
       122     48.6455    662.0225 300.0008028 +22.5767395     881.7195     69.88745      1.638     5.40    -4.051012     19.70733     75.40979        14     1.500     0.664 -88.83   0
       123    817.9007    661.9062 300.2401204 +22.8075126     407.9603     70.02957      1.277     2.79    -3.784469     19.70733     52.69506         8     0.841     0.620 -42.69   0
       124    114.3823    661.9667 300.0212370 +22.5964608     409.1693     69.83408      1.652     4.93    -4.083529     19.70733     40.31573         7     0.869     0.793  44.58   0
       125    496.5812    658.7386 300.1411044 +22.7102387     413.8633     69.83408      1.927     3.70    -3.579638     19.70733     43.32328         6     0.881     0.605  23.92   0
       126    891.4619    656.8166 300.2646990 +22.8281038     377.8333     69.83408      1.070     1.91    -3.756628     19.70733     69.74756         6     0.702     0.498 -87.99   0
       127    887.1710    656.4391 300.2634843 +22.8267091      247.789     69.86966      0.967     2.55    -3.746523     19.70733     41.84682         5     0.709     0.461  19.82   0
       128    453.6161    650.8440 300.1303040 +22.6950841     429.6793     69.86966      1.396     2.01     -3.64957     19.70733     61.97814         5     0.695     0.441  67.62   0
       129    601.4749    649.3625 300.1767968 +22.7390131     389.6101     69.79848      1.203     3.71    -3.932862     19.70733     49.47311         6     0.895     0.442  72.57   0
       130    618.6328    647.5158 300.1827384 +22.7436293     381.3568     69.81628      1.393     4.78    -3.971518     19.70733     47.71694         9     1.069     0.746  -7.71   0
       131    497.6921    646.8534 300.1453140 +22.7071624     671.6211     69.90523      1.307     2.01    -3.541379     19.70733     82.07175         7     0.689     0.616  70.70   0
       132    931.2493    642.0240 300.2819104 +22.8357822     1980.754     69.85188      1.197     1.97    -3.712688     19.70733     343.7411        19     0.942     0.870  83.84   0
       133    463.0608    642.2145 300.1360476 +22.6954423      857.032     69.81628      1.309     2.50    -3.600726     19.70733     119.6859        14     0.935     0.828  -6.32   0
       134     25.2535    635.9735 300.0020070 +22.5622504     2953.041     69.86966      1.254     2.15    -4.032191     19.70733     446.1346        22     1.013     0.928  81.23   0
       135    326.5801    628.9915 300.0979001 +22.6506991     5312.868     69.81628      1.303     2.17     -4.04345     19.70733      802.528        31     1.126     1.003  88.66   0
       136    449.0014    626.0081 300.1369422 +22.6865754     5247.532     69.67372      1.332     2.39    -3.571503     19.70733     720.3323        29     1.102     1.004 -86.80   0
       137    695.1824    621.9855 300.2148727 +22.7592588     298.9519     69.81628      1.229     4.14    -3.798259     19.70733     35.35749         6     1.099     0.445  63.20   0
       138    860.6732    619.6661 300.2671814 +22.8082080     1205.957     69.88745      1.228     2.13    -3.555161     19.70733     171.9649        14     0.892     0.832  42.22   0
       139    945.2617    617.0579 300.2943952 +22.8328126     7213.118     69.90523      1.202     1.98    -3.668371     19.70733     1248.769        31     1.006     0.976  71.24   0
       140    509.5826    615.5665 300.1591844 +22.7017534     6842.927     69.83408      1.296     2.29    -3.428206     19.70733     914.7396        33     1.139     1.014  77.08   0
       141    236.9703    611.0981 300.0758612 +22.6186758     907.5773     69.78067      1.318     2.44    -4.073931     19.70733     141.2257        12     0.929     0.787 -70.54   0
       142    679.0656    611.0458 300.2134100 +22.7512862     374.6726     69.85188      1.057     2.45    -3.705575     19.70733     70.73309         7     0.861     0.483  53.69   0
       143    441.3040    603.7598 300.1417797 +22.6778839     2447.759     69.85188      1.332     2.42    -3.528729     19.70733     296.5963        26     1.135     1.023 -74.52   0
       144    783.8984    603.5389 300.2485018 +22.7805629     409.0215       69.923      1.299     2.48    -3.764741     19.70733     77.91271        11     0.926     0.733  53.49   0
       145    419.5108    602.2000 300.1355078 +22.6708984     691.9656     69.76286      1.318     3.06    -3.562393     19.70733     95.06136        14     1.042     0.879 -21.49   0
       146    173.8905    601.6718 300.0593231 +22.5970403     423.8455     70.01182      1.370     2.48    -4.113367     19.70733     60.42886         9     0.854     0.663 -68.27   0
       147    861.0283    598.9367 300.2740305 +22.8023625     836.8137     69.85188      1.365     2.74     -3.49699     19.70733     125.0257        14     1.017     0.810 -47.70   0
       148    107.3716    599.7767 300.0392743 +22.5765297     252.1166     69.85188      1.224     3.45    -4.195001     19.70733     32.19215         5     0.755     0.457 -74.74   0
       149    381.3856    597.6281 300.1251363 +22.6581486     260.8376     69.86967      1.404     4.17    -3.787911     19.70733     26.61047         5     1.025     0.485 -87.45   0
       150    557.8610    591.2465 300.1821134 +22.7092561     118759.1     69.86966      1.356     2.41    -3.427484     19.70733     15135.35       147     1.379     1.323 -73.69   0
       151    741.6780    595.9420 300.2378193 +22.7657243     513.1956     69.88745      1.424     3.91    -3.835371     19.70733     55.65321         9     0.978     0.654  65.96   0
       152    244.0405    591.3428 300.0844794 +22.6151329     1886.495     69.83408      1.292     2.36    -4.055995     19.70733     264.3144        19     1.011     0.898 -60.35   0
       153    809.8438    587.2838 300.2618688 +22.7836739     198.7114     69.81628      1.019     1.93    -3.631273     19.70733     56.75348         5     0.725     0.406 -19.13   0
       154    448.6085    571.9157 300.1544017 +22.6709396     1617.055     69.79848      1.533     3.01    -3.543655     19.70733     201.6431        23     1.485     0.929 -89.89   0
       155    293.1333    574.1872 300.1053147 +22.6249453     234.4845     69.83408      1.507     4.94     -3.95882     19.70733     40.12053         6     1.034     0.667  10.12   0
       156    860.0379    568.1112 300.2837412 +22.7932142     308.6407     69.83408      1.334     3.89    -3.480309     19.70733     29.87455         5     0.825     0.525 -55.03   0
       157    845.4713    557.5336 300.2826396 +22.7858109      987.006     69.88745      1.268     2.32    -3.490442     19.70733     121.1077        13     0.866     0.832 -51.45   0
       158    716.5007    555.2233 300.2432117 +22.7464869     1524.964     69.79848      1.341     2.57    -3.695161     19.70733     189.4003        18     1.010     0.937 -83.67   0
       159    960.9844    552.7620 300.3201958 +22.8190583     275.0001     69.85188      1.238     3.73     -3.67044     19.70733     46.65048         6     0.903     0.472  41.58   0
       160    503.6652    551.3271 300.1782218 +22.6815467     409.1198     69.88745      1.359     4.75    -3.553134     19.70733      52.7979         9     1.216     0.660  46.62   0
       161    973.9233    549.2189 300.3253815 +22.8219176     802.0044     69.85188      1.255     2.15    -3.734588     19.70733     129.7515        10     0.829     0.761  33.72   0
       162    845.6568    547.7562 300.2858750 +22.7830588     1329.393     69.85188      1.423     3.24    -3.474804     19.70733     166.9349        19     1.426     0.864  72.18   0
       163    959.8521    548.4202 300.3212538 +22.8174719     376.0012     69.83408      1.069     2.05    -3.655689     19.70733      75.5741         6     0.650     0.623  78.34   0
       164    599.1449    546.0917 300.2096385 +22.7086784     361.9001     69.90523      1.479     3.91    -3.509881     19.70733     32.07576         6     0.751     0.584  49.51   0
       165    883.7823    542.6655 300.2994111 +22.7930233     2420.603     69.83408      1.228     2.18    -3.471827     19.70733     385.7233        20     0.982     0.896 -76.24   0
       166    437.4833    544.3235 300.1599077 +22.6596862     267.6143     69.94078      1.393     3.38    -3.564731     19.70733     43.24503         5     0.780     0.425  66.29   0
       167    116.0457    533.4586 300.0635198 +22.5601208     485.7439     69.88745      1.125     1.92    -4.112077     19.70733     95.15585         8     0.740     0.626 -80.46   0
       168    975.6381    533.0375 300.3311748 +22.8177835     398.6852       69.923      1.110     2.00    -3.742087     19.70733     76.60237         7     0.691     0.615 -64.91   0
       169    108.3972    523.1519 300.0644927 +22.5548701     331.7935     69.85188      1.289     2.27    -4.063648     19.70733     40.64521         5     0.696     0.458  70.83   0
       170    657.1086    513.6004 300.2382422 +22.7167320     500.4523     69.72722      1.345     2.98    -3.513409     19.70733     58.19111         8     0.855     0.645 -56.57   0
       171    971.9246    505.4355 300.3389862 +22.8087418     344.5714     69.81628      1.233     3.01    -3.744106     19.70733     52.48773         8     0.905     0.653 -79.54   0
       172    718.0200    505.5692 300.2598201 +22.7326871     611.2051     69.85188      1.313     2.93    -3.567001     19.70733     66.87858         7     0.868     0.597  51.31   0
       173    875.2692    501.6193 300.3100958 +22.7786836     661.3162     69.85188      1.145     2.24    -3.482809     19.70733     101.2036         9     0.796     0.707 -41.30   0
       174    859.4454    498.1335 300.3062969 +22.7729405     329.9304     69.85188      1.265     2.48    -3.465728     19.70733     56.23047         6     0.720     0.612 -16.05   0
       175    603.8265    496.0821 300.2273457 +22.6957282     1873.884     69.83408      1.385     2.69    -3.169251     19.70733     217.6146        21     1.104     0.947  67.76   0
       176    964.2003    494.6822 300.3400719 +22.8033385     334.0796     69.72722      1.290     1.93    -3.724083     19.70733     56.45373         5     0.705     0.428 -19.05   0
       177     79.9180    487.6008 300.0671969 +22.5361292     244.5204     69.74504      1.438     3.95    -3.803504     19.70733     38.97609         5     0.997     0.448 -63.20   0
       178    443.8376    483.4832 300.1816523 +22.6441352     311.4849     69.81628      1.476     4.67    -3.430748     19.70733     31.95318         6     0.943     0.655  81.34   0
       179   1015.0793    475.0185 300.3623258 +22.8129321     581.0813     69.85188      1.101     1.97    -3.875711     19.70733     128.5815        10     0.837     0.682  35.79   0
       180    886.9106    474.5298 300.3225256 +22.7743914     353.7061     70.01182      1.395     2.93    -3.522711     19.70733     52.64684         7     1.052     0.563  83.34   0
       181    973.4399    473.5505 300.3498185 +22.8000360     567.4217     69.86967      1.130     2.71    -3.757324     19.70733     94.08611        12     0.907     0.842  23.59   0
       182    714.1937    470.0530 300.2701675 +22.7213428     541.9087     69.81628      1.333     3.15    -3.390718     19.70733     67.03097        11     1.010     0.695  69.94   0
       183    280.7475    464.1729 300.1372093 +22.5896739     2173.042     69.86966      1.355     2.62    -3.625865     19.70733     276.8815        21     1.026     0.996  60.83   0
       184   1013.6609    462.1967 300.3660491 +22.8088233     2535.527     69.83408      1.199     2.00     -3.84404     19.70733     409.4817        19     0.961     0.870 -71.30   0
       185    228.0311    459.0420 300.1224906 +22.5723861     4270.969     69.88745      1.363     2.54    -3.751829     19.70733     561.1241        28     1.119     0.997  69.53   0
       186    993.6778    453.2811 300.3627140 +22.8002754     1062.875     69.95854      1.193     2.11    -3.779718     19.70733     163.2474        15     0.989     0.787 -79.00   0
       187    368.8212    453.1557 300.1681719 +22.6129332     2776.116     69.90523      1.443     2.71    -3.426352     19.70733     331.2653        25     1.157     1.022  83.92   0
       188    629.5032    449.9916 300.2503127 +22.6901953     402.9285     69.74504      1.639     5.62     -3.04105     19.70733     35.34789         9     1.837     0.485 -74.94   0
       189    612.9499    449.7045 300.2452525 +22.6851503     10538.27       69.923      1.411     2.64    -2.988732     19.70733     1273.318        41     1.200     1.126  76.87   0
       190    232.9497    436.5297 300.1313315 +22.5674044     242.2073     69.85188      1.494     4.77    -3.688656     19.70733     39.62505         5     1.073     0.602 -79.25   0
       191    946.5422    432.2606 300.3548457 +22.7801154     512.5918       69.923      1.549     2.57    -3.665668     19.70733     62.13838         8     0.850     0.616 -64.96   0
       192    167.7677    430.2250 300.1131238 +22.5460392     1277.544     69.85188      1.399     2.77    -3.736082     19.70733     162.2041        15     1.050     0.801 -83.66   0
       193    553.5497    419.2408 300.2366579 +22.6585965     3771.076     69.86966      1.472     2.72    -3.039866     19.70733     400.5503        30     1.166     1.077 -84.49   0
       194    268.8391    419.0397 300.1481672 +22.5731540     370.0995       69.923      1.416     2.96    -3.497054     19.70733     51.86182         6     0.981     0.544 -67.42   0
       195    967.0990    419.1135 300.3655253 +22.7824964     699.1974     70.01182      1.297     2.56    -3.686108     19.70733     92.72944         9     0.826     0.689 -79.19   0
       196    757.4888    408.2524 300.3037277 +22.7165722     766.1967     69.86966      1.717     3.82    -3.037103     19.70733     82.05012        11     1.061     0.802  84.89   0
       197    667.2065    409.5559 300.2751860 +22.6898878     277.7297     69.86966      1.563     4.70    -2.830611     19.70733     33.85574         6     1.021     0.613 -63.34   0
       198    460.2408    405.4396 300.2121054 +22.6266574     3582.129       69.923      1.417     2.61    -3.445074     19.70733     409.6513        30     1.261     1.036  82.40   0
       199    949.6520    399.9669 300.3663045 +22.7717687     309.7123     69.86966      1.291     3.76    -3.624005     19.70733     51.69627         9     1.045     0.642 -73.31   0
       200    852.1318    399.6266 300.3360175 +22.7424547     744.9409     69.83408      1.271     2.78    -3.433959     19.70733      104.925        10     0.946     0.647  60.12   0
       201    445.3407    394.0192 300.2111789 +22.6189116      266.318     69.79848      1.184     3.38    -3.336383     19.70733     44.80062         5     0.797     0.416 -70.42   0
       202    347.8861    384.8989 300.1838303 +22.5870685     1313.317     70.01182      1.413     2.80    -3.236344     19.70733     161.6914        18     1.084     0.941 -88.86   0
       203     66.1391    382.5492 300.0970366 +22.5018706     618.2138     69.90523      1.382     3.22    -3.682633     19.70733     68.64222        12     1.031     0.769 -86.50   0
       204    317.1349    374.2808 300.1777166 +22.5747987     17230.87     69.95854      1.413     2.66    -3.178532     19.70733     1741.636        55     1.271     1.177  62.55   0
       205    851.6194    371.5621 300.3449721 +22.7342391     892.7405     69.86967      1.440     2.57    -3.385221     19.70733     99.47659        13     0.907     0.858  73.01   0
       206     13.4861    362.3305 300.0872509 +22.4802720     2860.121     69.95854      1.334     2.41     -3.68267     19.70733     353.2029        25     1.081     1.021  73.28   0
       207    191.4338    360.8016 300.1430219 +22.5332260     219.3429     69.81628      1.144     3.41    -3.679843     19.70733      33.3317         5     0.740     0.454 -70.11   0
       208    416.0479    359.7281 300.2132022 +22.6002859     314.7919     69.83408      1.533     2.99    -3.104953     19.70733     38.50575         5     0.787     0.498  59.62   0
       209    727.3928    353.7861 300.3120410 +22.6919102     1019.861     69.74504      1.432     3.02    -2.874892     19.70733     108.7464        15     1.012     0.897 -66.27   0
       210    942.4451    346.1026 300.3815501 +22.7541327      342.429     69.86966      1.308     3.93    -3.470879     19.70733     54.37516         8     1.016     0.719  61.19   0
       211    389.3805    338.4835 300.2118057 +22.5861919     1313.498     69.79848      1.667     3.90    -3.091896     19.70733     127.6157        22     1.306     1.013  73.42   0
       212    828.1899    331.1092 300.3508066 +22.7155981     321.8844     69.79848      1.264     2.49    -3.180954     19.70733     54.13465         8     0.777     0.673 -33.36   0
       213    465.2310    317.8598 300.2420959 +22.6030146      783.522     69.88745      1.507     3.65    -3.093082     19.70733      75.0272        15     1.090     0.956  35.52   0
       214    709.9584    309.6948 300.3209265 +22.6740218     1208.728     69.86966      1.374     2.78    -2.967688     19.70733     147.2507        19     1.078     0.968  83.15   0
       215    971.1431    303.8147 300.4042279 +22.7505755     1905.477     69.83408      1.302     2.20    -3.229103     19.70733     306.3215        21     1.061     0.958  45.74   0
       216    418.4192    293.6901 300.2353796 +22.5820416     408.2833     69.78067      1.460     2.97    -3.113011     19.70733     47.81255         6     0.838     0.501  44.10   0
       217    124.0247    288.1454 300.1456651 +22.4921608     436.9119     69.88745      1.388     3.61    -3.431746     19.70733     60.99022         9     1.043     0.623  89.13   0
       218     93.3098    287.8608 300.1362162 +22.4828648     721.2097     69.94078      1.605     3.98    -3.624993     19.70733     85.99982        19     1.240     1.124 -46.52   0
       219    986.9842    283.9756 300.4156079 +22.7496176     234.3348     69.86966      1.231     3.18    -3.094737     19.70733     36.09988         5     0.620     0.608 -88.53   0
       220    177.1801    279.9197 300.1648500 +22.5057458     297.6866     69.83408      1.322     2.49    -3.152921     19.70733     42.33484         6     0.733     0.553 -43.87   0
       221    781.7874    271.2484 300.3557820 +22.6844987     436.0672     69.86966      1.357     2.60    -3.159035     19.70733     48.00451         8     0.771     0.676  43.49   0
       222    879.7285    259.9834 300.3899586 +22.7106002     1134.216     69.85188      1.355     2.20    -3.273375     19.70733     176.9873        18     1.038     0.993 -24.75   0
       223    298.3937    257.6477 300.2097535 +22.5357077      1354.36     69.85188      1.523     2.82     -3.09797     19.70733      157.218        18     1.090     0.972 -76.63   0
       224    376.1913    252.7564 300.2355320 +22.5576307     606.6341     69.86966      1.502     3.76    -3.188851     19.70733     50.11078        12     1.049     0.848 -37.86   0
       225    778.3988    251.7948 300.3610407 +22.6778945     317.7542     69.67372      1.446     2.30    -3.132634     19.70733      39.1603         5     0.687     0.468 -73.44   0
       226    193.2024    244.8459 300.1812122 +22.5004877     497.7909     69.85188      1.244     2.93    -3.123144     19.70733     68.99241         9     0.974     0.620 -39.96   0
       227    731.1785    241.4577 300.3496860 +22.6607781    -38.04018     69.85188     -0.763     6.07     -3.10858     19.70733     126.1176        16     1.225     0.953 -23.70   0
       228    795.5330    240.9929 300.3698850 +22.6799236     518.4786     69.83408      2.032     4.74    -3.122281     19.70733      40.9327         7     0.900     0.707  28.87   0
       229    214.7310    238.1214 300.1900850 +22.5050148     431.4662     69.95854      2.180     4.13    -3.115551     19.70733     36.55786         5     0.755     0.669 -67.72   0
       230   1002.0570    233.7667 300.4366058 +22.7396989     488.7622     69.86966      1.225     2.39    -3.017471     19.70733     76.38361        10     0.825     0.734  68.44   0
       231    735.1642    233.1843 300.3536127 +22.6595953     401.6071     69.85188      1.446     3.10    -3.112892     19.70733      51.9833         7     0.865     0.556 -32.57   0
       232    655.3800    232.3722 300.3290287 +22.6354577      735.358     69.85188      1.417     3.40    -3.079117     19.70733     76.16698        14     0.991     0.950  27.39   0
       233    850.7183    223.5578 300.3927397 +22.6914435     889.7968     69.81628      1.439     2.75    -3.091503     19.70733     106.9433        14     1.004     0.882 -88.84   0
       234    581.5192    224.0495 300.3087346 +22.6109343     559.5525     69.88745      1.463     4.01    -3.003378     19.70733     68.75694        12     1.135     0.845  -0.10   0
       235    862.6635    222.7745 300.3967167 +22.6947961     354.0068     69.83408      1.296     2.91    -3.087212     19.70733     71.98755         9     1.018     0.651  42.44   0
       236   1023.3705    213.5684 300.4498080 +22.7402739     774.3705     55.96328      1.030     2.52    -2.991038     19.70733     129.7678        11     0.959     0.641  84.17  24
       237    979.2835    213.0377 300.4362318 +22.7269211     646.0351     69.83408      1.385     2.55    -3.031053     19.70733      92.2765        10     0.852     0.774 -27.63   0
       238      3.0803    211.0447 300.1331242 +22.4337604     350.4954     62.96486      1.547     4.14    -3.243088     19.70733     40.80219         7     1.004     0.611  63.29  16
       239    213.8430    206.4564 300.2000844 +22.4956614     486.8745     69.83408      1.439     2.98     -3.07675     19.70733     56.23475        10     0.959     0.680  88.25   0
       240     75.5177    201.2044 300.1588123 +22.4526676     1288.659     69.78067      1.360     2.58    -3.058532     19.70733     158.6681        15     1.002     0.844  75.03   0
       241    898.2717    198.1481 300.4158071 +22.6983826     302.8748     69.85188      1.156     2.52    -3.021368     19.70733     57.36082         8     0.777     0.674 -48.41   0
       242    232.9401    194.5693 300.2098768 +22.4979766     3291.497     69.88745      1.456     2.80    -3.079057     19.70733     374.0464        27     1.191     1.018  79.25   0
       243     17.2288    188.7856 300.1447397 +22.4316197       795.72     69.86966      1.426     3.30    -2.876967     19.70733     92.91994        15     1.128     0.849 -77.07   0
       244    216.2271    185.2523 300.2077055 +22.4902909     378.8493     69.86966      1.518     3.98     -3.03665     19.70733     43.71434         6     0.772     0.587  56.17   0
       245    876.8380    175.8200 300.4163716 +22.6855463     1999.342     69.86966      1.373     2.70    -2.915148     19.70733     242.9738        22     1.059     1.032 -55.62   0
       246    980.4995    174.3929 300.4491514 +22.7161758     1424.811     69.74504      1.168     2.28    -3.021403     19.70733     190.2006        15     0.951     0.837  73.55   0
       247    426.5016    171.1572 300.2776595 +22.5492854     391.8697     69.85188      1.318     2.46    -3.083945     19.70733     62.54839         7     0.781     0.616 -65.21   0
       248    541.0876    169.2451 300.3139335 +22.5830777     159.9612     69.83408      1.176     3.84    -2.716869     19.70733      35.9433         5     0.842     0.627  34.94   0
       249    116.8656    159.7782 300.1850964 +22.4531830     464.8124     69.83408      1.695     5.29     -2.95663     19.70733      52.5906        11     1.174     0.764 -44.35   0
       250    477.7095    158.4904 300.2977004 +22.5609958      934.059     70.01182      1.433     2.47    -3.012197     19.70733      131.532        14     1.003     0.831  82.47   0
       251    405.8503    159.2510 300.2750985 +22.5396767     283.2012     69.88745      1.536     4.69     -3.10557     19.70733     41.02252         7     1.065     0.587 -17.04   0
       252    221.3286    154.7336 300.2191923 +22.4830614     167.4862     69.88745      1.114     3.49    -2.960786     19.70733      40.2862         5     0.772     0.454 -79.02   0
       253    251.8242    138.5329 300.2339265 +22.4875548     3453.922     69.83408      1.451     2.59    -2.986585     19.70733     420.6517        31     1.211     1.104  82.63   0
       254    103.0578    137.8315 300.1879266 +22.4427442     395.8178     69.86966      1.270     3.25    -2.819952     19.70733     56.50655         7     0.736     0.652  61.78   0
       255     13.4483    129.1950 300.1628974 +22.4133897     161.4606     69.83408      1.195     4.25    -2.286929     19.70733     33.70446         6     1.062     0.485 -83.43   0
       256    497.7819    123.6851 300.3152373 +22.5570150     3561.067     69.79848      1.457     2.89    -2.699364     19.70733     398.2024        29     1.168     1.092 -89.93   0
       257    383.4896    123.6231 300.2797015 +22.5227441      267.643     69.78067      1.123     2.92    -2.927072     19.70733     53.87346         7     0.818     0.639  14.05   0
       258    750.5643    113.6429 300.3971970 +22.6298594     647.7175     69.90523      1.917     3.51    -2.815573     19.70733     58.83001        11     1.081     0.752  83.23   0
       259    843.1156    111.8623 300.4266115 +22.6570644     235.3926     69.94078      1.185     3.91    -2.658501     19.70733     32.88634         6     0.766     0.573 -30.18   0
       260    548.5469    105.7036 300.3368685 +22.5670614     209.3269       69.923      1.573     4.47    -2.564909     19.70733     29.19558         5     1.330     0.427  58.28   0
       261    626.1703    103.6657 300.3616932 +22.5897317     3481.581     69.86966      1.448     2.80     -2.66336     19.70733     375.1518        30     1.179     1.101  69.14   0
       262    401.1671    102.7674 300.2919647 +22.5220536     863.6591       69.923      1.459     2.96    -2.785874     19.70733     100.6323        15     1.001     0.953  88.09   0
       263    667.2373    100.9802 300.3753515 +22.6012621     458.5705     69.86966      1.275     3.20    -2.675972     19.70733     72.89472        11     1.009     0.865  46.12   0
       264    684.0733     96.8557 300.3819324 +22.6051200     356.9104     69.86966      1.430     3.88    -2.686676     19.70733     40.25518         6     0.781     0.552 -33.34   0
       265    952.8771     94.5997 300.4664253 +22.6849651     320.2073     69.72722      1.167     4.18    -2.773869     19.70733     48.84385         7     0.773     0.645  19.79   0
       266    150.3369     95.2273 300.2164338 +22.4446952     298.4621     69.85188      1.295     1.94     -2.72583     19.70733     55.69827         5     0.688     0.444  72.18   0
       267    721.9476     92.1372 300.3952589 +22.6151082     305.5974     69.90523      1.377     4.74    -2.715974     19.70733     48.12381         7     1.006     0.693 -24.27   0
       268    685.6987     87.6828 300.3854138 +22.6029710     591.2993     70.01182      2.024     4.92    -2.612845     19.70733     50.08862         8     1.268     0.601  53.47   0
       269    670.4523     88.4794 300.3804074 +22.5986331     1570.071     69.86967      1.479     3.03    -2.592749     19.70733     167.5666        21     1.117     1.016  74.61   0
       270    756.7486     79.9385 300.4100560 +22.6220250     1048.989     69.90523      1.663     4.10    -2.573542     19.70733     94.25284        19     1.251     1.033 -73.66   0
       271    694.7548     73.0234 300.3929888 +22.6014708     491.6119     69.88745      1.630     3.92    -2.494522     19.70733     41.99546         8     0.976     0.637  77.98   0
       272    500.4857     72.8071 300.3325810 +22.5432113     554.8804     69.78067      1.370     2.69     -2.52587     19.70733      74.6468        12     0.943     0.781 -30.78   0
       273    404.3843     70.9181 300.3032951 +22.5138713     500.4053     69.83408      1.424     3.17    -2.667537     19.70733     57.87642         9     0.919     0.760  52.40   0
       274     73.2601     72.3169 300.1999198 +22.4150073     268.6697     69.94078      1.337     4.40    -2.213499     19.70733     39.55569         5     0.770     0.717 -10.02   0
       275    743.5497     61.3456 300.4119745 +22.6127285     513.1522     69.88745      1.906     6.65    -2.415151     19.70733     34.01985        13     1.144     1.085 -24.79   0
       276    175.7895     61.0428 300.2354288 +22.4425146     2212.105     69.85188      1.420     2.58    -2.737853     19.70733     295.1446        21     1.081     0.994  81.41   0
       277    736.9871     53.3892 300.4125105 +22.6084764      552.749     69.76286      1.433     3.17    -2.342561     19.70733     67.92518        11     0.983     0.783  47.72   0
       278    291.8830     53.3308 300.2740137 +22.4751027     654.3615     69.95854      1.379     3.17    -2.815564     19.70733     89.35223         9     0.907     0.672  74.85   0
       279    774.8618     48.4673 300.4259056 +22.6184037     430.8208     69.90523      1.578     4.05    -2.262353     19.70733      48.8639         9     0.971     0.803 -88.39   0
       280    698.2542     47.9316 300.4022162 +22.5953080     373.1857     69.88745      1.462     4.82    -2.272168     19.70733     31.75684         8     1.019     0.646 -73.59   0
       281    794.5786     44.4162 300.4333624 +22.6231433     1269.614     69.83408      1.441     2.56    -2.217707     19.70733     142.9398        19     1.070     0.984 -84.45   0
       282    177.9463     39.8491 300.2429715 +22.4370774     518.3516     69.88745      1.397     4.28    -2.733898     19.70733     57.65953        15     1.226     0.973 -27.08   0
       283    743.2402     37.0516 300.4197565 +22.6056532      506.033     69.85188      1.371     3.46    -2.176452     19.70733     57.86049        11     0.983     0.786 -66.88   0
       284    969.5560     37.0253 300.4902988 +22.6734026     633.6805     69.86966      1.572     3.00    -3.352224     19.70733     63.10897        10     0.893     0.746   6.25   0
       285    327.9965     26.6494 300.2938940 +22.4782651     201.2327     69.85188      1.343     3.37    -2.669024     19.70733     32.24889         5     0.777     0.589  89.49   0
       286    595.4904     21.9116 300.3786553 +22.5570511     445.7141     70.01182      1.348     3.66    -2.623557     19.70733     54.49563        12     1.062     0.823 -88.90   0
       287    758.9220     16.7755 300.4312166 +22.6045210     368.8073     69.83408      1.353     3.19    -1.989242     19.70733     51.62498         8     0.808     0.678 -39.81   0
       288    159.5094   1018.7103 299.9191937 +22.7122286     881.6947     70.01182      4.739     5.88     12.88136     19.70733     33.14679         7     1.573     0.619 -47.55  16
       289    151.1511   1013.2199 299.9183848 +22.7081450     1461.899     69.85188     10.644    13.68     11.94849     19.70733      39.3758        30     2.879     1.809 -43.83  27
       290    134.7653   1014.9763 299.9127230 +22.7037252     1415.284     69.86966      7.786     9.08     12.47719     19.70733     37.51472        22     1.608     1.432  65.89  26
       291    808.5789   1003.9955 300.1259100 +22.9028793     306.0997     69.81628      0.873     1.60    -5.885273     19.70733     68.04159         6     0.690     0.493 -87.40   0
       292    409.5405   1012.7319 299.9988563 +22.7856126     71.32201     69.88745      0.933     2.82    -5.194254     19.70733     36.87032         5     0.706     0.475  73.32   0
       293      1.4816   1015.6456 299.8711168 +22.6638681      527.938     55.15801      3.084     3.72    -13.23675     19.70733     31.62581         5     0.907     0.495 -86.54  26
