#   1 NUMBER                 Running object number                                     
#   2 X_IMAGE                Object position along x                                    [pixel]
#   3 Y_IMAGE                Object position along y                                    [pixel]
#   4 ALPHA_J2000            Right ascension of barycenter (J2000)                      [deg]
#   5 DELTA_J2000            Declination of barycenter (J2000)                          [deg]
#   6 FLUX_APER              Flux vector within fixed circular aperture(s)              [count]
#   7 FLUXERR_APER           RMS error vector for aperture flux(es)                     [count]
#   8 FLUX_RADIUS            Fraction-of-light radii                                    [pixel]
#   9 FWHM_IMAGE             FWHM assuming a gaussian core                              [pixel]
#  10 BACKGROUND             Background at centroid position                            [count]
#  11 THRESHOLD              Detection threshold above background                       [count]
#  12 FLUX_MAX               Peak flux above background                                 [count]
#  13 ISOAREA_IMAGE          Isophotal area above Analysis threshold                    [pixel**2]
#  14 A_IMAGE                Profile RMS along major axis                               [pixel]
#  15 B_IMAGE                Profile RMS along minor axis                               [pixel]
#  16 THETA_IMAGE            Position angle (CCW/x)                                     [deg]
#  17 FLAGS                  Extraction flags                                          
         1    453.3733      9.6858 300.3407996 +22.5071887     1104.817     70.07176      1.509     3.16    -2.325097     19.76937     123.6312        18     1.113     0.986  59.59   0
         2    100.4227      7.6415 300.2317421 +22.4008031     882.7661     70.10744      1.403     3.12    -2.548788     19.76937     96.48676        11     0.985     0.737 -70.18   0
         3    151.9752   1021.8996 299.9181865 +22.7071611     1116.113     63.22244     11.774    13.34     10.71994     19.76937     54.62316        30     2.970     1.668   1.91  27
         4    244.4561   1023.0494 299.9465452 +22.7352753     882.8146     57.85101      5.294     9.61    0.3996753     19.76937     48.76683        20     1.687     1.527  73.56  27
         5    240.5212   1017.9636 299.9469785 +22.7326360     1001.965      70.0182      6.141     7.56    0.4703266     19.76937     35.70076        14     1.772     0.902  19.59  19
         6    231.7880   1023.0922 299.9425947 +22.7314819     1038.896     57.61271      6.402     8.07     1.669531     19.76937     47.82247        18     2.432     0.748   1.73  27
         7    131.5816   1019.3279 299.9126893 +22.7002967     1340.879     70.07176      7.030    11.61     10.42573     19.76937     35.42544        22     2.461     1.524  82.19  19
         8    140.1455   1022.1492 299.9144306 +22.7036781     909.6944     62.26568      5.767     8.03     10.81824     19.76937      33.6352        12     1.427     1.264 -54.09  27
         9     69.6236   1021.2406 299.8928249 +22.6822265     1811.966     65.85783     10.936    24.14      5.05582     19.76937     50.21513        94     5.351     3.024 -24.11  27
        10     70.2316    997.9390 299.9006007 +22.6757349     1734.406     70.10744     11.078    31.40     2.750321     19.76937     45.35889       151     6.442     4.250  82.88  19
        11     89.5737    976.8260 299.9134808 +22.6754990     1809.342     70.03606     13.157    23.63     3.022638     19.76937     49.70024        88     4.823     3.215 -30.26   3
        12     84.7575    989.5267 299.9078503 +22.6776901     2231.336     70.05391     17.824    41.02     4.181605     19.76937     53.61299       255     8.010     5.829  36.23  19
        13     86.0788   1011.6481 299.9010581 +22.6844238     3078.766     70.07176     15.607    28.56     7.348403     19.76937     71.09586       228     5.165     4.385  87.89  27
        14    123.3825   1017.7870 299.9106444 +22.6973916      1127.68     70.03606      6.344     7.52      10.3366     19.76937     31.96148        14     1.402     1.129 -61.82  25
        15    539.3922   1015.3269 300.0407730 +22.8216374     300.7636     70.05391      1.020     2.90    -6.081871     19.76937     41.40276         5     0.717     0.455  71.26   0
        16    250.9305   1014.9425 299.9511970 +22.7348974     284.2191     70.08961      1.176     2.56   -0.6559098     19.76937     54.89038         6     0.724     0.567  41.64   0
        17    811.4030   1013.7057 300.1259910 +22.9028157     261.2033     69.98246      1.355     3.74    -5.915402     19.76937     41.16137         5     0.948     0.436 -74.55   0
        18    238.1041   1014.3708 299.9473973 +22.7308804     785.0543      70.0182      2.974     3.42    0.5633187     19.76937     32.59952         5     0.789     0.430  19.45   1
        19    112.5243   1010.7673 299.9095578 +22.6921181     1136.904     70.07176      9.968    10.98      9.30085     19.76937     35.67431        21     2.854     1.176 -70.41  19
        20    119.0580   1005.5246 299.9132940 +22.6925795     1542.469     70.12528     12.207    12.92     8.488546     19.76937     45.81791        33     2.325     1.997 -61.89   3
        21    172.4029   1017.8636 299.9258464 +22.7121425     708.9677     70.03606      5.683     6.84     8.695837     19.76937     39.95211         9     1.574     0.833  89.24  16
        22    568.3008   1011.4343 300.0510364 +22.8292003      906.632     70.05391      1.090     1.87    -6.021711     19.76937     157.7254        11     0.815     0.700 -68.60   0
        23    127.1406   1010.1393 299.9143018 +22.6963300     707.3699     70.12528      4.324     3.86     9.075562     19.76937     27.44491         5     1.346     0.318  57.99   1
        24    462.0544   1008.0565 300.0190800 +22.7963322     605.4054     70.12528      1.136     1.87    -6.080549     19.76937     122.2945         9     0.716     0.681 -88.73   0
        25    109.3427   1005.0319 299.9104371 +22.6895191     1147.307     70.08961     11.421    11.43     8.366087     19.76937     39.38338        18     2.281     1.594 -89.78  17
        26    392.7939   1006.0724 299.9981855 +22.7749651     3942.416      70.0182      1.197     1.98    -6.037715     19.76937     694.5654        25     0.973     0.941 -68.68   0
        27    425.3627    993.1025 300.0125370 +22.7810276     280.6964     70.07175      1.329     3.12    -5.893713     19.76937     53.72338         7     0.930     0.633  62.38   0
        28     99.9151    994.1213 299.9110615 +22.6835609     1065.049     70.19659      5.450     5.71      6.61761     19.76937     69.94617        15     1.437     0.883 -67.89   1
        29    939.0370    984.5207 300.1752686 +22.9327333     1358.969     70.03606      1.094     1.83    -5.660562     19.76937     239.9257        13     0.860     0.741  67.10   0
        30    589.1829    981.5204 300.0672759 +22.8268908     228.6116     70.07175      1.170     3.20    -5.721985     19.76937     41.38934         6     0.976     0.446  59.15   0
        31    727.4067    972.6281 300.1132040 +22.8658260     463.0716     70.07176      1.241     2.13    -5.619215     19.76937     75.41784         7     0.823     0.521 -58.55   2
        32     82.0030    978.9874 299.9104261 +22.6738433     2015.836     69.91094     11.514    20.36     2.327589     19.76937     41.47043        97     4.308     2.672 -46.51   3
        33     89.7150   1021.0768 299.8991172 +22.6882172     3036.324     66.51917     22.727    39.98     9.464801     19.76937     71.35188       287    10.910     4.066 -12.25  27
        34    762.6251    967.5715 300.1258191 +22.8749436     623.1866     70.05391      1.065     2.36    -5.585861     19.76937     101.4695         9     0.885     0.598  84.47   0
        35    540.1921    968.5833 300.0562421 +22.8084744      275.962      70.0182      0.981     2.13    -5.602291     19.76937      50.3992         5     0.678     0.468 -18.30   0
        36    784.8027    961.3238 300.1347613 +22.8798056      6640.69     69.98246      1.090     1.78    -5.541907     19.76937     1331.354        28     0.959     0.866  89.49   0
        37    975.9355    960.8781 300.1944696 +22.9370152     252.3904     70.16094      1.448     3.51    -5.535274     19.76937      40.3783         5     0.961     0.384  60.35   0
        38    830.5134    961.0752 300.1490826 +22.8934490      317.099     70.19659      0.977     1.74    -5.547351     19.76937     62.42049         6     0.684     0.499  85.93   0
        39     96.3346    953.1926 299.9232741 +22.6707600     307.3144     70.05391      1.109     2.76   -0.1105196     19.76937     58.13977         7     0.811     0.591 -61.71   0
        40    793.2305    943.3848 300.1432271 +22.8771872     862.1763     70.07175      1.173     2.26    -5.418099     19.76937     134.2366        13     0.894     0.798  65.74   0
        41     86.1803    944.4619 299.9229626 +22.6652078      153.297     70.03606      1.139     3.42    -1.979706     19.76937     39.16151         5     0.744     0.456  20.12   0
        42    831.4571    936.7555 300.1572944 +22.8867536     480.6511     70.08961      1.120     2.18    -5.380686     19.76937     83.33109         7     0.833     0.476  77.47   0
        43    171.0300    936.8374 299.9517991 +22.6885145     209.4402     70.08961      1.155     3.73    -1.882057     19.76937     43.36387         5     0.660     0.605  85.99   0
        44    879.9385    927.8693 300.1752941 +22.8987472     231.6032     70.10744      1.101     2.08    -5.318702     19.76937     63.78755         8     0.774     0.627 -41.55   0
        45    731.4449    926.9221 300.1293420 +22.8539254     501.3047     70.05391      1.226     3.31     -5.25712     19.76937       72.144         9     1.073     0.569  64.40   0
        46    443.9006    923.6984 300.0408978 +22.7666959     2447.294      70.3034      1.176     1.95    -5.050439     19.76937      437.335        20     0.981     0.833  74.12   0
        47    742.4406    924.2203 300.1336460 +22.8564495     283.5089     70.10744      1.238     2.87    -5.243423     19.76937     49.29572         5     0.717     0.461  70.44   0
        48    222.1335    912.5797 299.9755726 +22.6969134     294.8727     70.05391      1.219     4.44     -3.94057     19.76937     36.39133         6     0.985     0.569 -64.55   0
        49    487.2783    911.3157 300.0584218 +22.7761678     234.3473     70.17876      1.016     3.76     -5.05013     19.76937     45.40412         6     0.735     0.654  -7.82   0
        50    168.9995    909.5000 299.9600664 +22.6800710     445.1651     69.91094      1.133     2.15    -3.246997     19.76937     72.13617         8     0.740     0.662  86.57   0
        51     77.4266    907.7205 299.9322031 +22.6520515     190.5386     70.07176      1.012     3.43    -4.226047     19.76937     32.19884         5     0.726     0.469 -73.67   0
        52    146.1826    906.6204 299.9539156 +22.6723918      980.324     70.05391      1.228     2.26    -3.408957     19.76937     137.9626        14     0.923     0.806  57.26   0
        53   1017.8689    895.1057 300.2289565 +22.9307097     1348.444      70.2144      1.128     1.88    -5.362902     19.76937     258.4767        12     0.832     0.703 -63.80   0
        54    677.3935    894.1846 300.1231670 +22.8283142     301.4733     69.98246      1.575     5.13    -4.984591     19.76937     35.57831         6     1.145     0.651 -68.47   0
        55    972.0885    893.7157 300.2151350 +22.9165823     1344.566     70.19659      1.106     1.80    -5.301947     19.76937     276.9575        12     0.814     0.722 -73.46   0
        56    755.5574    887.6641 300.1496306 +22.8498960     338.3731     70.07176      1.010     3.43    -5.017962     19.76937     55.58504         5     0.730     0.466  72.31   0
        57    178.0548    888.0767 299.9698520 +22.6766516      209.089     70.10744      1.061     2.20    -3.755346     19.76937     50.75132         5     0.617     0.560  -3.62   0
        58    623.8803    881.7838 300.1105434 +22.8086982     2783.933     70.08961      1.199     1.97    -4.907851     19.76937     486.5023        22     0.989     0.898  44.92   0
        59    425.4937    878.7133 300.0498145 +22.7482710     283.7579     70.25002      1.319     4.38    -4.731515     19.76937     54.78876         8     1.135     0.564  23.56   0
        60    174.1863    875.7482 299.9726623 +22.6719565     788.6644     70.10744      1.216     2.13    -3.913672     19.76937     143.5515        11     0.892     0.661 -87.93   0
        61    644.3809    874.1115 300.1194223 +22.8126492     386.8699      70.0182      1.190     2.93    -4.859451     19.76937     66.98695         7     0.809     0.657  -5.09   0
        62    442.6458    873.8044 300.0567469 +22.7520125     246.6574     70.05391      1.749     4.57    -4.762709     19.76937     25.70241         5     0.840     0.706 -19.17   0
        63    193.1948    873.1350 299.9794183 +22.6769169     284.4873     70.05391      1.324     2.53    -4.203312     19.76937     40.97013         6     0.733     0.554  42.23   0
        64    799.7820    861.4595 300.1719352 +22.8556435     2531.833     70.05391      1.133     1.95    -5.170455     19.76937     404.7775        21     0.974     0.862  53.80   0
        65   1016.7762    861.5052 300.2395523 +22.9207350     626.2837     69.96458      1.002     1.89    -5.295799     19.76937     135.0635         9     0.765     0.612 -78.80   0
        66    208.5398    855.3497 299.9899737 +22.6764280     336.1929     70.12528      1.609     3.39    -4.548277     19.76937     47.44312         5     0.745     0.445 -67.98   0
        67    516.5411    853.6492 300.0862941 +22.7684135     348.7809     70.12528      1.341     3.24    -4.860191     19.76937     59.58364         8     0.833     0.792  13.98   0
        68    163.3464    851.9620 299.9770350 +22.6618837     625.6614     70.07176      1.231     2.73    -4.118952     19.76937     96.01807         9     0.804     0.758  17.25   0
        69    312.9923    844.3117 300.0260284 +22.7046303     31122.34     69.98246      1.259     2.17    -4.643345     19.76937     4842.716        60     1.170     1.048  76.87   0
        70    983.4055    842.0955 300.2354641 +22.9051560     576.6039     69.96458      1.082     2.10     -5.03067     19.76937      101.707         8     0.796     0.608 -89.82   0
        71    570.8436    843.0009 300.1066571 +22.7816566     871.7969     70.07175      1.272     2.17    -4.802884     19.76937     141.0049         9     0.742     0.706  69.02   0
        72    599.8374    839.1693 300.1169279 +22.7892583     488.0341     70.08961      1.044     2.13    -4.721786     19.76937     93.44106         8     0.750     0.651  52.47   0
        73    610.8922    837.6915 300.1208497 +22.7921517     316.6401     70.23221      1.078     2.64    -4.695662     19.76937     61.13849         9     0.921     0.605  58.55   0
        74    930.3219    834.0303 300.2215402 +22.8869226     207.1457     70.05391      1.176     2.60     -4.91222     19.76937     42.20581         5     0.849     0.467  88.76   0
        75    362.6414    821.5010 300.0488864 +22.7129965     18618.77     70.05391      1.239     2.24    -4.562051     19.76937      2556.53        51     1.199     1.037  86.04   0
        76    753.6312    823.8794 300.1697888 +22.8310142     348.8975     70.07175      1.137     2.72    -4.633461     19.76937     62.51786         8     0.860     0.629  70.22   0
        77    376.8229    822.0452 300.0531190 +22.7174100     1136.175     70.10744      1.265     2.25    -4.563545     19.76937     174.7817        14     0.921     0.795  75.86   0
        78    885.6055    817.1437 300.2130982 +22.8686650     1601.974     70.03606      1.163     1.96     -4.63183     19.76937     276.8586        18     1.007     0.794  80.83   0
        79    373.8495    815.5023 300.0543233 +22.7146412      303.921     70.12528      0.948     2.95    -4.557027     19.76937     65.71581         5     1.060     0.268  56.49   0
        80    245.1593    813.4627 300.0149821 +22.6754182     555.7554     70.05391      1.221     3.56    -4.618865     19.76937     64.97381        10     1.026     0.679 -77.27   0
        81    643.6229    813.2254 300.1389996 +22.7949533     625.5365     70.03606      1.482     3.12    -4.595478     19.76937     73.63093        13     1.054     0.872 -84.61   0
        82    479.9609    813.1294 300.0880983 +22.7458124     307.7364     70.03605      0.976     2.40    -4.741423     19.76937     52.18187         5     0.905     0.357 -59.54   0
        83    490.7939    808.2127 300.0930681 +22.7476535     510.1728     69.94671      1.211     2.30    -4.745564     19.76937     96.12988         7     0.833     0.523 -64.50   0
        84    891.6111    804.8287 300.2189770 +22.8669306      269.962     70.07175      1.233     3.38    -4.568141     19.76937     43.33354         5     0.738     0.452  71.70   0
        85    869.3470    799.6116 300.2137361 +22.8587561     272.6415     70.07176      1.123     3.17    -4.487801     19.76937      39.6266         6     0.826     0.514  44.19   0
        86    242.6528    797.5139 300.0193919 +22.6700934     268.9565     70.10744      1.128     3.28    -4.594811     19.76937     47.03116         6     0.913     0.417  19.83   0
        87    565.9349    787.7033 300.1231218 +22.7643200     290.8954     70.17876      1.049     2.26    -4.658953     19.76937     49.83073         5     0.744     0.406  19.56   0
        88    535.9753    786.2258 300.1142792 +22.7549059     357.2436     70.03606      1.340     3.62    -4.734632     19.76937     59.40798         9     1.131     0.713  85.24   0
        89    557.5647    783.6811 300.1218255 +22.7606545     781.4421      70.0182      1.221     2.67     -4.67673     19.76937     104.7763        13     0.978     0.780  80.84   0
        90    951.9589    782.3233 300.2451098 +22.8785648     2653.377     70.03606      1.164     1.92    -4.571107     19.76937      466.775        20     0.969     0.830  73.50   0
        91    940.4465    773.5292 300.2443821 +22.8725879     1051.032     70.05391      1.167     2.42    -4.556279     19.76937     145.3508        14     0.939     0.791 -73.09   0
        92    303.7767    768.0478 300.0479756 +22.6799971     466.3575     70.08961      1.347     2.34    -4.536141     19.76937     72.34947         8     0.792     0.681  74.17   0
        93    766.6377    765.2308 300.1929217 +22.8180830     1452.427     70.07176      1.248     2.50    -4.503745     19.76937     217.5197        17     1.026     0.827 -83.23   0
        94    971.5579    763.7380 300.2572664 +22.8791042     1122.271     70.05391      1.123     1.80    -4.526039     19.76937     187.4239        13     0.864     0.732  49.00   0
        95    849.2343    751.1855 300.2232234 +22.8388223      417.915     70.05391      1.844     5.68    -4.482231     19.76937     43.81625        10     1.165     0.780  56.48   0
        96    152.3646    751.8630 300.0061883 +22.6298945     297.7637     70.07175      1.054     2.29    -4.636221     19.76937     59.20557         5     0.706     0.449 -71.40   0
        97    885.2367    742.0494 300.2374147 +22.8469950     85747.91     70.07175      1.233     2.08    -4.475422     19.76937     13878.73       103     1.229     1.124  77.72   0
        98    647.7515    746.2227 300.1620829 +22.7769657     225.6555     70.07176      1.321     4.10      -4.3163     19.76937     37.69686         7     1.111     0.775 -48.19   0
        99    737.9252    742.8109 300.1912719 +22.8030358     383.0932     70.08961      1.161     3.39    -4.473291     19.76937      69.5893         9     0.939     0.776  58.05   0
       100    918.0095    734.5255 300.2500766 +22.8546611     285.9092     70.07176      1.298     2.89    -4.458088     19.76937     40.15595         8     0.805     0.669  88.11   0
       101    571.6767    731.1082 300.1433190 +22.7498050     906.5947      70.2144      1.319     2.73    -4.352851     19.76937     115.1713        13     0.969     0.795 -73.85   0
       102    752.6784    728.2888 300.2005906 +22.8032923     5429.672     70.19659      1.315     2.37    -4.435723     19.76937      730.482        31     1.144     1.011  59.18   0
       103    254.3271    723.6165 300.0470572 +22.6524113     2883.156     70.07176      1.287     2.38    -4.557805     19.76937     365.7858        23     1.083     0.939  88.06   0
       104    336.6150    721.6920 300.0732621 +22.6765616     611.8445     70.00033      1.258     2.45     -4.47882     19.76937     94.83135        10     0.845     0.749  44.60   0
       105    212.1507    719.5576 300.0352704 +22.6385848     350.4838     70.10744      1.647     4.44    -4.585257     19.76937     35.09708         7     0.903     0.621 -79.16   0
       106    544.9062    716.8418 300.1396280 +22.7376795     324.6337     70.08961      1.130     2.55    -4.426697     19.76937     56.01569         7     0.840     0.519  46.61   0
       107    536.2875    709.1654 300.1394425 +22.7328909     1819.579     70.05391      1.297     2.63    -4.384041     19.76937     222.6543        18     1.024     0.891  57.98   0
       108    526.3663    702.7081 300.1384554 +22.7280614     858.8049     70.03606      1.442     4.58    -4.356939     19.76937      122.202        16     1.389     0.755  60.24   0
       109    189.8212    699.1315 300.0349748 +22.6260242     431.1394     70.07175      1.321     3.75    -4.527399     19.76937     67.68651         9     1.039     0.642  74.90   0
       110    204.2355    697.4417 300.0400031 +22.6298674     357.4753     70.12528      1.203     2.64    -4.539791     19.76937     55.01153         8     0.868     0.610  18.30   0
       111    451.0827    692.8055 300.1182540 +22.7026305     1052.383     70.00033      1.304     2.96    -4.343882     19.76937     140.2029        14     1.002     0.858  74.60   0
       112    105.3266    687.8814 300.0123851 +22.5974283     11447.69     70.17876      1.306     2.35    -4.358217     19.76937     1415.616        44     1.207     1.080  57.17   0
       113     26.2242    689.4607 299.9873074 +22.5741260     300.5547     70.07176      1.202     2.79    -4.128449     19.76937     61.69461         7     0.787     0.663 -75.80   0
       114    536.2966    688.0140 300.1463241 +22.7268246     566.6515     69.98246      1.297     3.10    -4.260801     19.76937     64.29317        11     0.972     0.749 -77.08   0
       115    953.9929    673.9689 300.2809891 +22.8480581     643.6794     70.07175      1.277     2.27    -4.121262     19.76937     113.2856        11     0.938     0.728  82.30   0
       116     51.3025    672.0934 300.0007412 +22.5766794     859.8058     70.25002      1.687     4.72    -4.123527     19.76937     71.74538        17     1.484     0.763 -77.97   0
       117    821.2361    672.3156 300.2401519 +22.8077823     351.5683     70.05391      1.046     3.20    -4.304143     19.76937     46.28536         6     0.731     0.626 -44.07   0
       118    499.7564    668.6324 300.1412570 +22.7103001     189.3463     70.10744      1.020     3.72     -4.18934     19.76937     30.91197         5     0.954     0.416 -82.98   0
       119    894.4824    666.6981 300.2648036 +22.8281299     538.6659     70.23221      1.376     4.05    -4.114738     19.76937     55.77553         8     0.974     0.661 -49.12   0
       120    456.2696    660.6117 300.1303362 +22.6949507     440.6121     70.08961      1.236     4.15    -4.152949     19.76937     55.38683         9     1.094     0.644  86.69   0
       121    604.2379    659.2078 300.1768365 +22.7389403     291.0331     70.08961      1.362     3.89    -3.856231     19.76937     33.78417         6     0.792     0.547  44.50   0
       122    651.6811    657.4920 300.1921637 +22.7526786     181.8286     70.19659      1.134     3.71    -3.831909     19.76937      36.3395         6     0.889     0.465 -87.21   0
       123    500.3961    656.8541 300.1452859 +22.7071125     597.4765     70.03606      1.574     3.47    -4.074184     19.76937      60.1784        12     1.046     0.812 -64.45   0
       124    622.1396    657.6607 300.1829120 +22.7438661     380.4203     70.10744      1.366     3.40    -3.836296     19.76937     39.81209         5     0.748     0.448 -14.89   0
       125    934.0839    651.9668 300.2819376 +22.8357708     1911.142     70.03605      1.259     2.14    -4.054345     19.76937     310.0014        19     1.076     0.830  77.65   0
       126    465.9860    652.2650 300.1360728 +22.6954713     910.8706     70.03606      1.405     2.91    -4.063345     19.76937     112.3878        18     1.039     1.002 -78.77   0
       127     28.1117    646.2578 300.0019402 +22.5623094      2972.25     70.14311      1.319     2.36    -4.057359     19.76937     382.2049        28     1.235     0.972  61.63   0
       128    329.4632    639.0291 300.0979185 +22.6507059     5250.486     70.08961      1.411     2.63    -4.155582     19.76937     656.2698        32     1.232     1.040  80.77   0
       129    451.8603    636.0472 300.1369515 +22.6865797     5497.076     70.12528      1.453     2.75     -3.94504     19.76937     629.8018        33     1.250     1.070  72.23   0
       130    863.3663    629.7849 300.2671092 +22.8082007     972.2115     70.05391      1.210     2.50    -4.118633     19.76937     136.5241        12     0.894     0.797  89.63   0
       131    948.0725    627.1438 300.2943696 +22.8328341     7257.047     70.08961      1.293     2.22    -4.027631     19.76937       1051.1        34     1.114     1.012  74.93   0
       132    512.4651    625.6252 300.1591946 +22.7017721     6719.838     70.05391      1.436     2.63    -3.771834     19.76937     784.1325        35     1.180     1.112  78.58   0
       133    681.9892    621.7533 300.2132206 +22.7515096     269.2587     70.08961      1.256     3.37     -3.72766     19.76937     42.12677         6     0.899     0.455 -39.51   0
       134    240.0618    621.2893 300.0758963 +22.6187847     683.8073     70.16094      1.337     2.79    -4.189775     19.76937     87.54016        12     0.919     0.823 -77.58   0
       135    444.1179    613.9308 300.1417333 +22.6779109     2490.976     70.17876      1.407     2.79    -3.786168     19.76937     290.5323        22     1.101     1.024 -80.81   0
       136    787.1192    613.5053 300.2486452 +22.7806661     414.6561      70.2144      1.367     2.83    -4.127705     19.76937     54.82765         8     0.826     0.673 -53.86   0
       137    422.5111    612.2830 300.1355484 +22.6709552     780.8798     70.17876      1.529     3.87    -3.842018     19.76937       75.014        16     1.162     0.946  38.89   0
       138    176.9288    611.7167 300.0593904 +22.5970883     401.7328     70.19659      1.360     3.49    -4.204353     19.76937     56.94829         9     0.984     0.636  25.26   0
       139    864.0275    609.1310 300.2740303 +22.8024674     992.4053     70.07175      1.491     3.46    -4.103162     19.76937     102.9932        17     1.191     0.905 -28.74   0
       140    744.4106    606.2100 300.2377134 +22.7657657     468.4206     69.96458      1.405     3.72    -3.996521     19.76937     60.65714         9     1.048     0.618  77.97   0
       141    560.7126    601.3322 300.1821061 +22.7092736       118176     70.17876      1.482     2.76    -3.569606     19.76937     12773.78       135     1.393     1.352  77.37   0
       142    246.8612    601.4663 300.0844534 +22.6151402     2132.138     70.10744      1.452     2.67    -4.083454     19.76937     252.3076        21     1.102     0.945  72.52   0
       143    812.4184    597.2449 300.2618133 +22.7835819     274.7153     70.08961      1.318     3.42    -4.036762     19.76937     33.35252         5     0.729     0.465  72.94   0
       144    451.3729    582.0731 300.1543461 +22.6709462     1482.532     70.07176      1.585     3.29    -3.591599     19.76937     161.1096        21     1.602     0.878 -85.29   0
       145    608.1388    579.3566 300.2040111 +22.7171907     224.4587     70.07175      1.235     3.95    -3.450225     19.76937     27.70328         6     1.102     0.405 -14.46   0
       146    848.2805    567.7092 300.2825887 +22.7858502     1048.389     70.17876      1.404     2.85    -3.797092     19.76937     119.5274        16     1.040     0.883  79.84   0
       147    719.5217    565.1843 300.2432980 +22.7465232     1298.956     70.08961      1.364     2.96    -3.635539     19.76937     151.4788        17     1.164     0.852 -77.54   0
       148    506.9452    561.2715 300.1783964 +22.6816476     380.7412     70.08961      1.362     3.65    -3.393382     19.76937     50.25618         8     0.992     0.576  69.86   0
       149    976.5348    559.3004 300.3252986 +22.8218751     739.9333     70.16094      1.295     2.92    -4.025185     19.76937     94.53155        12     0.918     0.844 -72.31   0
       150    848.5249    558.0101 300.2858175 +22.7831378     1166.632     70.07176      1.386     2.85    -3.720121     19.76937     144.5479        17     1.075     0.880 -84.08   0
       151    962.0479    558.0629 300.3211841 +22.8171781      491.491     70.08961      2.213     3.89    -3.918636     19.76937     47.29705         7     0.894     0.522  51.28   0
       152    886.5663    552.8207 300.2993594 +22.7930498     2400.864     70.07175      1.321     2.44    -3.676417     19.76937     321.0115        22     1.095     0.958  83.12   0
       153    118.9653    543.1967 300.0636542 +22.5600388     643.6895     70.07175      1.372     3.12    -4.107472     19.76937     77.64249        11     0.986     0.790  80.91   0
       154    978.1958    543.1357 300.3310706 +22.8177287     442.1934     70.05391      1.152     2.44    -4.000694     19.76937     60.20576         6     0.713     0.564  49.59   0
       155    110.8753    533.1481 300.0644068 +22.5547287     305.5648     70.08961      1.125     4.39    -4.028943     19.76937      40.5004         8     0.935     0.817 -62.19   0
       156    718.8866    527.6058 300.2553138 +22.7355421     156.1665     70.00033      1.375     3.51    -3.475366     19.76937     32.80575         5     0.819     0.435  18.76   0
       157    660.1587    523.2050 300.2384563 +22.7166699     465.8385     70.08961      1.606     4.52    -3.234233     19.76937      38.1253         8     0.825     0.704 -40.13   0
       158    974.2720    515.8997 300.3386991 +22.8087274      319.017     70.23221      1.215     2.44    -3.777641     19.76937      46.4036         7     0.725     0.630  89.63   0
       159    720.7788    516.0007 300.2596745 +22.7327769      516.096     70.00033      1.413     2.99    -3.459331     19.76937     62.64904        10     0.907     0.723   2.48   0
       160    878.0792    511.7851 300.3100511 +22.7787182      595.545     70.08961      1.239     3.20    -3.623795     19.76937     71.17969         9     0.948     0.664 -89.54   0
       161    862.5164    507.9838 300.3064363 +22.7729618     327.9979     70.03606      1.243     4.01     -3.62334     19.76937     48.25424         8     0.851     0.672  -3.15   0
       162    606.6637    506.2641 300.2273073 +22.6957649      1767.78     70.10744      1.503     2.95    -3.063512     19.76937     193.6385        23     1.193     1.051  72.26   0
       163    966.7667    504.7859 300.3399709 +22.8032852      404.313     70.05391      1.491     3.23    -3.687557     19.76937     50.27236         7     0.870     0.566 -60.26   0
       164   1017.8253    485.1768 300.3622636 +22.8129490     819.6252     70.03606      1.270     2.30    -3.491428     19.76937     116.5606        12     0.861     0.791 -74.22   0
       165    976.2359    483.7391 300.3497625 +22.8000749     532.6883     70.08961      1.305     2.88    -3.546455     19.76937     73.21976         8     0.864     0.639   3.04   0
       166    716.9229    480.1152 300.2701347 +22.7213153     677.5388     70.17876      1.488     3.74    -3.366235     19.76937      62.2559        12     1.000     0.849 -76.50   0
       167    283.6532    474.3300 300.1372055 +22.5897098     2058.047     70.07176      1.520     2.97    -3.579184     19.76937     235.6957        24     1.183     1.056  89.97   0
       168   1016.6086    472.2598 300.3660815 +22.8088724     2407.053      70.0182      1.247     2.45    -3.326888     19.76937     290.0354        22     1.025     0.944 -67.07   0
       169    230.8164    469.0746 300.1224905 +22.5723479     4336.951     70.07175      1.495     2.95     -3.54117     19.76937     464.0685        33     1.311     1.071  75.66   0
       170    371.5801    463.3199 300.1681197 +22.6129298     2934.396     70.07176      1.560     3.22    -3.306283     19.76937     297.8406        29     1.399     1.070 -84.56   0
       171    996.4942    463.3522 300.3627034 +22.8002862     992.3498     70.08961      1.166     2.53    -3.297657     19.76937     135.7944        14     0.968     0.819  66.97   0
       172    615.7255    459.7728 300.2452343 +22.6851335      10692.1     70.07176      1.554     3.15    -2.923248     19.76937     1079.792        45     1.305     1.238  46.01   0
       173    633.0938    459.9845 300.2505725 +22.6904018     438.7195     70.00033      1.810     3.94    -2.980399     19.76937     39.85036         5     0.810     0.549  59.63   0
       174    235.8379    447.2073 300.1311551 +22.5675809     234.2836     70.08961      1.106     3.66    -3.483393     19.76937     31.39637         6     0.744     0.578 -37.57   0
       175    949.0137    442.4135 300.3547027 +22.7800433     310.9932     70.00033      1.392     3.44     -3.35985     19.76937     46.35703         8     0.887     0.638 -55.51   0
       176    170.5893    440.2446 300.1131415 +22.5460041     1137.233     70.07176      1.360     2.49     -3.53383     19.76937     147.3889        15     1.027     0.845  76.31   0
       177    969.8634    429.6969 300.3653343 +22.7826357     676.5551     70.16094      1.364     3.88    -3.143566     19.76937     93.92385        14     1.165     0.862 -80.11   0
       178    556.3516    429.3258 300.2366448 +22.6585882     3831.615     70.07176      1.570     3.04    -2.896991     19.76937      375.351        33     1.292     1.140  82.24   0
       179    271.3581    428.5706 300.1482491 +22.5728910     356.7018     70.08961      1.479     4.08    -3.397911     19.76937     46.65493         6     0.997     0.478  87.87   0
       180    128.9359    422.3000 300.1060299 +22.5283564     299.5035     70.16094      1.308     3.69    -3.475955     19.76937     36.29107         5     0.816     0.479 -52.44   0
       181    760.5417    418.2773 300.3038107 +22.7166289      628.665     70.10744      1.492     3.49    -2.945105     19.76937     61.23382        13     1.045     0.841  83.54   0
       182    463.0661    415.6273 300.2120680 +22.6266812     3540.216     70.05391      1.567     3.10    -3.038987     19.76937      346.998        29     1.250     1.143  64.37   0
       183    854.8568    409.6647 300.3359936 +22.7424200      803.404     70.12528      1.546     4.62    -3.292551     19.76937     75.21366        16     1.191     0.973 -59.79   0
       184    952.1802    410.0204 300.3662133 +22.7716832     316.3307     70.07175      1.207     2.51    -3.187926     19.76937     54.00853         8     0.799     0.652 -56.31   0
       185    827.6852    397.4214 300.3315037 +22.7307599     320.7063      70.0182      1.175     3.00    -3.122678     19.76937     66.13029         7     0.909     0.831  20.26   0
       186    350.6345    394.9366 300.1838199 +22.5870207      1466.85     70.07176      1.530     3.08    -3.102049     19.76937     156.5196        20     1.202     0.963  67.41   0
       187     69.2390    392.6205 300.0971276 +22.5019272     552.6848     70.10744      1.306     2.87     -3.32623     19.76937     74.20928        10     0.943     0.749  82.05   0
       188    319.9571    384.3279 300.1777271 +22.5747739     17386.56     70.05391      1.545     3.08    -3.157845     19.76937     1759.706        61     1.388     1.271  77.31   0
       189    854.4307    381.6868 300.3449486 +22.7342533      643.509     70.05391      1.425     3.55    -3.154046     19.76937     78.69479        14     1.082     0.843 -69.85   0
       190     16.4127    372.3417 300.0873092 +22.4802560     2937.547     70.03606      1.466     2.76    -3.250692     19.76937       318.48        28     1.298     0.992  83.00   0
       191    769.5568    370.2562 300.3222168 +22.7055355     364.1597     70.05391      1.801     3.42    -2.954261     19.76937      31.8092         5     0.749     0.451 -69.61   0
       192    730.4193    364.0500 300.3120416 +22.6920231     1005.924     70.05391      1.452     3.20    -2.887442     19.76937     98.33122        18     1.121     0.953 -63.91   0
       193    944.9863    356.3713 300.3813960 +22.7541093      395.972     70.07175      1.573     4.81    -3.152242     19.76937      34.9917         9     0.943     0.695  66.67   0
       194    392.0618    348.3633 300.2118278 +22.5860773     1263.879     70.08961      1.705     4.36    -3.101534     19.76937     132.7328        22     1.315     1.108  80.33   0
       195    831.2640    341.4318 300.3508031 +22.7157446     292.2397     70.07176      1.155     2.70    -2.996265     19.76937     47.31093         6     0.808     0.516 -45.29   0
       196    713.7683    339.6487 300.3147799 +22.6800228     283.0607     70.10744      2.290     4.34    -2.888642     19.76937     34.28339         5     1.135     0.473  -3.74   0
       197    468.1409    327.9892 300.2421085 +22.6030418     619.9553      70.0182      1.501     3.99    -3.040155     19.76937      69.1299        12     1.272     0.752  81.28   0
       198    712.7542    319.8286 300.3209000 +22.6740248      1171.31     70.10744      1.546     3.17    -2.888642     19.76937     129.7267        20     1.150     1.015  76.66   0
       199    973.8902    313.8252 300.4042239 +22.7505380     1759.012      70.0182      1.360     2.90    -3.118387     19.76937     219.8657        20     1.142     0.902  77.69   0
       200    421.6719    303.6103 300.2355685 +22.5821083     321.3301     70.07176      1.627     3.89    -3.157674     19.76937     38.76768         6     0.923     0.470 -89.76   0
       201    126.8433    298.3346 300.1456349 +22.4921630     461.0737     70.05391      1.609     4.37    -3.180288     19.76937     55.60117         8     1.264     0.669  76.74   0
       202     95.9501    298.5944 300.1359544 +22.4829686     745.7628     70.05391      1.515     3.26    -3.187139     19.76937     83.52122        11     0.982     0.836  12.52   2
       203     96.3091    295.6693 300.1370155 +22.4822370     400.8922     70.19659      1.973     3.70    -3.186241     19.76937     33.54794         5     0.936     0.420   6.48   3
       204    989.3921    294.4975 300.4153331 +22.7496249     315.1956     69.94671      1.026     3.59    -3.133609     19.76937     44.30464         6     0.869     0.487  87.54   0
       205    180.2922    289.8112 300.1650076 +22.5057522     362.3542      70.0182      1.638     4.51    -3.072763     19.76937     33.20387         7     1.125     0.557 -69.16   0
       206    784.4694    281.1570 300.3557946 +22.6844033     378.0131     70.03606      1.446     5.15    -2.892503     19.76937     41.07162         9     1.049     0.755 -38.92   0
       207    882.5512    270.2144 300.3899100 +22.7106426     1350.485     70.08961      1.557     3.00    -2.966675     19.76937     132.1705        17     1.037     0.972 -10.97   0
       208    301.2219    267.6716 300.2097799 +22.5356701     1372.972     70.08961      1.635     3.57     -2.87451     19.76937     121.4468        20     1.202     0.994 -86.45   0
       209    378.7612    262.8038 300.2354699 +22.5575250     561.6278     70.08961      1.825     4.74    -3.106953     19.76937     63.70841        12     1.343     0.816  22.48   0
       210    196.1982    254.7598 300.1813282 +22.5004641     521.5187     70.08961      1.745     4.11    -2.878218     19.76937     45.36493         8     0.883     0.694 -26.68   0
       211    733.7198    251.7963 300.3495174 +22.6607604     1020.161     69.98246      1.512     2.82    -2.920358     19.76937     109.9559        14     1.023     0.831  64.99   0
       212   1004.8131    243.9934 300.4365380 +22.7397232     406.0507     69.96458      1.353     2.45    -3.154105     19.76937     75.60461         8     0.895     0.584 -27.95   0
       213    737.6354    242.9448 300.3536102 +22.6593901     464.2951     70.08961      1.590     3.52    -2.922937     19.76937     47.92313         7     1.005     0.511 -28.82   0
       214    658.1603    242.4725 300.3290131 +22.6354396     734.2089     70.05391      1.538     3.57    -3.030141     19.76937     73.73074        12     1.073     0.777 -65.26   0
       215    853.5209    233.7824 300.3926892 +22.6914747      883.098     70.07175      1.500     3.28    -2.932098     19.76937     94.99006        13     1.059     0.824  63.40   0
       216    584.5069    234.4204 300.3086969 +22.6110528     630.8751     70.00033      1.846     3.66    -3.073319     19.76937     55.27201        11     1.035     0.798 -13.75   0
       217    865.5361    233.0760 300.3966629 +22.6948708      463.328     70.14311      1.380     3.00    -2.939645     19.76937     65.55219        11     0.931     0.808  41.33   0
       218    982.2624    223.0658 300.4362992 +22.7269529     710.2714     70.10744      1.405     2.81      -3.1454     19.76937     85.65959        13     1.000     0.798  51.51   0
       219    216.9176    216.5229 300.2001773 +22.4957036     384.1171     70.17876      1.333     5.21    -2.525011     19.76937     49.51307        10     1.166     0.657 -72.07   0
       220     78.4934    211.3645 300.1588457 +22.4527014     1321.525     70.03606      1.523     3.15    -2.881507     19.76937     143.6628        18     1.134     0.952  79.56   0
       221    901.6184    207.7983 300.4161135 +22.6984118     347.9138     70.00033      1.464     5.03    -3.033518     19.76937     51.75461         8     1.163     0.732 -20.86   0
       222    235.8155    204.6942 300.2098893 +22.4979758     3211.367     70.00033      1.546     2.81    -2.440217     19.76937     380.8833        30     1.254     1.146  81.13   0
       223     19.9044    199.1392 300.1446184 +22.4316160     690.3608     70.16094      1.419     3.21    -2.317215     19.76937     88.85336        15     1.094     0.894 -87.18   0
       224    218.9599    195.3544 300.2076817 +22.4902396     439.0403     70.14311      1.747     4.50    -2.456964     19.76937     41.35621         7     1.051     0.549  22.60   0
       225    879.6035    185.8737 300.4163673 +22.6855153     2073.171     69.98246      1.518     2.98    -2.964743     19.76937     214.4895        25     1.230     1.025  29.56   0
       226    983.2897    184.5391 300.4491238 +22.7161827     1631.131     70.16094      1.367     2.75    -3.129518     19.76937     198.6975        18     1.034     0.911  87.33   0
       227    429.4125    181.4575 300.2776254 +22.5493515     296.9215     70.03606      1.527     5.25    -3.086568     19.76937     28.89026         7     0.975     0.799 -47.23   0
       228    353.5453    173.4837 300.2566172 +22.5243171     427.8983     70.12528      1.304     3.29    -2.650172     19.76937     39.35835         6     0.889     0.436  71.94   0
       229    119.3926    170.6162 300.1847724 +22.4532758     376.7032     70.00033      1.563     4.44    -2.737767     19.76937     45.00883         7     0.887     0.681  -3.02   0
       230    480.6833    168.7081 300.2977128 +22.5610582     897.4525     70.23221      1.516     3.16    -2.667378     19.76937     118.6049        15     1.077     0.924  84.43   0
       231    201.6407    166.4120 300.2116910 +22.4767372     2809.763     70.05391      0.817     3.15    -2.482505     19.76937     1248.393         9     0.733     0.394  52.00   0
       232    223.9688    164.3819 300.2192886 +22.4828504     194.0396     70.05391      1.372     4.47    -2.364957     19.76937     30.01006         6     0.849     0.670  29.45   0
       233    187.0085    161.0323 300.2088896 +22.4708047     1555.149     70.07175      0.453     2.33    -2.533741     19.76937     1084.677         7     0.547     0.301  -4.60   0
       234    254.6534    148.6018 300.2339456 +22.4875214     3366.431      70.0182      1.580     2.99    -2.453108     19.76937     378.5068        34     1.378     1.127  68.11   0
       235    105.7877    148.4957 300.1877233 +22.4428461     338.8855     70.00033      1.170     4.71    -2.655864     19.76937     47.72394        10     1.193     0.791 -57.08   0
       236    500.5947    133.8166 300.3152292 +22.5570030     3683.837     70.03606      1.624     3.17    -2.663891     19.76937     361.1211        33     1.281     1.207  62.80   0
       237    386.4061    134.4028 300.2795167 +22.5229451     373.6507     69.89305      1.736     2.49    -2.712556     19.76937     51.96878         5     0.718     0.449  72.51   2
       238    753.2870    123.1997 300.3973454 +22.6296642     548.2203     69.96458      1.821     3.71    -2.746439     19.76937     44.34076         8     0.904     0.728  14.23   0
       239    628.9253    113.7476 300.3616831 +22.5896917     3718.754     70.08961      1.597     3.22    -2.697032     19.76937      372.584        32     1.356     1.113  82.42   0
       240    403.9024    113.1480 300.2918539 +22.5220849     794.1096     70.14311      1.557     3.69    -2.656663     19.76937     82.76189        15     1.062     0.950 -82.87   0
       241    670.2103    111.1823 300.3753700 +22.6013234     512.7344     70.03606      1.546     5.17    -2.625996     19.76937     43.05234        10     1.239     0.662  32.24   0
       242    956.2074    104.2437 300.4667337 +22.6849833     327.5953     70.08961      1.365     4.00    -2.589932     19.76937     41.29404         8     0.900     0.672 -10.55   0
       243    673.1577     98.6072 300.3803674 +22.5985922     1667.595     70.08961      1.553     2.93    -2.609526     19.76937     171.5818        22     1.134     1.080 -74.80   0
       244    688.2877     97.2272 300.3855266 +22.6027281     547.3055     70.05391      2.085     5.52    -2.623038     19.76937      44.1409         9     1.489     0.578  62.90   0
       245    314.5456     99.2333 300.2685803 +22.4913023     329.8057     70.08961      1.435     3.46    -2.527422     19.76937     32.99147         5     0.783     0.443 -69.35   0
       246    759.7673     90.2311 300.4100596 +22.6221281     894.4826     70.08961      1.438     2.98    -2.670183     19.76937     84.48805        15     1.027     0.879 -44.20   0
       247    697.8597     83.6868 300.3929000 +22.6017035     491.8955     70.16094      1.562     2.53    -2.633194     19.76937     56.39164         9     0.856     0.671 -67.35   0
       248    503.4454     82.5663 300.3327422 +22.5431333     594.6304     70.08961      1.372     4.22    -2.513881     19.76937     71.51481        14     1.190     0.947  40.79   0
       249     76.2597     83.5010 300.1996356 +22.4153343     287.0939     70.16094      1.311     3.38    -2.626204     19.76937     34.09632         5     0.744     0.444 -22.61   0
       250    407.1474     81.0908 300.3032622 +22.5138494     461.9043     70.12528      1.498     4.42    -2.501917     19.76937     49.72916        10     1.051     0.700 -82.39   0
       251    789.0804     79.3965 300.4227063 +22.6277928     255.8322     69.98246      1.265     3.47    -2.656856     19.76937     39.26098         5     0.810     0.429  20.03   0
       252    178.5301     71.1496 300.2354131 +22.4424578     2164.534     70.07175      1.495     2.68    -2.540792     19.76937     242.8867        24     1.165     1.039 -80.73   0
       253    294.3465     63.4518 300.2739065 +22.4749709     636.0997     70.10744      1.479     3.30    -2.451411     19.76937     88.46084        16     1.075     0.994 -88.71   0
       254    739.6602     63.1741 300.4125728 +22.6083276     536.0449     70.07175      1.518     4.55    -2.670726     19.76937     50.90519        12     1.049     0.912 -72.53   0
       255    778.1379     58.3501 300.4261239 +22.6184648     520.6911     70.12528      1.887     5.21    -2.646591     19.76937     47.66578        10     1.046     0.734  82.07   0
       256    797.3625     54.5360 300.4333505 +22.6231256     1183.668     70.07176      1.420     2.78    -2.631952     19.76937     153.7157        16     1.072     0.921  35.14   0
       257    180.9458     50.3894 300.2428968 +22.4372214     596.9196     70.07176      1.519     4.17    -2.485271     19.76937     50.76572        12     1.039     0.901 -32.53   0
       258    972.1385     47.7269 300.4900340 +22.6734982     381.9145     70.10744      1.217     2.43    -2.420747     19.76937     57.78646         7     0.716     0.633   4.44   0
       259    746.3757     46.9295 300.4199336 +22.6056689     426.7689     70.07176      1.395     3.63    -2.664552     19.76937     59.80339         8     0.952     0.813 -44.99   0
       260    598.6803     32.1118 300.3787470 +22.5571693      581.908     70.19659      1.632     3.73     -2.54007     19.76937     54.93229        11     1.095     0.783  77.52   0
       261    761.6944     26.9894 300.4311725 +22.6045239     281.6257      70.0182      1.304     3.23    -2.643657     19.76937     52.40613         6     0.901     0.495  -0.33   0
       262    570.2582     25.1573 300.3721551 +22.5466557     1069.107     70.05391      1.573     3.60    -2.441423     19.76937     88.09663        17     1.133     0.984 -82.63   0
       263    293.2649     22.6901 300.2867895 +22.4629397     305.6515     70.17876      1.457     4.78    -2.360027     19.76937     38.55122         6     0.984     0.657 -71.47   0
       264      8.0167     21.2774 300.1986225 +22.3770062     433.1766     70.07175      1.445     3.38      -2.5967     19.76937      48.5331         5     0.802     0.491  57.40   0
       265    527.5250     19.1038 300.3608182 +22.5321132      766.842      70.2144      1.549     3.55     -2.34612     19.76937     74.66639        15     1.127     0.887 -22.89   0
       266    632.8350     15.5360 300.3947557 +22.5626365     767.2353     70.07175      1.498     3.75    -2.578532     19.76937     79.68732        14     1.008     0.961  11.84   0
       267    228.1409     15.1257 300.2689991 +22.4412449     337.9775     70.10744      1.571     4.04    -2.749828     19.76937     33.05676         6     0.811     0.576  39.50   0
       268    276.5617     12.9999 300.2847392 +22.4551496     336.6036     70.05391      1.942     4.14    -2.412461     19.76937     28.51029         5     1.093     0.448 -26.20   0
       269    659.8325   1020.6885 300.0765133 +22.8593306     3943.962     67.63784      1.172     2.00    -6.096665     19.76937     676.5422        23     0.983     0.868  62.99  16
