#   1 NUMBER                 Running object number                                     
#   2 X_IMAGE                Object position along x                                    [pixel]
#   3 Y_IMAGE                Object position along y                                    [pixel]
#   4 ALPHA_J2000            Right ascension of barycenter (J2000)                      [deg]
#   5 DELTA_J2000            Declination of barycenter (J2000)                          [deg]
#   6 FLUX_APER              Flux vector within fixed circular aperture(s)              [count]
#   7 FLUXERR_APER           RMS error vector for aperture flux(es)                     [count]
#   8 FLUX_RADIUS            Fraction-of-light radii                                    [pixel]
#   9 FWHM_IMAGE             FWHM assuming a gaussian core                              [pixel]
#  10 BACKGROUND             Background at centroid position                            [count]
#  11 THRESHOLD              Detection threshold above background                       [count]
#  12 FLUX_MAX               Peak flux above background                                 [count]
#  13 ISOAREA_IMAGE          Isophotal area above Analysis threshold                    [pixel**2]
#  14 A_IMAGE                Profile RMS along major axis                               [pixel]
#  15 B_IMAGE                Profile RMS along minor axis                               [pixel]
#  16 THETA_IMAGE            Position angle (CCW/x)                                     [deg]
#  17 FLAGS                  Extraction flags                                          
         1    740.2045      8.7964 300.4425458 +22.5804178     595.9103     70.02542      1.700     6.37    -2.076347     19.80681     57.93511        14     1.281     1.082  46.64   0
         2    643.8856      8.6559 300.4125918 +22.5515247     1518.293     70.29382      1.801     3.78    -1.870493     19.80681      120.991        26     1.312     1.208  41.60  16
         3    730.6870   1013.9346 300.1129321 +22.8661871     444.2881     70.29382      1.639     5.77    -4.534327     19.80681     47.11467         9     1.509     0.622  51.70   0
         4    941.7496   1023.7618 300.1754992 +22.9323458     628.6588     54.13025      1.024     2.26    -4.508277     19.80681     163.5066         8     1.061     0.423  -3.06  24
         5     96.4523   1023.0573 299.9126998 +22.6783066      1017.49     57.96058      8.996    12.54    0.9866462     19.80681     47.12899        29     3.980     1.100  -1.81  27
         6    102.3011   1013.3333 299.9176827 +22.6772793     1362.882     70.29382     10.320    13.21    0.5516006     19.80681      42.0936        24     3.301     1.471 -24.24  19
         7     93.3276   1015.6265 299.9141490 +22.6752392     1961.253     70.20447      7.442    13.21    0.3484247     19.80681     50.92427        53     2.445     1.986  56.35  19
         8    765.6304   1008.3259 300.1256429 +22.8750666     578.4711     70.22235      1.334     3.34    -4.601139     19.80681     88.44226        11     1.012     0.795 -83.47   0
         9    542.9572   1008.6849 300.0561958 +22.8083223     312.3285      70.1687      1.867     5.68    -4.618044     19.80681     31.54526         6     1.113     0.816 -76.67   0
        10    787.8723   1001.5720 300.1347711 +22.8798047      6568.08     70.20447      1.301     2.27    -4.651824     19.80681     829.2255        35     1.124     1.055 -14.36   0
        11     99.7220    994.0581 299.9231578 +22.6709833     447.0922     70.24023      1.457     4.70   -0.4572679     19.80681     43.80346         9     1.180     0.776 -23.15   0
        12    493.1020    989.9998 300.0467669 +22.7879950     175.6857     70.07919      1.278     4.55    -4.651972     19.80681     33.65185         7     1.238     0.475  -5.22   0
        13    796.4165    983.7241 300.1432450 +22.8772489     839.7816     70.20447      1.295     2.94    -4.670254     19.80681     104.3533        12     1.012     0.795  59.53   0
        14    979.1377    982.3635 300.2006377 +22.9316829     261.0184     70.22235      1.305     3.49    -4.553102     19.80681     34.14505         5     0.776     0.452  15.01   0
        15    648.7651    980.9526 300.0981616 +22.8321371     201.2075     70.24023      1.271     4.54    -4.548523     19.80681     31.38974         5     1.181     0.496  21.50   0
        16    834.8514    977.0958 300.1573788 +22.8868812     405.0854     70.27596      1.257     3.90    -4.665117     19.80681     52.56589         8     0.915     0.677  -6.64   0
        17    734.1833    967.4944 300.1291435 +22.8539162     403.2134      70.1329      1.321     4.18    -4.534327     19.80681     48.45204         8     0.965     0.670  30.03   0
        18    447.0101    964.0019 300.0408923 +22.7667009     2373.577     70.02542      1.416     2.72    -4.657846     19.80681      265.407        24     1.098     1.045 -20.75   0
        19    745.3977    964.3248 300.1336685 +22.8563727      221.335     70.11501      1.211     3.07    -4.552758     19.80681     44.21019         8     0.915     0.597 -19.58   0
        20    172.2609    950.0120 299.9600315 +22.6801628     367.0995      70.1687      1.381     4.32    -2.840944     19.80681     56.46477         9     1.015     0.657  57.34   0
        21    149.3178    947.0095 299.9538809 +22.6724090     767.8968      70.1508      1.326     2.87     -2.93788     19.80681     111.5274        15     1.079     0.817 -67.10   0
        22     24.2828    937.1507 299.9182567 +22.6320118     282.9907     70.20447      1.280     2.59    -5.031296     19.80681     41.44925         6     0.721     0.620 -16.06   0
        23   1020.8597    935.2996 300.2289721 +22.9306898     1267.098     67.37579      1.210     2.08    -4.924445     19.80681     206.9842        16     0.922     0.869 -23.50  16
        24    975.2081    933.8179 300.2152190 +22.9165715     1275.907      70.1508      1.276     2.29    -4.744382     19.80681      174.188        14     0.938     0.818  73.53   0
        25    758.6206    927.8460 300.1496638 +22.8498763     313.6202     70.25809      1.214     2.83    -4.577851     19.80681     45.33696         7     0.723     0.661  85.19   0
        26    626.8917    921.9469 300.1105622 +22.8086486     2759.084     70.25809      1.386     2.73    -4.529509     19.80681     312.3817        23     1.066     1.019  34.32   0
        27    429.1646    918.8548 300.0500387 +22.7483994     246.6057     70.22235      1.258     4.76    -4.574576     19.80681     34.30095         6     1.012     0.644  -6.57   0
        28    177.1233    916.1663 299.9725595 +22.6719262     851.1439     70.20447      1.555     2.95    -3.973284     19.80681     89.90668        14     1.068     0.812 -23.95   0
        29    647.5851    914.3770 300.1194691 +22.8126887     435.7982     70.20447      1.411     4.48    -4.483397     19.80681     44.61788        11     1.033     0.807  16.73   0
        30    196.3573    912.5031 299.9797282 +22.6766549     313.8762     70.20447      1.626     4.32    -4.002614     19.80681     31.64231         5     0.970     0.548 -42.40   0
        31    802.8160    901.6674 300.1719541 +22.8556270     2254.037     70.20447      1.340     2.59    -4.444271     19.80681     275.7833        20     1.032     0.943 -22.55   0
        32   1019.9144    901.6732 300.2396244 +22.9207536     678.8689     69.82794      1.274     2.09    -5.000132     19.80681     95.97934        10     0.764     0.723  72.73  16
        33    211.0468    896.4752 299.9895096 +22.6764749     418.6157     70.20447      2.031     4.66    -4.094548     19.80681     36.56091         6     1.213     0.716  -1.33   0
        34    520.0952    894.2101 300.0863504 +22.7686349     388.1257      70.1329      1.335     3.29    -4.501235     19.80681     46.40886         8     0.979     0.550  51.78   0
        35    166.4577    892.6650 299.9768948 +22.6619881     692.6169     70.24023      1.483     2.77    -4.102844     19.80681     79.11035        11     0.877     0.809  39.41   0
        36    316.0498    884.5562 300.0260265 +22.7045981     30932.77     70.24023      1.441     2.60    -4.133241     19.80681     3404.898        72     1.307     1.274  63.56   0
        37    573.7447    883.5250 300.1065247 +22.7816759     995.3726     70.22235      1.547     3.61       -4.473     19.80681     96.82143        16     1.100     0.989 -69.24   0
        38    244.3601    882.7598 300.0043265 +22.6825512     329.9294     70.27596      1.284     3.37    -4.142461     19.80681      37.2846         5     0.755     0.435 -70.76   0
        39    986.5825    882.0867 300.2356059 +22.9051343     525.3737      70.1508      1.276     3.50    -4.805966     19.80681     64.72978        10     0.923     0.721  -2.44   0
        40    602.7407    879.3327 300.1169149 +22.7891771     477.4248     70.24023      1.557     4.06     -4.35596     19.80681      45.9657        10     0.905     0.832  73.77   0
        41      2.3111    879.5558 299.9301802 +22.6089117     426.2341     59.81527      1.326     2.75    -4.128712     19.80681     55.77196         9     0.906     0.663 -34.40  24
        42    613.9271    877.8814 300.1208696 +22.7921184     320.7566     70.32953      1.320     4.44     -4.32976     19.80681     46.97812         9     0.980     0.729  80.17   0
        43    719.0006    873.9805 300.1548569 +22.8225333      306.381      70.1329      1.361     4.50    -4.219211     19.80681      29.6814         6     1.013     0.569 -46.09   0
        44    365.7381    861.8119 300.0488784 +22.7129999     17477.05      70.1687      1.515     2.77    -4.048231     19.80681     1961.276        56     1.291     1.258  36.37   0
        45    756.5786    864.0147 300.1698051 +22.8309499      426.565     70.18658      1.384     3.58     -4.12227     19.80681     47.55018         8     0.840     0.655   1.76   0
        46    379.9850    862.2329 300.0531718 +22.7173987     1194.532     70.18658      1.488     2.92    -4.066801     19.80681     116.9087        17     1.047     0.931 -65.72   0
        47    888.6625    857.3668 300.2131253 +22.8686683     1525.169     70.20447      1.350     2.51    -4.138442     19.80681     180.7948        19     1.040     0.938  23.72   0
        48    248.6338    853.8994 300.0150469 +22.6755632     498.0426     70.18658      1.500     3.68    -4.128608     19.80681     64.12639        12     1.068     0.896  58.57   0
        49    646.8350    853.3074 300.1391125 +22.7949460     530.7631      70.1508      1.467     3.56    -4.240424     19.80681     52.79593        13     1.092     0.803 -18.14   0
        50    483.3106    853.8759 300.0880319 +22.7460254      275.213     70.34738      1.315     3.43    -4.119801     19.80681     40.61035         6     0.756     0.620  44.03   0
        51     53.2491    849.6462 299.9557296 +22.6156496     311.0724     70.22235      1.240     4.07     -4.00507     19.80681     39.23452         6     0.742     0.647  76.10   0
        52    493.6730    848.0817 300.0931416 +22.7474747      549.308     70.32954      1.708     5.17     -4.15877     19.80681     47.56911        13     1.094     0.898  62.09   0
        53    395.7884    844.4794 300.0638641 +22.7170539     295.9229     70.18658      1.550     4.32    -4.041979     19.80681     27.93246         5     1.145     0.464 -58.53   0
        54     81.2551    842.9177 299.9666166 +22.6221363     366.9104     70.25809      1.547     3.95    -4.082051     19.80681     49.74965         6     1.090     0.410  58.49   0
        55    538.9595    826.4200 300.1142826 +22.7548563     461.9147     70.24023      1.840     4.76    -4.184738     19.80681     36.75895         7     1.197     0.536 -88.82   0
        56    560.7336    823.9910 300.1218496 +22.7606951     945.7706     70.20447      1.761     3.72    -4.177608     19.80681     81.43245        17     1.118     1.058  11.91   0
        57    954.9274    822.5283 300.2451198 +22.8785431     2690.183     70.25809      1.383     2.56    -4.214608     19.80681     286.5599        26     1.125     1.031  22.61   0
        58    943.3040    813.8965 300.2443048 +22.8725792     981.6697     70.38306      1.353     2.83    -4.016772     19.80681     104.6581        15     0.987     0.877 -45.72   0
        59    306.6350    808.1830 300.0479520 +22.6798775     318.1413     70.20447      1.298     3.94    -3.938317     19.80681     50.04462         8     0.937     0.597  76.77   0
        60    769.6977    805.4977 300.1929346 +22.8180944     1420.951     70.40089      1.547     3.15    -3.754318     19.80681     132.1662        21     1.141     1.080  37.93   0
        61    974.5607    804.0787 300.2572449 +22.8791342     907.4494     70.18658      1.274     2.81    -4.271359     19.80681     107.9149        13     0.972     0.798  -2.52   0
        62    155.2621    792.1445 300.0061249 +22.6298187     369.4951     70.27596      1.462     3.48    -4.159404     19.80681     42.17487         8     0.940     0.598  23.70   0
        63    852.2636    791.0262 300.2233693 +22.8387088     251.3005     70.18658      1.496     5.53    -3.483699     19.80681      39.3794         6     1.114     0.908  74.63   0
        64    888.1903    782.2352 300.2374266 +22.8469609     84240.87     70.20447      1.481     2.75    -3.550421     19.80681      8483.02       117     1.384     1.371 -36.50   0
        65    740.5342    782.4703 300.1913424 +22.8027369     529.9514     70.24023      1.578     4.74    -3.813107     19.80681     45.81479         8     0.972     0.656  82.43   0
        66    920.6503    774.8373 300.2499516 +22.8545721     166.2221     70.18658      1.409     5.31    -3.620323     19.80681     29.41726         5     1.066     0.748 -13.10   0
        67    574.6334    771.2040 300.1433506 +22.7497246     854.7103     70.20447      1.596     3.85    -3.783937     19.80681     73.32426        16     1.060     1.018 -86.52   0
        68    220.1876    771.8290 300.0329081 +22.6434956     72.65347     70.20447      1.408     5.59    -4.092659     19.80681     26.71595         5     1.182     0.745 -13.14   0
        69    755.6968    768.5330 300.2005999 +22.8032859      5262.15     70.29382      1.547     3.07    -3.653929     19.80681     480.8138        32     1.206     1.163  16.19   0
        70    257.4254    763.9406 300.0470478 +22.6524168     2647.281     70.20447      1.511     2.84    -3.972776     19.80681     312.5923        27     1.224     1.119  -6.43   0
        71    339.3177    761.9598 300.0731511 +22.6764382     759.2314      70.1687      1.748     4.44    -3.883689     19.80681     68.04422        13     1.144     0.919  27.09   0
        72    547.0914    757.5777 300.1392112 +22.7375500     464.7314      70.1329      1.936     5.23    -3.562684     19.80681     42.29297         7     1.076     0.814 -28.29   0
        73    539.2329    749.5032 300.1393921 +22.7328752     1956.803     70.18658      1.635     3.31    -3.476358     19.80681     175.0127        26     1.203     1.168  51.60   0
        74    529.5247    743.5212 300.1383167 +22.7282456     769.3745     70.31168      1.535     3.35    -3.416971     19.80681     66.35094        14     1.047     0.852 -35.66   0
        75    923.1932    740.4167 300.2619422 +22.8454525     281.9652      70.1508      1.484     3.17    -3.495357     19.80681      41.4993         5     0.960     0.681 -85.54   0
        76    193.3212    739.8007 300.0349773 +22.6262461     415.2262      70.0971      1.781     2.59    -4.080454     19.80681     43.30374         5     0.695     0.652  -2.83   0
        77    207.2912    738.2186 300.0398330 +22.6299879     349.2165      70.1329      1.562     3.53    -4.032546     19.80681       34.997         7     0.832     0.616 -61.63   0
        78    454.4839    733.1586 300.1183385 +22.7027510     913.3593      70.1687      1.556     3.23    -3.309386     19.80681     84.28632        18     1.122     0.970  88.69   0
        79    108.4229    728.2318 300.0123635 +22.5974323     11408.93     70.20447      1.533     2.75    -4.093322     19.80681     1149.303        53     1.340     1.282  63.31   0
        80     29.4779    729.5172 299.9874273 +22.5740874     406.2263     70.31168      1.505     3.65    -3.858626     19.80681     46.44216         6     0.970     0.395  69.82   0
        81    539.4005    728.3138 300.1463367 +22.7268468     607.0052     70.07919      1.950     3.55    -3.297493     19.80681     59.76312        12     1.076     0.849  15.77   0
        82     54.4573    712.4252 300.0007429 +22.5766927     797.0881     70.20447      1.684     5.68    -3.790863     19.80681     69.39135        16     1.623     0.710 -89.11   0
        83    956.8770    714.0298 300.2810268 +22.8479760     588.7743     70.18658      1.438     3.25    -3.423959     19.80681     53.36382        10     0.879     0.754 -13.60   0
        84    896.9225    706.6963 300.2647217 +22.8278929     551.4982     70.32954      1.862     5.39    -3.482198     19.80681     46.39268         9     0.975     0.840 -39.19   0
        85    503.6935    697.0445 300.1453950 +22.7071606     710.6721     70.22235      2.086     6.55    -3.159357     19.80681     48.08791        15     1.472     1.201 -60.90   0
        86    624.6935    698.0260 300.1827372 +22.7437499     286.4906      70.1687      1.541     3.46     -3.48295     19.80681     38.03897         5     0.790     0.590  -3.74   0
        87    937.1269    692.1319 300.2819917 +22.8357662       1870.5     70.27596      1.417     2.90    -3.464594     19.80681     193.6443        22     1.141     1.018 -45.11   0
        88    469.0791    692.4984 300.1361034 +22.6954683     878.1099     70.32954      1.652     3.81    -3.180632     19.80681     88.78617        17     1.152     1.020  17.79   0
        89     31.2174    686.4774 300.0019640 +22.5622756     2769.162     70.20447      1.445     2.74    -3.498237     19.80681     281.8778        26     1.145     1.081 -36.76   0
        90    332.4541    679.3776 300.0978759 +22.6506963     5104.887     70.22235      1.666     3.26    -3.467412     19.80681     483.7883        40     1.345     1.267 -50.76   0
        91    454.9364    676.3181 300.1369652 +22.6865823     5189.682     70.31168      1.715     3.42    -3.168022     19.80681     367.2057        38     1.369     1.278  47.01   0
        92    866.3521    670.0690 300.2671056 +22.8082094     1033.681     70.18658      1.546     4.04    -3.479897     19.80681     78.19963        18     1.202     1.016 -84.66   0
        93    951.0149    667.2031 300.2944289 +22.8327713     7098.324     70.04335      1.540     2.91     -3.43472     19.80681     652.4186        43     1.268     1.242 -38.21   0
        94    515.4147    665.9502 300.1591542 +22.7017571     6501.046     70.22235      1.755     3.59    -3.005602     19.80681     499.1181        40     1.359     1.311  62.12   0
        95    243.1216    661.3784 300.0759574 +22.6187161     796.9244     70.20447      1.620     3.36    -3.641688     19.80681       86.157        15     1.086     0.925  82.29   0
        96    447.1198    654.0867 300.1417625 +22.6778589     2533.059     70.36523      1.738     3.55    -3.072703     19.80681     199.8867        30     1.360     1.200  35.50   0
        97    789.8989    653.7048 300.2486033 +22.7805843     614.9307     70.38306      1.875     3.71    -3.443135     19.80681     42.07843        11     0.961     0.817  49.41   0
        98    425.4149    652.8023 300.1354282 +22.6709766     710.5706     70.06127      1.879     4.60    -3.123456     19.80681     56.30255        16     1.242     1.063  20.64   0
        99    179.5777    652.1453 300.0592118 +22.5969897     509.5317     70.22235      1.662     3.70    -3.689379     19.80681     56.93484         9     1.103     0.568  20.23   0
       100    866.7175    649.5568 300.2738899 +22.8024292     919.6058      70.1687      1.669     3.57    -3.479897     19.80681     89.99645        16     1.146     0.962 -34.97   0
       101    747.4835    646.3780 300.2377720 +22.7657601     415.8468      70.1687      1.636     3.42    -3.457388     19.80681     49.82557        10     0.988     0.866  26.20   0
       102    563.7007    641.5642 300.1821112 +22.7092483       116722     70.18658      1.764     3.61    -2.997715     19.80681     8557.309       156     1.622     1.580  13.66   0
       103    249.9769    641.7855 300.0844587 +22.6151559     1928.393     70.20447      1.652     3.40    -3.608647     19.80681     173.4388        25     1.233     1.163  15.05   0
       104    454.3847    621.9258 300.1544793 +22.6708125     1486.008     70.20447      1.778     4.11     -2.87037     19.80681     116.6404        25     1.386     1.140 -88.60   0
       105    851.2943    607.5814 300.2827313 +22.7857515     892.4883      70.1329      1.600     3.85     -3.45147     19.80681     90.54275        14     1.075     0.918  54.37   0
       106    722.3206    605.3206 300.2432833 +22.7464269     1443.349     70.32954      1.726     3.84    -3.347321     19.80681     101.6716        22     1.192     1.140  59.03   0
       107    510.4608    601.6645 300.1785141 +22.6818252     351.5726     70.24023      1.533     4.18    -2.765989     19.80681     34.02914         6     1.084     0.459 -78.57   0
       108    979.5211    599.2648 300.3254078 +22.8218041     727.1765     70.31168      1.678     4.32    -3.351776     19.80681     61.14329        13     1.105     0.859 -10.42   0
       109    851.5817    598.1056 300.2859015 +22.7831166     1278.938      70.1329      1.793     3.96    -3.413507     19.80681     92.48815        21     1.227     1.110 -55.17   0
       110    965.9409    597.8875 300.3216211 +22.8173378     560.5082     70.27596      1.963     6.16    -3.374187     19.80681     31.08589        10     1.403     0.759  27.84   0
       111    604.3291    596.3423 300.2094606 +22.7084589     305.3382     70.22235      1.849     5.50     -2.97368     19.80681     28.25044         6     0.951     0.898  56.23   0
       112    889.5873    592.9247 300.2994312 +22.7930233     2393.164     70.22235      1.641     3.57    -3.421279     19.80681     190.8525        27     1.264     1.152  32.45   0
       113    122.0081    583.9010 300.0635109 +22.5601374     566.6851     70.07919      1.450     3.24    -3.537504     19.80681     75.52209        10     0.897     0.829 -35.54   0
       114    981.4036    583.1573 300.3312314 +22.8177415     406.3752     70.22235      1.588     4.71    -3.312971     19.80681     35.89079         9     1.090     0.601  25.92   0
       115    662.6979    563.7357 300.2382332 +22.7166072     378.7552     70.31168      1.665     5.21    -3.021608     19.80681     39.98106         8     1.301     0.589   9.11   0
       116    724.2738    555.6179 300.2600487 +22.7327431     548.9484     70.20447      1.842     4.97    -3.095254     19.80681     43.15606        12     1.128     0.904  14.79   0
       117    881.0328    551.8288 300.3101239 +22.7786559     504.3092     70.22235      1.516     4.75    -3.271071     19.80681     56.85292        10     0.987     0.936 -55.17   0
       118    865.1497    548.2264 300.3063444 +22.7728598     208.9917     70.22235      1.221     3.04    -3.256417     19.80681     36.21498         6     0.737     0.578  53.55   0
       119    609.6903    546.5145 300.2273263 +22.6957650     1808.088     70.36523      1.868     4.32    -2.811592     19.80681     118.1446        29     1.370     1.255 -31.22   0
       120    969.7780    545.1413 300.3399640 +22.8033363      199.131     70.20447      1.238     3.68    -3.229375     19.80681     32.38444         5     1.142     0.341  77.37   0
       121     86.2825    537.9202 300.0673574 +22.5362271     248.2331     70.32954      1.497     3.86    -3.371997     19.80681     31.89544         5     0.851     0.501 -32.66   0
       122   1020.7703    525.2338 300.3623362 +22.8128993     681.5839     67.61758      1.483     3.29    -3.158171     19.80681     79.24897        16     1.121     0.906  77.32  16
       123    892.6926    525.3615 300.3223608 +22.7745490     254.9547     70.20447      1.519     4.26     -3.12409     19.80681     34.51282         5     1.084     0.477  -3.36   0
       124    979.1594    523.7652 300.3498370 +22.8000070     516.6547     70.25809      1.711     4.88     -3.18775     19.80681      52.0838         9     0.981     0.687  67.17   0
       125    719.9918    520.5380 300.2701165 +22.7213868     550.1229      70.1508      1.616     4.90     -3.01971     19.80681     43.02879        12     1.147     0.787  80.46   0
       126    225.2537    519.2533 300.1166026 +22.5725931     310.3169     70.24023      1.441     3.44    -3.462712     19.80681      38.4411         5     1.138     0.301 -35.25   0
       127    286.5862    514.6373 300.1371674 +22.5896771     2150.588     70.20447      1.874     3.82    -3.119513     19.80681     150.0894        31     1.384     1.304 -31.80   0
       128   1019.5470    512.3470 300.3661430 +22.8088300     2495.222     70.24023      1.628     3.35    -3.125844     19.80681     211.3394        27     1.212     1.142 -43.02  16
       129    233.8950    509.4175 300.1224846 +22.5723656     4259.093      70.1329      1.755     3.56    -3.380793     19.80681     350.5737        37     1.383     1.288  84.46   0
       130    374.7261    503.4987 300.1681935 +22.6129310     2513.304     70.34738      1.795     3.92    -2.805421     19.80681     179.8659        29     1.342     1.238  61.40   0
       131    999.5488    503.4854 300.3627861 +22.8002910     981.7733     70.20447      1.567     4.01    -3.125728     19.80681        89.73        14     1.040     0.937  89.50   0
       132    618.7315    500.0136 300.2452534 +22.6851279     10411.81     70.22235      1.874     3.93    -2.717911     19.80681     697.6621        54     1.522     1.436  12.92   0
       133    635.8110    500.4577 300.2504268 +22.6903775     404.2565      70.1687      1.880     5.12    -2.817399     19.80681     36.23081         7     1.045     0.708   2.05   0
       134    952.3853    482.1693 300.3550065 +22.7800324     385.9989     70.20447      1.458     4.21    -3.152391     19.80681     48.74299        11     1.179     0.916 -36.29   0
       135    173.7966    480.5347 300.1131924 +22.5460426     1195.962     70.22235      1.767     3.82    -3.342025     19.80681     121.1299        23     1.279     1.215  60.52   0
       136    559.2593    469.5424 300.2366411 +22.6585437     3794.549     70.27596      1.942     4.19    -2.581029     19.80681     267.8496        42     1.483     1.457   7.48   0
       137    972.6291    469.6579 300.3653841 +22.7825044     570.0283     70.20447      1.567     4.13    -3.004366     19.80681     59.79524        12     1.032     0.816 -38.20   0
       138    274.1503    469.2556 300.1480470 +22.5729261     453.8447     70.24023      2.075     4.39    -2.975979     19.80681     40.37231         7     1.191     0.599  84.40   0
       139    132.0217    462.5620 300.1060519 +22.5283484     384.4134     70.22235      1.634     4.24    -3.239541     19.80681     35.46122         5     0.974     0.552 -76.00   0
       140    762.9225    458.5082 300.3036462 +22.7164456     570.6253     70.34738      1.617     5.26    -2.786098     19.80681     47.61893        11     1.216     0.817  68.73   0
       141    673.3278    459.6949 300.2753542 +22.6899240      401.241     70.31168      1.843     4.41    -2.832078     19.80681     31.02881         5     1.200     0.460  85.27   0
       142    466.1160    455.8315 300.2121100 +22.6266700     3493.699     70.18658      1.962     4.11    -2.579848     19.80681     233.2357        38     1.426     1.395 -80.56   0
       143    857.9286    449.7956 300.3360808 +22.7424223     858.7493      70.1508      1.805     5.11    -2.517761     19.80681     59.53516        17     1.246     0.992  70.91   0
       144    955.2406    450.0741 300.3663254 +22.7716667     326.3826     70.18658      1.731     5.32    -2.810301     19.80681     29.93067         8     1.209     0.661  13.57   0
       145    353.6732    435.2350 300.1838252 +22.5870264     1389.369     70.18658      1.890     4.25     -2.56585     19.80681     88.92782        23     1.311     1.167  70.76   0
       146     72.9322    432.9245 300.0973243 +22.5021111     556.7225     70.27596      1.429     3.72    -3.148079     19.80681     63.82225        10     0.900     0.856  77.02   0
       147    323.0229    424.6495 300.1777328 +22.5747928      16574.3     70.20447      1.854     3.70    -2.675068     19.80681     1302.802        69     1.561     1.485  62.13   0
       148    857.4898    421.6576 300.3450856 +22.7342074     695.6246     70.25809      1.744     4.95    -2.406276     19.80681     53.50939        17     1.254     0.955  14.67   0
       149     19.4262    412.8795 300.0872184 +22.4803003     2849.336     70.20447      1.648     2.87    -3.108801     19.80681     307.1027        33     1.313     1.216  51.97   0
       150    733.2521    404.1631 300.3120585 +22.6919424     1000.721     70.22235      1.854     4.63    -2.401417     19.80681     75.59506        22     1.284     1.228  86.38   0
       151    113.5536    398.8701 300.1210037 +22.5045372     14436.84     70.18658      1.018     4.18    -3.156278     19.80681     4149.587        18     0.931     0.534  55.54   0
       152    948.4633    396.7431 300.3815380 +22.7543115     276.0061     70.25809      1.488     5.29    -2.451816     19.80681     35.80568         7     1.206     0.656  -8.15   0
       153    395.1312    388.9766 300.2117448 +22.5861881     1121.939     70.20447      1.925     4.34    -2.515096     19.80681     86.53415        19     1.209     1.144  66.75   0
       154    833.9519    381.3285 300.3508503 +22.7155668     331.9658     70.18658      1.603     3.43    -2.416926     19.80681     35.01408         5     0.994     0.342  43.95   0
       155    471.4149    368.4476 300.2421435 +22.6031760     633.5878     70.24023      1.737     3.80     -2.56214     19.80681     61.76331        11     1.075     0.766 -23.52   0
       156    715.8155    359.9346 300.3209928 +22.6740119     1100.874     70.18658      1.868     4.69    -2.336102     19.80681     79.49816        24     1.331     1.212 -59.85   0
       157    976.8546    354.0644 300.4042530 +22.7505531      1759.11     70.25809      1.567     3.28     -2.45174     19.80681     147.5868        22     1.147     1.092  32.10   0
       158    423.9542    344.4342 300.2351763 +22.5820481     306.4164     70.22235      1.455     4.33    -2.520159     19.80681     37.54791         5     1.087     0.491   4.07   0
       159     98.7656    338.5535 300.1359976 +22.4827972     814.6104     70.24023      2.272     6.29    -3.055236     19.80681     54.62341        15     1.273     1.030  21.00   0
       160    130.8199    337.3947 300.1463319 +22.4920845     1714.387     70.18658      0.709     0.92    -3.074823     19.80681     659.4344         9     0.653     0.423 -86.47   0
       161    183.5935    330.4830 300.1649739 +22.5059377     338.2081      70.1329      1.602     4.74    -2.966173     19.80681     32.83432         7     1.322     0.482 -85.71   0
       162    885.3757    310.3760 300.3899202 +22.7105895      1056.34      70.1687      1.706     3.89    -2.488819     19.80681     93.19891        20     1.226     1.084  30.10   0
       163    303.9189    308.2094 300.2096077 +22.5356456      1235.85      70.1508      1.923     5.17    -2.673544     19.80681     84.94529        24     1.601     1.085  16.22   0
       164    382.6272    302.8034 300.2358391 +22.5577024     600.2159      70.1687      2.086     5.60    -2.463951     19.80681     40.56142        10     1.399     0.632 -88.95   0
       165    199.2903    295.6254 300.1811695 +22.5006455     312.7831      70.1508      1.327     4.72    -2.796638     19.80681     40.21834         8     0.976     0.782 -26.76   0
       166    736.8367    291.8929 300.3496357 +22.6607666     897.6693     70.18658      1.815     3.75    -2.381196     19.80681      71.0921        16     1.207     0.928 -33.02   0
       167    802.6250    291.1921 300.3703597 +22.6802810     350.5718     70.20447      1.422     3.51    -2.423611     19.80681     31.08331         5     0.823     0.432 -71.76   0
       168    221.0374    289.1974 300.1900152 +22.5053254     401.2225     70.22235      1.832     4.03    -2.793313     19.80681     36.97791         5     0.754     0.677  -2.13   0
       169   1007.7896    284.1025 300.4366188 +22.7397106     442.6516      70.0971      1.531     4.65    -2.492896     19.80681     43.50444        10     0.914     0.795  -3.73   0
       170    740.3486    283.5634 300.3534340 +22.6594261     498.3303     70.22235      1.970     4.63    -2.395733     19.80681     50.51069         9     1.078     0.861  57.68   0
       171    661.0214    282.7587 300.3289881 +22.6354188     638.8559     70.24023      1.811     6.11    -2.443624     19.80681     52.92529        13     1.403     1.148 -17.70   0
       172    856.6205    273.7181 300.3928599 +22.6914391     820.5075      70.1687      1.730     4.62     -2.53116     19.80681     63.56224        19     1.267     1.157 -67.39   0
       173    587.8083    274.1888 300.3089749 +22.6110106     613.2471      70.0971      2.222     6.68    -2.552128     19.80681     38.03165        11     1.186     1.055 -39.57   0
       174    869.1458    273.4838 300.3968398 +22.6951245     267.9204     70.24023      1.374     4.10    -2.542921     19.80681     37.40456         7     0.998     0.481  -9.03   0
       175    985.1930    263.3092 300.4363227 +22.7269647     627.6661     70.11501      1.482     3.55    -2.497264     19.80681     57.18148        12     0.975     0.842  57.20   0
       176      9.1498    261.5404 300.1331670 +22.4338103     368.5663     70.25809      1.786     3.97    -2.503742     19.80681     42.21084         6     1.067     0.562 -30.49   0
       177    219.9660    256.2971 300.2003625 +22.4955622     398.9359     70.20447      2.031     4.36    -2.722474     19.80681     44.92115         6     1.373     0.393  74.35   0
       178     81.4744    251.7658 300.1588018 +22.4527103     1102.116     70.18658      1.688     3.88    -2.635223     19.80681      97.4021        22     1.316     1.052  55.51   0
       179    903.9368    248.6099 300.4157598 +22.6983988     482.2502      70.1508      2.228     5.12    -2.545867     19.80681     32.40842         9     1.077     0.981 -53.16   0
       180     31.2236    249.0081 300.1440897 +22.4368397     264.5796     70.20447      1.813     3.84       -2.621     19.80681     23.98693         5     0.829     0.511 -36.29   0
       181    238.6634    245.0007 300.2098409 +22.4979291     3136.878     70.20447      1.874     3.92    -2.692124     19.80681      219.162        39     1.520     1.376  70.63   0
       182     23.2494    239.4964 300.1447005 +22.4317179     728.2591     70.25809      1.736     4.48      -2.6887     19.80681     61.86124        12     1.055     0.975   9.71   0
       183    882.6031    226.0163 300.4164438 +22.6855137     2088.298     70.11501      1.896     4.15    -2.602136     19.80681     138.9926        30     1.346     1.333  70.06   0
       184    986.1135    224.6064 300.4491737 +22.7161141     1619.521      70.1329      1.739     3.67    -2.498611     19.80681     119.5411        29     1.473     1.165  50.66   0
       185    432.7586    221.5667 300.2778045 +22.5494125     339.4615     70.25809      1.730     3.45    -2.461994     19.80681     34.22583         5     1.055     0.327 -21.80   0
       186    122.3140    210.8360 300.1847730 +22.4532199     239.2774     70.18658      1.338     5.26    -2.642116     19.80681     32.97907         7     1.278     0.611 -11.04   0
       187    483.6747    209.0511 300.2977083 +22.5610844     963.1241     70.22235      2.024     5.31    -2.490767     19.80681     60.43385        18     1.299     1.074 -38.27   0
       188    257.6720    188.8740 300.2339657 +22.4875204     3464.142     70.25809      1.880     3.95    -2.593226     19.80681     233.5644        38     1.475     1.358 -23.20   0
       189    109.0326    188.1156 300.1880200 +22.4427154     418.2132     70.16869      1.632     3.71    -2.618049     19.80681     31.00626         5     1.006     0.394  59.22   0
       190    503.5761    174.0044 300.3152751 +22.5569850     3580.157      70.1687      1.931     4.19     -2.55405     19.80681     247.8609        38     1.552     1.368 -58.37   0
       191    756.4844    164.0928 300.3972394 +22.6299320     603.6643     70.38306      2.058     6.00    -2.427531     19.80681     39.33157         8     1.820     0.668 -27.08   0
       192    631.8937    154.0200 300.3617034 +22.5897043      3579.42      70.1329      1.927     4.05     -2.39136     19.80681      238.569        41     1.476     1.439  32.90   0
       193    407.3549    153.5094 300.2919878 +22.5222523     884.5793     70.18658      1.820     4.62    -2.552568     19.80681     66.45808        16     1.134     1.042 -55.29   0
       194    673.1545    151.2724 300.3754436 +22.6012794      437.464     70.20447      1.683     5.28     -2.30811     19.80681     32.75739         9     1.058     0.745 -79.26   0
       195    155.7056    146.1789 300.2161287 +22.4446811     403.7642      70.1329      1.802     3.05    -2.568964     19.80681     48.17383         6     0.908     0.605 -13.26   0
       196      3.1915    145.5071 300.1689718 +22.3987335     160.2967     63.73733      1.239     5.20    -2.498847     19.80681     28.90722         5     1.072     0.713  82.72  16
       197    958.0598    144.9482 300.4662783 +22.6848097     220.5638     70.25809      1.308     3.78    -2.411063     19.80681     33.42946         5     0.668     0.614   2.57   0
       198    691.7812    138.1689 300.3854965 +22.6030955     527.1365     70.20447      2.148     7.69    -2.226939     19.80681     33.56926        10     1.504     1.100  51.94   0
       199    676.0350    138.9200 300.3803487 +22.5985931     1595.714      70.1508      1.867     4.16    -2.219759     19.80681     109.9139        24     1.286     1.208  -7.52   0
       200    762.4504    130.4358 300.4100193 +22.6220464      875.933     70.22235      2.059     5.59    -2.313564     19.80681     58.63269        18     1.339     1.155 -61.94   0
       201    700.9443    123.7081 300.3930424 +22.6016854     266.5466     70.25809      1.518     4.27    -2.144633     19.80681     36.09383         6     1.144     0.454 -69.98   0
       202    506.3776    123.6389 300.3324891 +22.5433578     618.6902     70.22235      1.687     5.34     -2.58722     19.80681     45.95463         9     1.256     0.642   2.61   0
       203     78.9823    123.5040 300.1996489 +22.4151582     340.4761     70.11501      1.694     5.25    -2.666234     19.80681     36.85363         7     1.303     0.599 -42.85   0
       204    410.2786    121.6128 300.3032462 +22.5139686     446.5574     70.20447      1.605     4.14    -2.552198     19.80681     52.62294         9     1.179     0.686 -22.62   0
       205    181.6674    111.4090 300.2354765 +22.4424877     2176.975     70.20447      1.855     3.53    -2.502234     19.80681     188.3403        31     1.467     1.207 -60.16   0
       206    749.6531    111.7937 300.4120807 +22.6128545     402.6737      70.1687      1.666     5.97    -2.192117     19.80681     38.56158        11     1.439     0.697   9.74   0
       207    743.5817    103.9091 300.4127473 +22.6087694     327.0103      70.1329      1.436     5.17     -2.12897     19.80681     37.53395         7     1.299     0.581 -50.05   0
       208    297.4434    103.4847 300.2740356 +22.4749323     592.1746      70.1687      1.644     3.52    -2.527534     19.80681      52.0106        13     0.993     0.885  58.29   0
       209    781.1823     98.4338 300.4262381 +22.6184596     336.8544     70.18658      1.720     4.66    -2.279734     19.80681     30.92744         6     1.010     0.610 -71.24   0
       210    800.3136     94.6703 300.4334202 +22.6231086     1131.775     70.31168      1.738     4.62     -2.36946     19.80681     85.08054        20     1.254     1.140  30.12   0
       211    184.3295     90.3808 300.2431252 +22.4372496     535.1334     70.22235      2.311     5.64    -2.502604     19.80681     37.56979        10     1.078     1.021 -13.50   0
       212    975.0090     87.5376 300.4901904 +22.6733767     395.5943      70.1508      1.732     3.44     -2.40829     19.80681     38.51604         6     0.941     0.732 -65.85   0
       213    749.3116     87.2332 300.4199422 +22.6056929     510.5686      70.1687      2.004     4.53    -2.120314     19.80681     45.97616         9     0.941     0.874 -67.54   0
       214    601.8487     72.3975 300.3788295 +22.5572480     438.5804     70.20447      1.746     6.59    -1.954843     19.80681     33.91161         9     1.223     0.998  77.71   0
       215    764.1544     67.0172 300.4311242 +22.6043282      385.689     70.22235      1.713     4.61    -2.193592     19.80681     26.49043         7     0.895     0.675  34.35   0
       216    573.3364     65.5064 300.3721884 +22.5467241     1044.818     70.31168      1.876     4.92    -2.291005     19.80681     73.43376        21     1.268     1.188  44.93   0
       217    296.0742     63.4590 300.2865931 +22.4630284     363.0424     70.24023      1.333     4.35    -2.522291     19.80681     42.05531         8     0.918     0.653 -51.19   0
       218     10.6653     61.9733 300.1983897 +22.3770054     407.0294     70.18658      1.633     3.65     -2.86683     19.80681     54.34668         7     1.054     0.768  54.40   0
       219    530.3047     59.4073 300.3607722 +22.5320762     715.8684      70.0971      1.780     5.65    -2.635338     19.80681     54.93493        16     1.335     0.962   7.72   0
       220    636.0555     55.7064 300.3948941 +22.5627011     743.6287     70.25809      1.790     4.76    -1.878845     19.80681     54.28164        17     1.225     1.066  12.90   0
       221    456.3739     49.6434 300.3409325 +22.5071139     1288.824     70.22235      2.115     5.49     -2.62311     19.80681     76.55254        27     1.505     1.322  69.26   0
       222    103.5757     47.8701 300.2318217 +22.4008269     820.9359     70.20447      1.713     3.57    -2.726447     19.80681     67.81809        13     1.017     0.885 -13.66   0
       223    164.4153     29.3471 300.2567320 +22.4137555     697.2473     70.18658      1.854     5.40    -2.692313     19.80681     51.66977        14     1.216     0.925  81.69   0
       224     84.5007   1020.3337 299.9098748 +22.6739345     2150.528     68.88672      7.114    21.08   -0.2079061     19.80681     48.50088       105     4.274     2.889 -56.02  27
