#   1 NUMBER                 Running object number                                     
#   2 X_IMAGE                Object position along x                                    [pixel]
#   3 Y_IMAGE                Object position along y                                    [pixel]
#   4 ALPHA_J2000            Right ascension of barycenter (J2000)                      [deg]
#   5 DELTA_J2000            Declination of barycenter (J2000)                          [deg]
#   6 FLUX_APER              Flux vector within fixed circular aperture(s)              [count]
#   7 FLUXERR_APER           RMS error vector for aperture flux(es)                     [count]
#   8 FLUX_RADIUS            Fraction-of-light radii                                    [pixel]
#   9 FWHM_IMAGE             FWHM assuming a gaussian core                              [pixel]
#  10 BACKGROUND             Background at centroid position                            [count]
#  11 THRESHOLD              Detection threshold above background                       [count]
#  12 FLUX_MAX               Peak flux above background                                 [count]
#  13 ISOAREA_IMAGE          Isophotal area above Analysis threshold                    [pixel**2]
#  14 A_IMAGE                Profile RMS along major axis                               [pixel]
#  15 B_IMAGE                Profile RMS along minor axis                               [pixel]
#  16 THETA_IMAGE            Position angle (CCW/x)                                     [deg]
#  17 FLAGS                  Extraction flags                                          
         1    580.8812     11.7799 300.3951398 +22.5289472     905.4719     70.33536      2.100     5.28    -1.784352      19.8488     56.44648        17     1.404     1.010 -17.80   0
         2    370.4547      3.0504 300.3324934 +22.4633724     4231.159     63.39695      1.843     4.04    -2.449525      19.8488     318.9899        36     1.489     1.274   2.10  24
         3    791.1741   1014.3140 300.1347530 +22.8797911     6409.736     70.33536      1.283     2.36    -4.785456      19.8488      855.928        31     1.054     1.037  72.65   0
         4    106.6503   1022.6207 299.9191134 +22.6765666     668.1684     60.21486      4.625     5.99   -0.9190563      19.8488     34.46283         8     1.405     0.718  23.08  25
         5     94.0657   1023.7499 299.9148369 +22.6731074      466.312     54.33788      3.454     3.91    -1.028829      19.8488     36.50674         5     1.542     0.284 -12.45  25
         6    982.1589   1014.1612 300.1943268 +22.9370605       246.15     70.44282      1.241     4.85     -4.91179      19.8488     37.62605         8     0.956     0.696 -83.44   0
         7    837.0142   1014.5360 300.1489631 +22.8936131     349.7372     70.31743      1.503     4.37    -5.067364      19.8488     52.11713         8     1.110     0.627   9.20   0
         8    102.7956   1006.4241 299.9231912 +22.6707701      579.736     70.31743      1.577     3.10    -1.487616      19.8488     50.36634        10     0.934     0.705  79.77   0
         9    496.6005   1002.5596 300.0468701 +22.7879789     204.3891      70.3712      1.523     4.13    -4.921541      19.8488     30.33988         5     0.994     0.490 -89.07   0
        10    842.8998   1001.8364 300.1549338 +22.8917371     247.0888     70.33536      1.440     3.89    -4.934696      19.8488     35.09682         5     0.823     0.527 -48.49   0
        11    799.7925    996.3267 300.1432971 +22.8772193     802.9081      70.2995      1.427     3.25    -4.602947      19.8488     100.6026        15     1.148     0.852   0.98   0
        12    982.7755    995.2134 300.2006911 +22.9318092     224.0542     70.35328      0.963     2.90     -4.72263      19.8488     51.65607         6     0.830     0.659 -75.24   0
        13    837.8251    989.8265 300.1572644 +22.8867693     400.5072     70.31743      1.139     4.47    -4.743394      19.8488     51.99752         8     0.857     0.662 -37.14   0
        14    946.4175    986.7656 300.1921072 +22.9184770     255.6015     70.35328      0.966     3.42    -4.790531      19.8488     36.27663         5     0.767     0.442 -69.52   0
        15    886.1649    981.0521 300.1751867 +22.8987587     346.8406     70.37119      1.412     4.78    -4.759862      19.8488     36.33376         8     0.873     0.741 -75.75   0
        16    737.3793    980.4257 300.1290338 +22.8539258     386.4151     70.33536      1.204     2.49    -4.445185      19.8488     67.11517         6     0.808     0.480  83.75   0
        17    450.2586    976.7830 300.0408480 +22.7666734     2389.935      70.2995      1.442     2.73    -4.646568      19.8488     260.4865        26     1.152     1.084  52.71   0
        18    748.5607    976.9683 300.1336426 +22.8562905     233.0557     70.38911      1.464     3.21     -4.41453      19.8488     44.24217         5     0.737     0.614   6.18   0
        19    175.5940    962.7145 299.9600400 +22.6801296     315.7678     70.28156      1.356     5.85    -2.950883      19.8488     44.19103         9     1.127     0.856  59.44   0
        20    152.7431    959.8735 299.9538657 +22.6724493     979.9177     70.38911      1.388     3.10    -3.003405      19.8488     124.0444        15     1.071     0.859  51.77   0
        21     84.5499    960.9296 299.9323397 +22.6522582      314.426     70.35328      1.429     3.90    -3.235403      19.8488     37.44338         5     0.888     0.490  83.14   0
        22   1023.6970    948.3206 300.2287246 +22.9306299      821.899     54.66173      0.959     2.58    -4.216247      19.8488     189.4387         8     0.925     0.458 -87.32  24
        23    978.4371    946.7667 300.2151173 +22.9166069     1188.089     70.38911      1.258     2.52    -4.265361      19.8488     145.7129        16     0.962     0.909 -30.12   0
        24    683.5449    947.2276 300.1230797 +22.8282462     246.5414     70.35328      1.680     4.88     -4.34256      19.8488     27.10182         5     1.061     0.636 -22.96   0
        25    185.2812    941.7565 299.9698741 +22.6770372     228.0408     70.33536      1.593     4.42     -3.63185      19.8488      35.9634         5     1.036     0.536  39.03   0
        26    762.1378    940.7120 300.1496791 +22.8499673     388.5401     70.44282      1.432     4.18    -4.054879      19.8488     44.29464         7     0.901     0.561 -82.49   0
        27    630.0836    934.9363 300.1104365 +22.8086732     2746.192     70.44282      1.460     2.99     -4.25246      19.8488     257.3606        26     1.205     1.095 -31.09   0
        28    120.4414    936.0602 299.9515851 +22.6559219     108.2908     70.33536      1.036     3.19    -3.820621      19.8488     36.70065         6     0.788     0.496 -88.82   0
        29    432.4661    932.3233 300.0497912 +22.7485875     273.9031     70.44282      1.477     4.30    -4.152936      19.8488     38.07061         5     1.100     0.582  58.97   0
        30    180.4839    929.0696 299.9725143 +22.6719615     680.7636     70.46072      1.230     3.03    -4.029464      19.8488     92.42387        12     0.983     0.772 -46.57   0
        31    650.6639    927.3815 300.1193039 +22.8126850     392.8677     70.31743      1.405     5.79    -4.185694      19.8488     35.11743        11     1.235     0.846 -70.30   0
        32    200.1462    925.6816 299.9797269 +22.6768987     289.8357     70.38911      1.272     3.31    -4.056181      19.8488     47.05756         5     0.786     0.404 -20.13   0
        33    806.1615    914.4287 300.1719525 +22.8556399     2341.339     70.37119      1.426     2.81    -3.837664      19.8488     235.4046        24     1.161     1.052   5.47   0
        34   1022.9916    914.4108 300.2395471 +22.9206867     592.5905     58.36492      1.073     2.27    -3.945455      19.8488      97.2886        10     0.875     0.657 -62.88  24
        35    214.9596    909.4668 299.9896091 +22.6767040     333.2351     70.31743      1.461     2.68    -4.103914      19.8488     44.73388         6     0.774     0.498   3.42   0
        36    523.2066    906.9174 300.0862939 +22.7685528     317.7072     70.28156      1.374     5.22    -4.047886      19.8488     38.36171         8     1.038     0.742  75.11   0
        37    169.7920    905.3811 299.9769045 +22.6619631     648.4615     70.31743      1.554     2.96    -4.047637      19.8488     67.86773        12     0.961     0.808 -61.43   0
        38    319.3365    897.3615 300.0259933 +22.7045902     30571.53     70.33536      1.526     2.87    -4.149183      19.8488     3142.227        69     1.319     1.283  81.22   0
        39    577.1535    896.3094 300.1065367 +22.7817078     983.4606     70.33536      1.577     3.52    -3.981477      19.8488     92.33564        15     1.064     0.941 -83.25   0
        40    989.9361    894.9468 300.2355767 +22.9051858     394.6082     70.38911      1.186     2.45    -3.768044      19.8488     75.57036         8     0.801     0.635 -40.24   0
        41    247.5315    895.0294 300.0044319 +22.6823528     325.2358     70.33536      1.365     3.73    -4.157249      19.8488      30.2555         6     0.800     0.498  87.80   0
        42    606.2590    892.3245 300.1168939 +22.7893026     266.7283     70.40702      1.446     3.96    -3.937864      19.8488     40.61155         9     0.898     0.754  76.57   0
        43      5.5837    892.3589 299.9301435 +22.6088884     476.4896      70.3712      1.459     2.78    -4.431513      19.8488     80.08595         8     0.897     0.810   3.66  16
        44    617.2374    890.3385 300.1209580 +22.7920287     385.2147      70.3712      1.627     3.86    -3.908675      19.8488     41.71997         6     0.880     0.514 -42.56   0
        45    759.8016    876.7783 300.1697680 +22.8309278     403.1972     70.28156      1.535     3.21    -3.626957      19.8488     55.54031         8     0.913     0.621  -7.08   0
        46    368.9846    874.6118 300.0488366 +22.7129819      18138.7      70.2995      1.571     3.10    -4.045906      19.8488     1655.963        57     1.364     1.274  61.27   0
        47    383.4082    874.9310 300.0532181 +22.7174050     1153.493     70.33536      1.551     3.98    -4.025005      19.8488     104.4625        18     1.232     0.988  67.74   0
        48    891.9284    870.0125 300.2131406 +22.8686304     1542.759     70.37119      1.408     2.94     -3.64205      19.8488     169.3291        19     1.053     0.957 -52.38   0
        49    380.3785    868.7988 300.0542721 +22.7147375     380.9657     70.28156      1.632     3.53    -4.014667      19.8488     36.21338         5     0.809     0.444 -73.27   0
        50    649.7072    866.3525 300.1388754 +22.7948963     539.7419      70.3712      1.666     5.41    -3.636606      19.8488     45.47114        15     1.176     1.057   9.34   0
        51    251.3236    866.2450 300.0149805 +22.6752443     517.5913     70.33536      1.373     3.42    -4.192282      19.8488     64.43845        10     1.066     0.648 -44.90   0
        52     56.5029    862.4450 299.9556912 +22.6156234     310.6601      70.3712      1.324     3.20    -4.295163      19.8488     41.26257         6     0.897     0.413  69.27   0
        53    497.1104    861.2181 300.0930510 +22.7476159      498.468     70.28156      1.612     5.21    -3.975694      19.8488     46.54997        10     1.178     0.652   5.91   0
        54    898.2761    857.7749 300.2191030 +22.8670231     297.4104     70.37119      1.152     3.33    -3.584487      19.8488     47.84086         5     0.769     0.640 -57.42   0
        55     84.9588    856.3880 299.9665000 +22.6224391     343.2314     70.33536      1.509     4.24    -4.220217      19.8488     35.75042         6     1.003     0.511 -77.94   0
        56    651.7957    854.9728 300.1432301 +22.7922595     156.5562     70.31743      0.961     3.73    -3.572665      19.8488     32.50215         5     0.817     0.490  37.03   0
        57    820.4152    842.9727 300.1996568 +22.8394170     1071.009     70.37119      0.583     0.74    -3.585747      19.8488     635.1374         5     0.493     0.295   2.29   0
        58    542.3763    839.4199 300.1142321 +22.7549553     536.2968     70.35328      1.829     6.73    -3.657873      19.8488     36.40411        13     1.370     0.927   6.67   0
        59    958.1965    835.2548 300.2451131 +22.8785342     2668.429      70.2995      1.424     2.78    -3.487921      19.8488     257.2672        25     1.153     1.050  81.47   0
        60    564.0460    836.6815 300.1218676 +22.7606750     681.2737     70.33536      1.595     4.55    -3.609564      19.8488     61.53892        14     1.206     0.831   1.86   0
        61    946.6716    826.5400 300.2443567 +22.8725763     925.3272     70.38911      1.411     3.09    -3.487921      19.8488     95.20242        15     1.022     0.904  81.46   0
        62    309.9758    821.1310 300.0478961 +22.6799320      460.905     70.35328      1.550     5.12    -3.868006      19.8488     40.17306        10     0.936     0.793  77.93   0
        63    772.9691    818.0575 300.1929843 +22.8180331     1395.033     70.37119      1.608     3.68    -3.530308      19.8488      113.979        22     1.256     1.065  17.89   0
        64    977.7522    816.6993 300.2572502 +22.8790737      931.957     70.38911      1.436     2.89    -3.487921      19.8488     98.43501        14     0.980     0.871  14.89   0
        65    159.0129    804.5612 300.0063706 +22.6298401      349.423     70.35328      1.488     3.93    -3.792403      19.8488      40.2912         7     0.886     0.667 -65.05   0
        66    891.5076    795.0132 300.2374218 +22.8469819     85293.25     70.28156      1.530     3.09    -3.554052      19.8488     7490.049       103     1.371     1.349  63.87   0
        67    744.4053    795.8322 300.1913199 +22.8030863     433.2339     70.33536      1.564     4.31    -3.497633      19.8488     38.50356         7     0.908     0.582  -8.28   0
        68    924.0079    788.0081 300.2498323 +22.8547195     241.4529     70.20977      1.352     3.89    -3.537002      19.8488     32.96752         6     0.870     0.693  50.07   0
        69    578.0355    784.1994 300.1433021 +22.7498232     933.9252     70.31743      1.704     4.75    -3.238453      19.8488     66.25909        19     1.250     1.070  67.05   0
        70    758.9929    781.2614 300.2006057 +22.8032826      5360.87     70.33536      1.611     3.29    -3.546511      19.8488     391.2321        36     1.288     1.217  -2.95   0
        71    260.7262    776.7248 300.0470368 +22.6524139     2731.621     70.42492      1.634     3.41     -3.70471      19.8488     240.0484        29     1.233     1.197  23.11   0
        72    343.0800    774.7565 300.0732798 +22.6765805     566.8056     70.33536      1.489     3.86    -3.679547      19.8488     69.43707        11     1.130     0.642  74.51   0
        73    218.8147    772.3940 300.0354198 +22.6385852     265.3777     70.24567      1.442     4.09    -3.707667      19.8488       34.471         6     1.053     0.454  57.69   0
        74    551.4470    769.8513 300.1396956 +22.7377278      436.116     70.38911      1.534     5.54    -3.145449      19.8488     39.22865        10     1.133     0.763 -83.80   0
        75    542.4551    762.3544 300.1393365 +22.7328789     1948.155     70.38911      1.808     4.15    -3.099006      19.8488     137.9068        32     1.380     1.307  39.11   0
        76    532.8522    756.1085 300.1383803 +22.7282053     854.5168     70.40702      1.674     3.58    -3.081433      19.8488      91.5742        19     1.187     1.056  40.95   0
        77    979.8365    746.7521 300.2806634 +22.8596200     378.9799     70.38911      1.439     3.89    -3.598787      19.8488     31.56073         6     0.781     0.557  37.63   0
        78    457.6647    745.5422 300.1184235 +22.7026063      1035.87     70.38911      1.821     4.16     -3.22485      19.8488     79.40146        19     1.280     1.023  82.16   0
        79    111.7273    740.9527 300.0123773 +22.5974098     11370.32     70.35328      1.601     3.12    -3.512779      19.8488      1158.89        49     1.374     1.255  73.98   0
        80    542.8147    741.0790 300.1463708 +22.7268849     563.3418     70.37119      1.656     4.61    -2.970553      19.8488     56.93985        11     1.098     0.870  70.83   0
        81     33.2104    742.4467 299.9875060 +22.5742504     388.1554     70.37119      1.596     3.52    -3.866995      19.8488     35.22194         5     0.799     0.448  18.96   0
        82    960.3602    727.1782 300.2809596 +22.8481604     598.2008     70.38911      1.562     3.68     -3.64318      19.8488     57.05693        13     0.997     0.895 -26.65   0
        83     57.6429    725.1123 300.0007322 +22.5766241     958.5786     70.35328      1.815     5.28    -3.651904      19.8488     74.32938        20     1.542     0.891 -82.58   0
        84    826.4144    724.7953 300.2399846 +22.8073048     366.8094     70.22773      1.853     4.69     -3.67465      19.8488     34.47208         6     0.948     0.659  57.29   0
        85    900.6016    719.9950 300.2646672 +22.8281776     555.4753     70.17385      2.036     5.71    -3.697867      19.8488     34.52835        10     1.111     0.827 -27.82   0
        86    462.5438    714.4774 300.1300479 +22.6951625     436.8759     70.38911      1.826     5.33    -3.080937      19.8488     29.83175         7     1.050     0.763 -44.50   0
        87    507.0927    711.0000 300.1450400 +22.7075366     506.8918     70.22773      1.931     4.03    -2.952228      19.8488      35.0437         5     1.093     0.425   0.95   2
        88    940.3366    705.0225 300.2819250 +22.8357955     1918.554     70.33536      1.592     3.50     -3.64102      19.8488     142.2366        25     1.246     1.127  48.06   0
        89    472.2783    705.0773 300.1361344 +22.6953886     1053.693     70.46072      1.977     5.02    -3.019926      19.8488     74.20648        22     1.306     1.240 -77.19   0
        90     34.4191    699.1767 300.0019567 +22.5622164     2858.295     70.35328      1.602     2.93     -3.80092      19.8488     308.6436        29     1.311     1.087 -89.44   0
        91    335.8268    692.1110 300.0979117 +22.6507092     5159.255     70.31743      1.763     3.84    -3.593846      19.8488     398.2781        38     1.429     1.292 -77.44   0
        92    458.2157    689.1262 300.1369480 +22.6865931     4988.927     70.35328      1.824     3.81    -3.048537      19.8488     374.0791        38     1.427     1.321  54.95   0
        93    869.5610    682.6482 300.2671420 +22.8081481     1103.136     70.38911      1.760     4.22    -3.719674      19.8488     78.50824        19     1.185     1.097  88.56   0
        94    954.2625    680.0616 300.2943868 +22.8328050     7074.826     70.38911      1.587     3.24    -3.605278      19.8488     535.9874        41     1.289     1.242 -74.47   0
        95    518.7269    678.6463 300.1591847 +22.7017485     6641.467     70.35328      1.833     3.99    -2.896498      19.8488     427.3199        43     1.440     1.390 -61.40   0
        96    246.6942    674.2995 300.0759958 +22.6188410     695.2583     70.53225      1.556     3.54    -3.600106      19.8488     79.63177        12     1.171     0.721  74.03   0
        97    792.6199    666.7806 300.2483276 +22.7805178     460.9435     70.35328      1.689     5.93    -3.597345      19.8488     33.79919        10     1.457     0.680 -72.05   0
        98    450.3909    666.8134 300.1417713 +22.6778452     2494.805     70.24567      1.879     4.22    -3.032672      19.8488     159.8251        32     1.444     1.258  50.13   0
        99    428.5278    665.3809 300.1354360 +22.6708723      791.236     70.35328      1.950     6.63    -3.091556      19.8488     48.97629        18     1.430     1.002  24.57   0
       100    183.3264    664.5663 300.0594683 +22.5970227     359.0135     70.33536      1.441     4.91    -3.449279      19.8488     46.47791         9     1.070     0.637 -89.51   0
       101    870.3437    661.9818 300.2741084 +22.8024504     974.4763     70.33536      1.802     4.47    -3.618075      19.8488     77.19131        24     1.354     1.233 -66.36   0
       102    750.4175    659.6289 300.2375063 +22.7658068     300.9363     70.35328      1.818     5.46    -3.547494      19.8488     34.45052         7     1.360     0.618 -60.30   0
       103    566.9266    654.3707 300.1820812 +22.7092489     116892.8     70.37119      1.897     4.12    -2.846069      19.8488     7551.213       151     1.646     1.637 -85.37   0
       104    253.1724    654.5997 300.0844163 +22.6151387      2035.33     70.31743      1.820     3.88    -3.544938      19.8488     163.4044        28     1.325     1.249  79.50   0
       105    457.6691    634.7863 300.1544517 +22.6708438     1413.554     70.37119      1.943     4.48    -3.003874      19.8488     89.01575        27     1.365     1.312  72.98   0
       106    854.5102    620.5959 300.2826340 +22.7858214     969.1164     70.26363      1.798     5.23    -3.244315      19.8488     60.35387        20     1.242     1.178  19.37   0
       107    725.6901    618.3486 300.2432295 +22.7465423     1352.204      70.3712      1.807     4.66    -3.194426      19.8488     98.11117        21     1.235     1.171  19.51   0
       108    513.0121    613.8689 300.1784735 +22.6814517     486.9902     70.37119      1.954     5.49    -2.897563      19.8488     29.26563         7     1.085     0.783  24.97   0
       109    982.9206    612.1823 300.3254002 +22.8219063     708.4908     70.35328      1.508     4.29    -3.244587      19.8488     56.88849        15     1.231     0.894 -57.15   0
       110    968.4438    610.8563 300.3213174 +22.8171855     467.3621     70.35328      2.045     5.15    -3.238787      19.8488     34.03922         9     1.160     0.647  59.29   0
       111    608.3842    608.4714 300.2099132 +22.7085187     397.5296     70.35328      2.069     5.26    -2.800628      19.8488     37.38748         6     1.614     0.484  88.32   0
       112    892.7642    605.6676 300.2994115 +22.7930059     2536.172     70.35328      1.747     3.79    -3.158868      19.8488     156.0312        31     1.320     1.266  75.21   0
       113    125.4571    596.6318 300.0635796 +22.5601721     512.2466      70.3712      1.689     4.35    -3.021883      19.8488     54.59571        11     1.154     0.983  47.10   0
       114    854.7007    610.9874 300.2858181 +22.7831200     1323.246     70.26363      2.018     5.21    -3.153845      19.8488     74.40521        22     1.359     1.144 -86.49   0
       115    666.7082    576.3237 300.2385258 +22.7167895     357.3418     70.49649      1.637     5.38    -2.629906      19.8488      33.8337         6     1.045     0.782  39.78   0
       116    980.7747    568.5867 300.3389073 +22.8087430     249.3569     70.35328      1.264     4.21    -3.190992      19.8488     41.70145         6     0.929     0.544 -38.91   0
       117    727.1950    568.9875 300.2597488 +22.7328259     498.2664     70.22773      1.819     5.04    -2.813604      19.8488     32.82417         9     1.327     0.542 -17.75   0
       118    884.4342    564.2808 300.3102725 +22.7786250     593.2552      70.2995      1.859     7.25    -2.989063      19.8488     39.89342        14     1.243     1.185 -71.95   0
       119    868.2324    561.4222 300.3061521 +22.7729466     443.0998     70.35328      1.943     5.14    -2.971619      19.8488     29.80541         5     1.079     0.692  82.23   0
       120    612.8796    559.2042 300.2273317 +22.6957297     1825.763     70.26363      1.936     4.77    -2.510093      19.8488     131.6217        30     1.457     1.342 -76.99   0
       121   1023.6063    537.9669 300.3622197 +22.8127864     488.0195     55.05242      1.459     4.27    -3.277107      19.8488     59.03151         8     1.152     0.451 -79.81  24
       122    897.1967    537.6363 300.3229131 +22.7748001     246.0433     70.37119      1.475     4.64    -2.873324      19.8488     25.47773         5     0.840     0.726  63.82   0
       123    982.3467    536.6213 300.3497902 +22.8000334     632.6589     70.35328      1.682     4.23    -3.086054      19.8488     62.65578        12     1.097     0.915  26.25   0
       124    723.5954    533.2607 300.2702427 +22.7214910     509.5354     70.33536      1.731     5.44    -2.576879      19.8488     45.66425        12     1.238     0.864  61.30   0
       125    228.6232    532.1392 300.1166023 +22.5726567     452.5612     70.35328      2.340     4.45    -2.923342      19.8488     39.76414         6     1.324     0.444 -49.51   0
       126    289.9238    527.3707 300.1372072 +22.5896899     2080.748     70.33536      1.973     4.39    -2.992082      19.8488      162.889        30     1.402     1.338  82.86   0
       127   1022.5400    525.3220 300.3659980 +22.8088346     2328.244     60.71526      1.542     3.55    -3.088706      19.8488     182.5102        23     1.183     1.067 -79.89  24
       128    237.2305    522.2376 300.1224960 +22.5724012      4352.38     70.37119      1.925     3.80    -2.848565      19.8488     355.4506        41     1.476     1.366  76.04   0
       129    377.8748    516.2253 300.1681779 +22.6128890      2630.56     70.35328      2.094     4.93    -2.647761      19.8488     162.7051        34     1.483     1.428 -45.34   0
       130   1002.5394    516.2751 300.3627014 +22.8002415      1035.84     70.40702      1.713     4.56    -2.909381      19.8488     85.86021        18     1.236     1.065  26.13   0
       131    621.9166    512.8121 300.2452264 +22.6851262     10470.89     70.31743      2.035     4.62    -2.436368      19.8488     622.4954        59     1.659     1.517  44.97   0
       132    955.4232    495.2579 300.3548413 +22.7800830     350.7426     70.35328      1.597     3.38     -2.59744      19.8488     41.53139         7     0.828     0.666 -16.54   0
       133    177.0852    493.5131 300.1131403 +22.5461095     1095.264     70.47861      1.870     4.11     -2.63707      19.8488     89.13091        20     1.282     1.061 -40.05   0
       134    562.5815    482.2465 300.2366901 +22.6585562     3898.345     70.38911      2.043     4.78    -2.451166      19.8488     238.2749        38     1.504     1.440  80.83   0
       135    976.0465    483.2578 300.3651723 +22.7828172     655.9824     70.40702      2.197     4.81    -2.491412      19.8488     44.00389         7     1.248     0.526 -24.83   2
       136    277.6302    482.0622 300.1481114 +22.5730054     295.2367     70.37119      1.728     5.04    -2.473654      19.8488      31.1135         7     1.214     0.591  33.29   0
       137    766.5034    472.4361 300.3033794 +22.7168950     537.3923     70.35328      1.958     4.56    -2.450446      19.8488     38.02729         6     0.962     0.614  27.57   2
       138    469.2467    468.6269 300.2120709 +22.6266490     3434.658     70.38911      2.047     4.82    -2.316594      19.8488     197.0499        39     1.571     1.426  79.41   0
       139    860.8251    462.4846 300.3360043 +22.7423147     721.7623     70.31743      1.896     6.42    -2.522306      19.8488     47.33519        20     1.278     1.211  39.84   0
       140    356.8222    448.0758 300.1837788 +22.5870215     1284.313     70.33536      1.996     4.66    -2.198891      19.8488     81.26038        26     1.490     1.190 -23.47   0
       141     75.7149    446.0948 300.0970570 +22.5020810     618.7669     70.53225      1.954     4.72    -2.804869      19.8488     57.79567        10     1.159     0.736   9.22   0
       142    326.1692    437.5319 300.1776730 +22.5747987     16554.22     70.33536      2.004     4.20    -2.252685      19.8488     1246.984        66     1.636     1.535 -90.00   0
       143    860.6235    434.5471 300.3450205 +22.7342305      667.123      70.3712      1.872     5.77    -2.504704      19.8488     49.83716        16     1.288     1.058  16.83   0
       144     22.6794    425.5212 300.0872707 +22.4802595      2788.73     70.47861      1.743     3.55    -2.718508      19.8488     259.2247        30     1.373     1.187  85.15   0
       145    736.3288    417.0717 300.3119709 +22.6919509     965.0237     70.40702      1.868     5.44    -2.426494      19.8488     55.82071        20     1.316     1.071  65.31   0
       146    399.2717    401.6630 300.2120613 +22.5864412     771.8275     70.38911      1.813     6.38    -1.984339      19.8488     57.98898        16     1.611     0.711  76.38   3
       147    396.7590    401.7918 300.2112379 +22.5857244     691.6947     70.37119      1.767     5.80    -1.983635      19.8488     41.13311        11     1.433     0.660  68.18   3
       148    837.8867    395.2575 300.3507008 +22.7161307     287.7533     70.44282      1.672     4.28    -2.408541      19.8488     32.29042         5     1.041     0.502 -34.09   0
       149    474.4445    380.9612 300.2421726 +22.6030504     674.5092     70.42492      2.084     6.72     -1.95564      19.8488     47.46531        13     1.502     1.204  44.22   0
       150    718.7895    372.8524 300.3208742 +22.6739948     1117.673     70.35328      2.021     5.42    -2.239706      19.8488     64.18758        21     1.418     1.200 -73.36   0
       151    980.1110    366.8431 300.4042684 +22.7505902     1775.735     70.35328      1.817     4.18    -2.421602      19.8488      130.227        25     1.349     1.187  -6.71   0
       152    427.7468    357.6076 300.2352305 +22.5823408     328.3488     70.35328      1.267     3.51     -1.96475      19.8488     42.17856         5     1.048     0.339 -20.74   0
       153    102.3645    351.4595 300.1360783 +22.4829442      859.103      70.3712      2.051     4.55    -2.562745      19.8488     73.17855        15     1.206     1.036 -43.99   0
       154    888.5545    323.1654 300.3899120 +22.7106064     1115.019     70.38911      1.856     4.91    -2.364866      19.8488     78.01347        24     1.385     1.235  78.45   0
       155    307.8597    321.0001 300.2098354 +22.5358714     1182.076      70.2995      2.031     4.35     -1.80535      19.8488     93.35879        19     1.385     0.961 -85.35   2
       156    385.7428    316.3337 300.2355706 +22.5578961     574.4609     70.38911      2.033     5.66    -1.789332      19.8488     40.30821         9     1.256     0.718 -32.95   0
       157    202.8113    308.5499 300.1812242 +22.5007809     365.7673     70.38911      1.963     4.05    -2.028366      19.8488     32.33015         5     0.875     0.552 -50.37   0
       158    739.8082    304.8017 300.3495255 +22.6607519     920.7698     70.17385      1.971     6.71    -1.911444      19.8488     49.76318        21     1.394     1.179 -17.57   0
       159   1010.9094    297.1569 300.4365086 +22.7397922     522.6846     70.35328      1.877     5.06    -2.228036      19.8488     40.36792         8     0.976     0.742  13.53   0
       160    744.3145    296.3264 300.3536818 +22.6596683     349.5103     70.47861      1.967     6.41    -1.847712      19.8488      30.9962         7     1.299     0.888 -37.17   0
       161    665.2857    295.4834 300.3293411 +22.6357368     668.1431     70.46072      2.152     4.77    -1.787553      19.8488     44.72174        10     1.212     0.743 -70.36   2
       162    859.9026    286.6861 300.3928291 +22.6915399     841.2387     70.51437      2.099     5.95    -2.277601      19.8488     54.76501        20     1.439     1.273  80.55   0
       163    590.1833    288.0198 300.3083811 +22.6110779     480.8895     70.33536      1.798     3.63    -1.858878      19.8488     43.79103         5     0.996     0.400  29.12   0
       164    871.8983    286.5382 300.3966160 +22.6950920     458.5164     70.44282      1.575     4.20    -2.295319      19.8488     30.07038         6     1.016     0.495   3.84   0
       165    988.0977    276.4286 300.4361263 +22.7270013     614.3339      70.2995      1.784     5.17    -2.157577      19.8488     41.82032        15     1.179     1.025  61.05   0
       166    223.0327    270.2374 300.1999498 +22.4958565     374.5801     70.38911      1.604     4.58     -1.86984      19.8488     39.43475         7     1.196     0.498  83.05   0
       167     84.8567    264.4904 300.1588822 +22.4527459     1288.622     70.40702      1.927     5.98       -1.987      19.8488      87.1832        24     1.469     1.189 -61.12   0
       168    906.7035    261.2737 300.4156695 +22.6982613     426.9684     70.47861      1.778     6.08    -2.225057      19.8488     40.88897         8     1.046     0.992  65.46   0
       169    241.9750    257.8904 300.2098464 +22.4979968     3238.003      70.2995      2.015     4.33    -1.844446      19.8488     229.6116        38     1.496     1.443 -13.17   0
       170     26.2261    252.3048 300.1446287 +22.4316547      651.603      70.2995      1.670     3.86    -1.948987      19.8488     73.03699        14     1.206     0.888  49.48   0
       171    225.4234    248.9356 300.2076092 +22.4904617     474.5326     70.33536      2.306     6.67    -1.866527      19.8488     38.70701         7     1.268     0.984 -59.63   0
       172    885.7254    238.8398 300.4164146 +22.6855296     1950.933     70.33536      1.977     4.77    -2.218468      19.8488      118.117        29     1.400     1.371  -4.96   0
       173    989.2855    237.5202 300.4491309 +22.7161745     1556.081     70.51437      1.849     4.38    -2.007536      19.8488     118.6225        24     1.313     1.195  -5.53   0
       174    435.1509    234.9377 300.2773702 +22.5493513     465.8447     70.40702      1.639     3.76    -1.403741      19.8488      27.3558         5     1.243     0.327  26.52   0
       175    360.3168    226.1151 300.2569574 +22.5243760     421.0361     70.49649      1.637     3.46    -1.540062      19.8488     27.59208         5     1.696     0.204 -54.73   0
       176    487.1473    221.7821 300.2978192 +22.5611660     879.9792     70.33536      2.166     5.57    -1.399663      19.8488     71.21465        18     1.570     1.108 -65.96   0
       177    125.6099    223.1587 300.1849607 +22.4531187     292.2569     70.35328      1.442     3.46    -1.988091      19.8488     31.66086         5     1.302     0.266  34.57   0
       178    260.8925    201.7247 300.2339608 +22.4875544     3359.133     70.51437      2.018     4.44    -1.688028      19.8488     245.2853        38     1.591     1.370 -88.63   0
       179    112.3669    201.9831 300.1877203 +22.4430700     538.6172     70.33536      1.924     4.41     -1.99162      19.8488     33.16563         6     1.216     0.456 -82.04   0
       180    506.7582    186.9453 300.3152306 +22.5570430     3532.505     70.35328      2.130     4.97     -1.63708      19.8488     214.8314        40     1.654     1.426  89.44   0
       181    635.1222    166.9640 300.3616744 +22.5897831     3572.042     70.31743      2.125     4.78    -2.154292      19.8488     217.1471        41     1.557     1.522 -46.83   0
       182    410.0495    165.8911 300.2919750 +22.5220017     779.0681     70.35328      2.160     6.36    -1.346075      19.8488     52.03101        17     1.709     1.179  79.91   0
       183    676.0231    164.4684 300.3752211 +22.6013244     549.2917     70.37119      1.907     6.21    -2.175407      19.8488     44.08885        11     1.347     0.894  49.63   0
       184    679.2244    151.7245 300.3803543 +22.5986227     1597.966     70.37119      2.127     5.22    -2.191239      19.8488     101.2327        31     1.617     1.413  72.91   0
       185    694.7119    150.2591 300.3856534 +22.6028429     503.5439     70.42492      2.065     5.20    -2.172422      19.8488     39.13472         7     1.581     0.483 -51.21   0
       186    765.7533    143.1856 300.4100789 +22.6220979     832.5804     70.37119      1.991     7.51    -2.168698      19.8488     46.60925        23     1.416     1.284 -74.71   0
       187    963.9564    139.1453 300.4731673 +22.6803106     1016.536     70.35328      0.465    -0.41    -1.990736      19.8488     801.6787         6     0.388     0.351 -11.71   0
       188    509.4045    136.1348 300.3325455 +22.5432452     640.6528     70.35328      2.172     7.38    -1.916689      19.8488     40.07796        12     1.346     1.135  46.90   0
       189    412.7857    135.3745 300.3027302 +22.5140604     314.4568     70.37119      1.472     4.46     -1.69054      19.8488     31.35648         7     0.983     0.574 -58.42   0
       190    184.7083    124.2345 300.2354310 +22.4424636     2178.755     70.31743      1.980     4.17    -1.983368      19.8488     170.5077        37     1.535     1.391 -87.77   0
       191    753.5917    124.8372 300.4122448 +22.6131818     308.0217     70.37119      1.409     5.41     -2.17371      19.8488     29.81376         6     1.289     0.641 -51.11   0
       192    745.7984    116.6304 300.4124802 +22.6084886     490.0351     70.31743      2.215     5.79    -2.174938      19.8488     31.35245         7     1.171     0.807 -22.68   0
       193    300.7919    116.5700 300.2740023 +22.4750796     644.9623     70.35328      1.962     3.84     -1.81286      19.8488     65.05651        11     1.157     0.895 -70.93   0
       194    784.5397    109.3377 300.4269167 +22.6180000      350.655     70.38911      2.133     5.65     -2.21876      19.8488     28.42887         5     1.312     0.686  44.23   0
       195    803.4980    107.5848 300.4333928 +22.6231759     1198.799     70.26363      2.068     6.42    -2.232405      19.8488     66.97586        26     1.511     1.373 -41.28   0
       196    187.6685    103.4591 300.2430922 +22.4373890     597.9005      70.3712      1.984     3.98    -2.056583      19.8488     41.22797        10     1.073     0.647 -38.07   0
       197    977.5500    101.0751 300.4897611 +22.6734371     448.2207     70.35328      1.559     4.00    -1.988123      19.8488     37.66415         5     1.032     0.443  29.61   0
       198    752.1069    100.8186 300.4195765 +22.6058351      606.398     70.28156      1.843     4.98    -2.199016      19.8488     34.69974         9     1.131     0.622  -1.87   0
       199    605.0452     85.7927 300.3786517 +22.5574517     487.3893     70.37119      2.227     5.62    -2.090798      19.8488     27.33279         8     1.535     0.580 -31.51   0
       200    767.9564     79.8402 300.4313214 +22.6045549     346.6411     70.44282      1.719     4.85    -2.129187      19.8488     33.30052         6     1.071     0.669 -61.50   0
       201    576.0841     78.4571 300.3720157 +22.5466651     1032.831     70.44282      2.102     6.77     -2.12028      19.8488     66.28832        21     1.699     1.001   8.42   0
       202    299.1690     76.2924 300.2865664 +22.4630302     425.0929      70.2995      1.732     4.72    -2.191739      19.8488      33.4189         5     1.243     0.509 -50.76   0
       203     14.6843     75.1429 300.1985406 +22.3773710     380.1804     70.44282      1.742     5.27    -2.341507      19.8488      36.8301         7     1.410     0.565 -73.51   0
       204    533.2767     72.5438 300.3606096 +22.5321367     684.2245     70.38911      1.977     6.74    -2.245386      19.8488     46.16251        15     1.572     0.811  20.43   0
       205    639.2484     68.7518 300.3948303 +22.5628056     717.5774     70.38911      1.930     5.07    -1.891281      19.8488     58.04784        14     1.268     1.072  62.09   0
       206    459.6825     62.9197 300.3408300 +22.5073136     1274.126     70.49649      2.126     4.86    -2.285517      19.8488     90.87009        23     1.367     1.284  10.32   0
       207    106.6516     60.4823 300.2318620 +22.4007539      843.892      70.3712      1.866     5.09    -1.729228      19.8488     61.93803        19     1.452     1.056  87.24   0
       208    167.6333     42.2546 300.2567225 +22.4138133     755.6683      70.3712      1.916     4.53    -1.662506      19.8488     67.49284        16     1.321     1.020  59.52   0
       209    743.1154     21.8027 300.4424112 +22.5804337     636.7419     70.28156      1.847     6.70    -1.528392      19.8488     53.30674        16     1.432     1.087  25.17   0
       210    647.0980     21.7341 300.4125277 +22.5516482     1411.853     70.44282      1.959     4.94    -1.369727      19.8488     94.21973        26     1.470     1.253 -16.40   0
       211    768.8751   1020.7752 300.1257017 +22.8749507     664.0168     67.74229      1.325     2.92    -4.852276      19.8488     89.13643        13     1.030     0.818 -87.10  16
