#   1 NUMBER                 Running object number                                     
#   2 X_IMAGE                Object position along x                                    [pixel]
#   3 Y_IMAGE                Object position along y                                    [pixel]
#   4 ALPHA_J2000            Right ascension of barycenter (J2000)                      [deg]
#   5 DELTA_J2000            Declination of barycenter (J2000)                          [deg]
#   6 FLUX_APER              Flux vector within fixed circular aperture(s)              [count]
#   7 FLUXERR_APER           RMS error vector for aperture flux(es)                     [count]
#   8 FLUX_RADIUS            Fraction-of-light radii                                    [pixel]
#   9 FWHM_IMAGE             FWHM assuming a gaussian core                              [pixel]
#  10 BACKGROUND             Background at centroid position                            [count]
#  11 THRESHOLD              Detection threshold above background                       [count]
#  12 FLUX_MAX               Peak flux above background                                 [count]
#  13 ISOAREA_IMAGE          Isophotal area above Analysis threshold                    [pixel**2]
#  14 A_IMAGE                Profile RMS along major axis                               [pixel]
#  15 B_IMAGE                Profile RMS along minor axis                               [pixel]
#  16 THETA_IMAGE            Position angle (CCW/x)                                     [deg]
#  17 FLAGS                  Extraction flags                                          
         1    644.6307      1.4960 300.4122077 +22.5518229     885.1664     55.46696      1.208     3.27    -2.237063     19.79348     124.2982        12     1.134     0.642  -5.00  24
         2    741.0665      1.3127 300.4423036 +22.5806563     283.3103     54.57834      1.119     2.69    -2.604782     19.79348     63.29078         6     0.897     0.437 -11.39  24
         3    112.0008   1021.6949 299.9150272 +22.6847326     724.5554     64.10642      4.350     4.89     2.832713     19.79348      29.5982         5     0.910     0.745  -2.73  17
         4    104.0076   1022.4658 299.9122935 +22.6825512     1026.674     60.77339     12.946    18.75     2.856189     19.79348     41.93094        41     4.702     2.078  28.25  27
         5     83.8705   1012.5200 299.9092777 +22.6736507     1544.967     70.26434      5.917    11.90    0.6313537     19.79348     44.64565        42     2.972     1.326  34.25  19
         6     91.8517   1008.5493 299.9130495 +22.6749121     1927.424     70.19293      9.764    29.83     1.214232     19.79348      56.0809       152     5.758     4.291  14.39  19
         7     91.7563   1022.6469 299.9084293 +22.6789212     962.7634     59.96346      4.335     9.14     2.331807     19.79348     46.99078        22     2.701     0.864  18.30  27
         8     92.0434   1020.0314 299.9093702 +22.6782584     1212.914     69.47482      3.775     8.75     2.092326     19.79348     49.49745        23     1.757     1.218  49.45  19
         9    942.8953   1016.5236 300.1752709 +22.9327466     1395.036     70.30001      1.014     1.65    -5.917106     19.79348     275.8066        16     0.960     0.792 -75.78   0
        10    133.0139   1015.1570 299.9236834 +22.6891747     625.2742     70.17506      3.820     4.36     2.190446     19.79348     27.42687         5     1.086     0.499  37.79   0
        11    731.7080   1005.5014 300.1130530 +22.8662111     430.6686     70.33567      1.586     5.12    -5.757446     19.79348     62.60194         8     1.276     0.579  70.63   0
        12    109.0889   1005.3175 299.9194556 +22.6791666     779.3959     70.26434      6.466     7.26     1.390099     19.79348     31.74215        10     1.277     1.156  84.28   0
        13    766.3535    999.6647 300.1257453 +22.8749352     642.4995     70.19293      1.195     2.38    -5.739246     19.79348     82.62653        10     0.832     0.718  40.32   0
        14    543.9327   1000.4182 300.0562473 +22.8083835     160.7003     70.13933      1.090     3.51    -5.772288     19.79348     45.72353         5     0.807     0.440 -19.26   0
        15    788.6597    993.3754 300.1347424 +22.8798253     6578.118      70.1572      1.098     1.87     -5.71215     19.79348     1160.167        33     1.007     0.960  76.25   0
        16    834.3455    993.1222 300.1490594 +22.8934624     205.3758     70.19293      0.927     1.65    -5.764774     19.79348     78.04672         5     0.674     0.424  65.82   0
        17     84.2688   1019.8351 299.9070194 +22.6758656     2008.123     69.78092      9.094    20.68     1.114373     19.79348     43.01371        88     4.290     2.769  -5.98  27
        18    840.4463    980.9014 300.1549400 +22.8917868     247.0165     70.19293      1.230     3.50    -5.697855     19.79348     56.08589         7     1.094     0.428 -75.47   0
        19    797.2786    975.3843 300.1432862 +22.8772506     901.1445     70.17506      1.153     2.03    -5.618305     19.79348     149.9152        11     0.802     0.719 -29.22   0
        20    980.3324    974.2782 300.2007005 +22.9318543     265.0014     70.26434      1.101     2.55     -5.44012     19.79348     45.24499         5     0.714     0.451  75.69   0
        21    835.3185    968.7933 300.1572848 +22.8867743     451.2404     70.08569      1.275     3.02    -5.617723     19.79348     69.54246         8     0.901     0.697  64.10   0
        22    943.9548    966.0494 300.1920382 +22.9185802     159.4367     70.19293      1.071     3.83    -5.427353     19.79348     42.27175         5     0.815     0.516  66.71   0
        23    883.7507    960.1132 300.1752046 +22.8988152     371.1321      70.1572      1.203     2.07    -5.526569     19.79348     65.93649         6     0.731     0.505 -49.87   0
        24    735.0198    959.1807 300.1291677 +22.8539185     382.1998      70.1572      1.236     2.66     -5.51951     19.79348     67.01118         6     0.790     0.582 -89.28   0
        25    746.0796    956.3374 300.1335384 +22.8564220     575.2347     70.24649      1.374     3.72    -5.507151     19.79348     60.68804        10     0.927     0.814  50.88   0
        26    447.9762    955.7724 300.0409281 +22.7667711     2489.752     70.13933      1.275     2.20    -5.376736     19.79348     362.3633        24     1.074     0.960  86.91   0
        27    173.1448    941.7314 299.9600568 +22.6801982     446.4186     70.19293      1.228     3.27    -3.808871     19.79348     70.02119         9     1.012     0.630 -74.57   0
        28     81.1566    940.1348 299.9320014 +22.6521015     234.4382     70.13933      1.099     3.80    -4.447865     19.79348     36.06162         5     0.919     0.451  44.31   0
        29    150.3025    938.6422 299.9539656 +22.6724502      866.675      70.1572      1.114     2.27    -4.020782     19.79348      140.715        11     0.840     0.709  58.13   0
        30   1021.6556    927.2615 300.2288952 +22.9307538     1132.977     64.39911      1.060     1.81    -4.985206     19.79348     232.9187        13     0.797     0.761 -61.29  16
        31     25.0528    928.2679 299.9184419 +22.6318428      203.295     70.17506      1.283     3.79    -5.114004     19.79348     41.40212         5     0.831     0.495  61.09   0
        32    975.9720    925.6931 300.2151602 +22.9166018     1131.621     70.08569      1.139     1.94    -5.019508     19.79348     197.2659        14     0.954     0.734  52.91   0
        33    759.8417    919.7875 300.1497247 +22.8500664     257.8408      70.1572      1.225     2.94    -5.340115     19.79348     50.00894         6     0.749     0.554  53.79   0
        34    627.6345    913.7744 300.1105106 +22.8086647     2707.895     70.17506      1.241     2.34    -5.164863     19.79348     396.0117        21     0.999     0.924  82.75   0
        35    117.3801    915.0563 299.9514157 +22.6558012     414.3491      70.1572      1.766     4.02    -5.097179     19.79348      42.6466         6     1.107     0.418  58.73   0
        36    430.3642    910.6650 300.0501338 +22.7485509      251.238      70.1572      1.132     3.72    -5.140668     19.79348     42.90791         8     0.938     0.646  88.76   0
        37    178.1286    907.9406 299.9726045 +22.6720134     778.0692     70.19293      1.281     2.59    -4.935167     19.79348     116.4695        13     0.944     0.855  22.81   0
        38    648.6393    906.0605 300.1195613 +22.8127565     395.0659      70.1572      1.311     2.57    -5.180253     19.79348     65.15593         7     0.757     0.694   0.37   0
        39    197.3637    904.8352 299.9795921 +22.6769019     207.4489     70.22865      1.015     3.11    -4.961168     19.79348      43.4643         5     0.771     0.408 -67.12   0
        40   1020.7568    893.5230 300.2395983 +22.9207991     554.1515     67.57204      1.062     2.17    -4.744076     19.79348     88.78772         8     0.749     0.641  49.86  16
        41    803.5555    893.3724 300.1719420 +22.8556037     2357.147     70.17506      1.170     2.29    -5.247989     19.79348     324.3773        18     0.998     0.867  29.88   0
        42    212.1430    888.1216 299.9896246 +22.6765519     374.4627     70.19293      1.350     2.85    -5.077354     19.79348     59.31706         6     0.877     0.590  70.32   0
        43    520.7435    886.1218 300.0862413 +22.7686482     281.9923     70.19293      1.291     2.96    -5.053032     19.79348     51.20665         6     0.838     0.670 -23.36   0
        44    166.8211    884.3435 299.9767714 +22.6618548     774.2571     70.19293      1.518     4.94    -5.121814     19.79348     78.10928        14     1.259     0.912  18.62   0
        45    316.8269    876.3239 300.0260033 +22.7046121     30891.28     70.17506      1.349     2.42    -5.114388     19.79348     4083.279        76     1.277     1.173  67.92   0
        46    582.2567    879.5255 300.1075327 +22.7852212     322.4166     70.19293      1.254     4.52     -5.00415     19.79348     45.11248         6     0.937     0.621  71.32   0
        47    574.6493    875.1302 300.1065954 +22.7816772     938.4138      70.1572      1.293     2.54     -4.98607     19.79348     133.8812        16     0.988     0.893  28.26   0
        48    987.1766    874.1388 300.2354363 +22.9051637     390.0512      70.1572      1.119     2.26    -4.601918     19.79348     81.91671         7     0.700     0.637  17.34   0
        49    604.0400    871.0773 300.1170631 +22.7893363     442.9849     70.13933      1.287     3.01    -4.971606     19.79348     66.58032        10     0.911     0.716  18.13   0
        50      2.9630    871.0350 299.9302105 +22.6088106     514.2875     62.78246      1.261     2.96    -5.138202     19.79348     66.67487         9     0.798     0.754 -86.30  16
        51    614.4828    869.4844 300.1208324 +22.7920136     306.2732     70.28218      1.131     2.83    -4.976124     19.79348     53.19823         6     0.843     0.465  15.16   0
        52    934.4069    866.7064 300.2214027 +22.8872037     135.4239      70.0499      1.204     3.45    -4.548616     19.79348       36.964         5     0.764     0.451 -71.51   0
        53    719.7254    865.6048 300.1548660 +22.8224836     111.7515     70.08569      1.073     3.40    -5.145111     19.79348     33.80283         5     0.742     0.452  18.55   0
        54    757.0422    855.9197 300.1696416 +22.8309016     387.9366     70.13933      1.295     4.75      -5.0737     19.79348     68.03517        10     1.282     0.612  17.71   0
        55    366.4985    853.4934 300.0488781 +22.7129831     18176.69     70.33567      1.352     2.43    -5.062524     19.79348     2282.559        52     1.215     1.108  59.18   0
        56    380.7589    853.9219 300.0531734 +22.7173879     1233.957     70.13933      1.496     2.66    -5.049678     19.79348     144.8996        14     0.976     0.829  54.56   0
        57    889.3887    849.1301 300.2130902 +22.8686559       1672.9     70.17506      1.197     2.22    -4.786595     19.79348     246.3994        16     0.947     0.814  83.20   0
        58    377.3654    848.2839 300.0539528 +22.7147525     416.5725     70.12145      1.782     5.02    -5.019709     19.79348     28.98299         8     0.875     0.816   3.81   0
        59    647.4653    845.2549 300.1389865 +22.7949617     582.2574     70.21078      1.358     3.17    -4.878077     19.79348     62.10298        12     0.981     0.822 -59.89   0
        60    484.0438    845.7050 300.0879757 +22.7460407     351.7466     70.17506      1.673     4.21    -4.884019     19.79348     38.34269         6     1.107     0.458 -72.74   0
        61    249.1821    845.4373 300.0150268 +22.6754435     396.6048      70.1572      1.308     2.81    -5.063423     19.79348     64.09322         7     0.855     0.564 -81.17   0
        62    494.5649    840.1611 300.0930533 +22.7476092     530.3141     70.21078      1.447     3.09    -4.818595     19.79348     69.04356        11     0.951     0.807 -47.78   0
        63     54.0541    840.9351 299.9558694 +22.6155389     296.0793     70.19293      1.303     4.53    -5.044072     19.79348     44.00241         7     1.023     0.616  24.53   0
        64    895.8644    836.5850 300.2191914 +22.8669974     385.0071     70.13933      1.247     2.36    -4.682778     19.79348     57.67624         6     0.766     0.493  -1.21   0
        65     81.6233    834.5078 299.9665228 +22.6219801     364.8338     70.08569      1.245     3.78    -5.022427     19.79348     39.52344         6     0.984     0.417  18.02   0
        66    873.1957    831.4509 300.2137968 +22.8587245     260.1784      70.1572      1.215     3.37    -4.747498     19.79348     33.94028         5     0.757     0.435  23.02   0
        67    246.5787    829.5999 300.0193711 +22.6701221     336.8992     70.08569      1.662     3.85    -4.971196     19.79348      52.7132         7     1.178     0.524 -37.96   0
        68    539.9996    818.1854 300.1143427 +22.7549442     325.6621     70.01409      1.403     2.68    -4.602247     19.79348     39.97991         5     0.779     0.473  65.25   0
        69    561.4529    815.7502 300.1218120 +22.7606846     848.2985     70.19293      1.413     2.95    -4.579859     19.79348     97.62679        14     1.055     0.820 -88.33   0
        70    955.8013    814.4258 300.2450873 +22.8786120     2655.677     70.10357      1.195     2.26     -4.52076     19.79348     367.4585        21     0.990     0.902  30.72   0
        71    944.1622    805.8008 300.2442652 +22.8726455     1047.571      70.1572      1.282     2.52    -4.515117     19.79348     141.9424        17     1.012     0.916  46.11   0
        72    307.3975    800.0286 300.0478984 +22.6799088     580.2083     70.10357      1.449     3.27    -4.759037     19.79348     67.51155        11     0.913     0.871 -66.31   0
        73    770.7254    797.1806 300.1930189 +22.8181508     1537.027      70.1572      1.523     2.78     -4.56673     19.79348      170.866        24     1.373     1.009  -0.46   0
        74    975.4011    795.9550 300.2572088 +22.8791865     1079.874      70.1572      1.272     2.12    -4.527151     19.79348     152.5649        15     0.943     0.822 -27.08   0
        75    853.1669    782.8539 300.2233680 +22.8387679     374.5178     70.17506      1.605     5.61    -4.526326     19.79348     30.45128         9     1.289     0.688  61.49   0
        76    155.6281    784.0986 300.0059121 +22.6297645     295.6957     70.10357      1.394     5.50    -4.658557     19.79348     42.55124         9     1.123     0.760   0.20   0
        77    888.9930    774.0182 300.2374086 +22.8469763     81827.73     70.12145      1.289     2.33    -4.522824     19.79348     11550.07       110     1.261     1.210  75.91   0
        78    651.1585    778.1152 300.1619830 +22.7768074     309.8622     70.12145      1.486     4.45    -4.471489     19.79348     32.11985         6     0.929     0.607 -24.99   0
        79    742.0473    774.4502 300.1914809 +22.8030244     486.7774     70.19293      1.583     4.03    -4.536063     19.79348     51.04833        10     1.000     0.817  82.57   0
        80    921.9084    767.0667 300.2499305 +22.8548516     168.0337     70.30001      1.003     2.22    -4.526578     19.79348     49.23245         5     0.612     0.566   6.59   0
        81    575.4221    762.9258 300.1433466 +22.7497234     810.5292      70.1572      1.398     2.92    -4.379285     19.79348     111.0397        14     1.032     0.857  85.05   0
        82    756.4960    760.2003 300.2006177 +22.8032691     5368.008       70.032      1.411     2.80    -4.526496     19.79348     594.1031        37     1.253     1.089  42.68   0
        83    258.2734    755.7281 300.0470393 +22.6524575     2596.798     70.21078      1.354     2.58    -4.706134     19.79348     321.3507        26     1.083     1.049  44.37   0
        84    340.0941    753.6091 300.0731656 +22.6764164     636.9628     70.08569      1.524     3.74    -4.714784     19.79348     80.34341        14     1.139     0.985  42.71   0
        85    216.1868    751.2632 300.0354109 +22.6385397     229.6742     70.12145      1.107     2.60    -4.689541     19.79348     53.35923         5     0.705     0.660  40.13   0
        86    548.4316    748.9734 300.1394847 +22.7376211      441.883      70.1572      1.511     5.77    -4.350291     19.79348     38.94496        10     1.041     0.902  72.90   0
        87    540.0331    741.1933 300.1394017 +22.7328688     1823.682      70.1572      1.478     2.87    -4.329608     19.79348     188.6544        23     1.129     1.049 -37.02   0
        88    530.3431    734.8061 300.1384637 +22.7281285     871.3311     70.12145      1.473     3.07    -4.312116     19.79348     114.7596        15     1.061     0.891  63.98   0
        89    923.6637    732.4507 300.2617390 +22.8454393     220.1856     70.21078      1.105     3.44    -4.532611     19.79348     47.91536         5     0.757     0.453 -19.81   0
        90    193.6902    731.1376 300.0349660 +22.6260146     320.6158     70.24649      1.211     3.62    -4.636102     19.79348     59.14453         7     0.978     0.653  41.12   0
        91    208.3234    729.7281 300.0399718 +22.6300048     433.6099     70.26434      1.761     5.29    -4.648737     19.79348     37.18136         8     0.927     0.853 -75.52   0
        92    233.6923    726.6628 300.0488530 +22.6367437     398.7433     70.26434      1.735     4.51    -4.662776     19.79348     49.61793         6     0.995     0.581  23.77   0
        93    977.3297    725.7855 300.2806390 +22.8596164     211.0839      70.1572      1.208     2.19    -4.548775     19.79348     45.82973         5     0.722     0.429 -70.70   0
        94    455.0912    724.6130 300.1183642 +22.7026202     1008.646     70.10357      1.516     3.14     -4.35017     19.79348     100.7755        18     1.092     1.001  31.71   0
        95    109.2087    719.9330 300.0123628 +22.5974317     11333.31      70.1572      1.383     2.57    -4.625509     19.79348     1368.714        43     1.229     1.106  70.33   0
        96     30.1050    721.2198 299.9873765 +22.5740409     395.3857     70.06779      1.439     5.04    -4.763929     19.79348     45.87307        11     1.247     0.769  79.32   0
        97    540.2256    720.0173 300.1463496 +22.7268514     567.3477     70.17506      1.310     3.57    -4.292266     19.79348     70.92004        10     1.083     0.638 -88.86   0
        98    575.4465    718.8375 300.1576956 +22.7370817     217.4689     70.19293      1.015     3.47    -4.267986     19.79348     32.03757         5     0.766     0.454 -70.76   0
        99    957.7473    705.9501 300.2809852 +22.8480492     617.0568     70.19293      1.431     2.88    -4.515606     19.79348     75.46761        11     0.890     0.808  34.09   0
       100     55.1489    704.0435 300.0007396 +22.5766409      926.034     70.19293      1.769     4.90    -4.714699     19.79348     82.26814        18     1.533     0.812  82.66   0
       101    503.6007    700.4621 300.1413123 +22.7102506     347.9875     70.12145      1.506     3.48    -4.234081     19.79348     35.93865         5     1.097     0.319  21.42   0
       102    897.9926    698.4707 300.2647895 +22.8279851     390.5864     70.13933      1.486     4.53    -4.464241     19.79348     43.23856        11     1.070     0.871  78.19   0
       103    460.5742    693.1776 300.1302940 +22.6952486     456.2377     70.12145      1.681     4.43    -4.238541     19.79348     65.12247         9     1.172     0.611 -39.36   0
       104    625.8403    689.3041 300.1829889 +22.7437272      480.874      70.1572      1.893     4.69    -4.161932     19.79348     34.74438         8     0.990     0.630   6.83   0
       105    504.5290    688.6054 300.1454572 +22.7071277     445.0683     70.12145      1.502     3.71    -4.214133     19.79348     56.40506         9     0.935     0.758  85.11   0
       106    937.9058    683.9816 300.2819443 +22.8357918     1845.449     70.08569      1.347     2.69    -4.453258     19.79348     214.0734        18     0.991     0.932  29.93   0
       107    469.8438    684.2933 300.1360672 +22.6954819     851.6265      70.1572      1.453     3.23    -4.200093     19.79348     95.20126        15     1.086     0.866  19.70   0
       108     32.0111    678.1600 300.0019712 +22.5622730     2996.502      70.1572      1.396     2.53    -4.759991     19.79348     377.6218        26     1.210     0.991  88.46   0
       109    333.3448    671.0862 300.0979063 +22.6507251     5216.187     70.21078      1.524     2.77    -4.513491     19.79348     599.4105        36     1.256     1.163  71.49   0
       110    455.6985    667.9897 300.1369682 +22.6865597     5097.542      70.0499      1.560     3.14    -4.181468     19.79348     498.9647        37     1.288     1.191  69.51   0
       111    867.1809    661.9197 300.2670731 +22.8082513     1107.595      70.1572      1.400     2.83    -4.362102     19.79348     109.1307        15     0.954     0.920 -39.33   0
       112    951.7745    659.0823 300.2943659 +22.8327991     7064.335     70.13933      1.357     2.66    -4.413107     19.79348     808.7085        35     1.128     1.077  56.35   0
       113    516.2454    657.6107 300.1591823 +22.7017508     6557.562     70.17506      1.589     3.17    -4.118266     19.79348     658.9988        41     1.303     1.224  60.65   0
       114    243.9539    653.3973 300.0758682 +22.6188176     832.1354      70.1572      1.571     3.15     -4.44578     19.79348     95.91821        18     1.177     0.942  59.21   0
       115    686.1205    653.1854 300.2135047 +22.7514441     323.2741     70.17506      1.557     5.06    -4.203076     19.79348     32.86907         6     1.059     0.685   9.88   0
       116    490.7136    650.5369 300.1535377 +22.6920601     365.4548     70.26434      1.935     4.18    -4.134247     19.79348     35.13197         5     1.161     0.429 -57.48   0
       117    447.9000    645.8213 300.1417505 +22.6778598     2579.081     70.10357      1.627     3.40    -4.170153     19.79348     256.8328        28     1.318     1.111  50.83   0
       118    790.9554    645.2149 300.2487520 +22.7805978     511.7219     70.17506      1.472     2.85    -4.266975     19.79348     79.00163        10     1.001     0.673  69.98   0
       119    426.2488    644.2249 300.1355342 +22.6709044     836.9102      70.1572      1.670     3.37    -4.179333     19.79348      80.3777        16     1.156     0.889  73.09   0
       120    180.7140    643.7186 300.0593616 +22.5970558      500.021     70.30001      1.481     1.83    -4.342812     19.79348     68.25616         5     0.698     0.419  72.22   0
       121    867.4831    641.1020 300.2739368 +22.8023642     1040.411     70.31784      1.540     3.15    -4.263087     19.79348     109.0629        18     1.110     0.991  32.43   0
       122    564.4592    633.2703 300.1821021 +22.7092323     117577.9     70.19293      1.639     3.34    -3.840501     19.79348     10257.91       153     1.521     1.480  44.50   0
       123    747.8030    637.8772 300.2376944 +22.7655501     421.1914     70.06779      1.502     4.73    -4.168492     19.79348     46.40713         8     0.894     0.710 -80.32   0
       124    250.7638    633.4296 300.0844771 +22.6151360     2038.569     70.17506      1.548     3.07    -4.262101     19.79348     200.9245        23     1.144     1.061  60.92   0
       125    455.1173    613.5782 300.1544790 +22.6707751     1501.668     70.12145      1.638     3.84    -4.143563     19.79348     125.3244        24     1.402     1.072  73.28   0
       126    772.1915    602.1978 300.2568927 +22.7626203      205.185     69.97827      1.203     3.89    -3.995294     19.79348     28.13657         5     0.929     0.467  45.17   0
       127    851.9474    599.6245 300.2825810 +22.7857956     984.5291     70.17506      1.444     3.12    -4.042167     19.79348     111.2014        16     1.048     0.952  69.98   0
       128    723.2601    597.3849 300.2432148 +22.7465650     1405.827     70.12145      1.595     3.36    -3.897101     19.79348     110.5818        18     1.099     0.987 -83.68   0
       129    628.2382    594.6317 300.2145188 +22.7172755      281.597      70.1572      1.679     4.95    -3.684473     19.79348     28.17855         6     0.933     0.743  -1.39   0
       130    511.2183    593.4664 300.1784731 +22.6818370     292.4093     70.13933      1.383     4.02     -3.71353     19.79348     43.40042         7     0.992     0.697 -51.74   0
       131    980.5398    591.2001 300.3254071 +22.8219246     756.9714     70.10357      1.413     3.42    -4.118483     19.79348     77.14216        12     1.065     0.783  60.21   0
       132    966.1442    590.5331 300.3211352 +22.8174181     483.5922     70.21078      1.414     3.71    -4.118483     19.79348     57.54552        11     1.071     0.707 -49.82   0
       133    852.2674    589.5197 300.2859659 +22.7829897     1390.038     70.26434      1.892     5.13    -3.968386     19.79348     113.7721        23     1.533     1.101  83.25   0
       134    890.3657    584.7114 300.2994035 +22.7930305     2583.391     70.13933      1.529     2.98    -3.997803     19.79348      239.416        29     1.190     1.122  52.85   0
       135    122.8641    575.9053 300.0634327 +22.5602431     556.2537     70.24649      1.467     5.73    -4.114923     19.79348     53.02285        13     1.444     0.661 -73.91   0
       136    982.4057    574.8896 300.3312915 +22.8177985     294.7748     70.06779      1.427     6.18    -4.023857     19.79348     43.18844        13     1.136     0.947  46.96   0
       137    664.0038    555.3710 300.2384176 +22.7167326      411.879     70.12145      1.699     6.18    -3.645158     19.79348     38.20138         6     1.254     0.855  21.37   0
       138    724.9075    547.1484 300.2600582 +22.7326358     617.3606     70.21078      2.061     5.04    -3.630095     19.79348     65.01609        12     1.557     0.898  79.51   0
       139    978.0181    547.6428 300.3387804 +22.8086562     363.9078     70.17506      1.446     3.27    -3.864177     19.79348     37.40643         7     0.739     0.660   6.00   0
       140    881.8112    543.8467 300.3100207 +22.7787292     578.7263     70.17506      1.472     3.64    -3.711014     19.79348     58.47639        11     0.935     0.814 -15.51   0
       141    865.9269    540.1244 300.3062797 +22.7728985     342.3339     70.22864      1.416     3.56     -3.65198     19.79348      35.4818         8     0.823     0.673  37.74   0
       142    610.3710    538.1918 300.2273021 +22.6957157     1892.987      70.1572      1.661     3.60    -3.478374     19.79348     154.2746        25     1.263     1.157  30.18   0
       143    969.9967    536.9384 300.3397585 +22.8031769     317.7684     70.13933      1.571     3.76     -3.82248     19.79348     38.11236         5     0.673     0.602 -89.87   0
       144   1021.6309    516.8953 300.3623750 +22.8128922     699.3212     64.43803      1.379     3.62    -3.840704     19.79348     69.71499        13     1.040     0.879  -9.74  24
       145    893.6591    516.9604 300.3224523 +22.7745579     249.0432      70.1572      1.504     4.70    -3.626806     19.79348      36.5793         5     1.016     0.617 -23.14   0
       146    979.9938    515.6248 300.3498031 +22.8000497     630.0754     70.13933      1.383     3.63    -3.775156     19.79348     70.49044         9     0.902     0.709 -76.87   0
       147    720.8225    511.6993 300.2703071 +22.7212323     756.2528     70.10357      1.761     4.46    -3.578764     19.79348     68.91457        14     1.074     0.960  -8.18   0
       148    225.7336    510.8456 300.1165417 +22.5724654     226.2776      70.1572      1.169     3.53     -3.80522     19.79348     35.21697         7     0.863     0.579 -61.16   0
       149    287.4622    506.4111 300.1371708 +22.5897192     2019.783     70.10357      1.603     3.38    -3.475538     19.79348     213.8721        24     1.216     1.105 -69.65   0
       150   1020.2767    504.1360 300.3660995 +22.8088202     2626.367     68.94952      1.435     2.78    -3.833645     19.79348      276.689        25     1.114     1.076 -61.54  16
       151    234.7202    501.0673 300.1225123 +22.5723578     4373.303     70.26434      1.613     3.27    -3.736821     19.79348       406.78        36     1.308     1.243 -88.73   0
       152    375.4376    495.1905 300.1681728 +22.6128986     2746.122     70.17506      1.720     3.51    -3.296041     19.79348     256.1607        29     1.310     1.204  32.37   0
       153   1000.3480    495.3811 300.3627295 +22.8003329     1094.314     70.13933      1.502     3.06    -3.777189     19.79348     111.5616        15     1.107     0.824   7.48   0
       154    619.4996    491.7520 300.2452364 +22.6851217      10495.6     70.19293      1.719     3.54    -3.329914     19.79348     849.0887        48     1.370     1.342  58.70   0
       155    952.7612    474.2065 300.3547716 +22.7799888      517.814     70.19293      1.542     5.80    -3.584346     19.79348     46.23397        14     1.243     0.907 -76.06   0
       156    174.3236    472.1292 300.1131449 +22.5459301     1125.147     70.26434      1.617     3.27    -3.560399     19.79348     133.1356        20     1.155     1.027 -84.90   0
       157    560.1700    461.3193 300.2366554 +22.6585921      3785.73      70.1572      1.735     3.68    -2.959433     19.79348     328.2405        31     1.369     1.196  85.59   0
       158    973.6066    461.2147 300.3654929 +22.7825026     663.4023     70.06779      1.408     3.62    -3.625855     19.79348     73.47521        12     1.028     0.823  59.02   0
       159    764.5039    450.2079 300.3038955 +22.7166693     806.2551      70.0499      2.053     4.44    -3.554576     19.79348     56.96308        15     1.158     0.935  73.91   0
       160    674.3916    450.8392 300.2756223 +22.6898346      272.225     70.17506      1.761     4.43    -3.539918     19.79348     29.33617         5     1.183     0.471 -83.30   0
       161    466.7799    447.6592 300.2120305 +22.6266604     3385.213     70.10357      1.741     3.58      -2.8036     19.79348     294.7692        34     1.402     1.261  29.53   0
       162    858.6438    441.6630 300.3360062 +22.7424328     747.3207      70.1572      1.567     3.78    -3.442319     19.79348     68.47344        13     0.975     0.960  76.48   0
       163    956.0242    441.3722 300.3664576 +22.7715324     399.6001     70.13933      1.484     2.96    -3.535364     19.79348     45.59383         7     0.747     0.644   4.52   0
       164    831.1323    429.5232 300.3313763 +22.7306996     371.2962     70.24649      1.681     4.30    -3.486559     19.79348     37.48202         8     0.877     0.707 -45.05   0
       165    354.5308    426.7649 300.1839021 +22.5869910     1381.434      70.1572      1.696     3.46    -2.910417     19.79348      144.874        22     1.265     1.121  52.07   0
       166     73.0368    424.5532 300.0971339 +22.5018828     623.2906     70.19293      1.585     3.90    -3.571645     19.79348     52.60548        13     1.079     0.938  21.15   0
       167    323.7294    416.3193 300.1777170 +22.5747527     16777.38     70.26434      1.715     3.52     -3.04475     19.79348     1465.678        60     1.448     1.369  87.96   0
       168    858.2310    413.1943 300.3451264 +22.7341304     710.8042      70.1572      1.594     4.65    -3.439724     19.79348     62.33015        17     1.135     1.065 -31.36   0
       169     20.2634    404.3427 300.0873088 +22.4802452     2821.733     70.21078      1.537     2.89    -3.571645     19.79348     274.1547        28     1.179     1.107 -64.12   0
       170    734.0297    395.6468 300.3121272 +22.6918630     1126.279     70.17506      1.785     4.31    -3.583595     19.79348     95.95913        20     1.238     1.159  51.31   0
       171    949.1274    387.9901 300.3816491 +22.7541264      310.734      70.1572      1.566     5.12    -3.455712     19.79348     31.85379         7     1.350     0.550  80.62   0
       172    395.9379    380.5761 300.2117832 +22.5861563     1149.322     70.13933      1.949     5.62    -2.827156     19.79348      68.2122        23     1.392     1.194  75.57   0
       173    834.8112    373.1615 300.3508313 +22.7156102     369.1707     70.13933      1.488     3.89    -3.418538     19.79348      31.8485         6     0.767     0.565 -51.44   0
       174    185.7905    361.5315 300.1526330 +22.5176447     175.6276     70.13933      1.667     5.23    -3.540325     19.79348     28.12938         5     1.075     0.717  70.76   0
       175    471.9491    360.3040 300.2420140 +22.6031348     610.5834     70.22865      1.556     3.80    -2.879151     19.79348     56.92488        11     1.026     0.769 -38.14   0
       176    716.3682    351.8474 300.3208517 +22.6739881     1166.251     70.19293      1.652     4.07    -3.348758     19.79348     93.70438        20     1.262     1.032  -4.70   0
       177    977.5917    345.8311 300.4042179 +22.7505382       1822.9      70.1572      1.580     3.10    -3.537359     19.79348     162.6296        24     1.169     1.088  79.06   0
       178    425.7410    335.7590 300.2356087 +22.5822304      306.331      70.1572      1.603     3.38    -2.866296     19.79348     37.15625         5     0.936     0.353 -43.34   0
       179     99.7349    330.4312 300.1359944 +22.4828985     850.5622      70.1572      1.589     4.38    -3.430392     19.79348     76.98914        14     1.195     0.860  -1.61   0
       180    993.1877    326.2477 300.4154413 +22.7495816     344.8994      70.1572      1.451     4.37    -3.647487     19.79348     30.27099         7     0.881     0.616 -31.27   0
       181    886.1366    302.1350 300.3898945 +22.7105806     1148.607     70.19293      1.523     3.17    -3.083082     19.79348     109.4916        19     1.095     1.025   6.36   0
       182    382.8421    294.6312 300.2356188 +22.5575580     655.0005     70.19293      1.900     4.45    -2.918557     19.79348      59.1183        15     1.232     1.088  71.75   0
       183    304.8970    299.8260 300.2096929 +22.5356708       1295.3     70.10357      1.696     3.98    -3.021761     19.79348     119.9931        22     1.263     1.101 -72.96   0
       184    200.4192    286.9985 300.1813801 +22.5006477     508.5995     70.08569      2.156     5.66    -3.181772     19.79348     47.03376        10     1.221     0.916 -40.83   0
       185    737.2732    283.4392 300.3495771 +22.6606017     864.7125     70.13933      1.723     4.36    -2.931662     19.79348     72.86764        19     1.364     1.104  85.87   0
       186   1008.5989    275.8607 300.4366088 +22.7397136     600.4578     70.12145      1.648     3.31    -3.870932     19.79348     63.91912        11     1.022     0.877  83.55   0
       187    221.6826    280.1271 300.1902195 +22.5050549      309.187     70.28217      1.306     1.90    -3.094961     19.79348     47.91193         5     0.712     0.416 -68.77   0
       188    661.9444    274.2567 300.3290963 +22.6353871     653.1323     70.22865      1.810     5.74     -2.91522     19.79348     59.67953        17     1.260     1.051 -79.57   0
       189    857.1423    265.6494 300.3927033 +22.6914082     843.9984     70.21078      1.642     4.66    -2.884995     19.79348     60.15664        13     1.026     0.930  10.32   0
       190    588.0987    266.0837 300.3087570 +22.6109044      531.165     70.31784      1.887     5.99    -2.871099     19.79348     49.38001         9     1.140     0.886   9.01   0
       191    869.2572    264.8250 300.3967470 +22.6948009     419.1017      70.1572      1.606     4.40    -2.900515     19.79348     50.03725         8     0.983     0.686  60.36   0
       192    985.9878    254.8193 300.4363885 +22.7268923     646.8786     70.12145      1.419     3.87    -3.689721     19.79348     76.97818        15     1.133     1.015 -68.14   0
       193    220.3160    248.8358 300.1999525 +22.4956646      450.972     70.13933      1.675     5.60    -3.095658     19.79348     41.08619        10     1.119     0.789 -32.03   0
       194     82.2307    243.4944 300.1587804 +22.4527043     1266.368     70.06779      1.679     3.56    -3.169319     19.79348      129.096        21     1.194     1.126 -33.29   0
       195    904.8248    239.7161 300.4159853 +22.6982394      459.394     70.12145      1.599     4.82    -3.062171     19.79348     45.68235        10     1.040     0.744  39.78   0
       196    239.5001    236.7039 300.2098534 +22.4979372     3111.077     70.35349      1.688     3.28    -3.111211     19.79348      329.736        31     1.299     1.230  64.71   0
       197     24.2488    231.4157 300.1446923 +22.4318405     666.3843     70.19293      1.389     2.94    -3.172737     19.79348     89.57817        13     1.109     0.706 -62.44   0
       198    222.1409    227.7289 300.2073707 +22.4901542     374.9639     70.19293      1.558     5.39    -3.088393     19.79348     41.57483         9     1.212     0.845  23.39   0
       199    883.3823    217.7826 300.4164208 +22.6855116     1991.195     70.13933      1.636     3.37    -2.912533     19.79348     172.3494        25     1.182     1.158   0.30   0
       200    987.0173    216.2763 300.4492215 +22.7161199      1553.52      70.1572      1.489     2.92    -3.605102     19.79348      169.886        23     1.307     1.024  63.72   0
       201    433.0861    213.5770 300.2775597 +22.5493526     428.5126     70.10357      1.638     3.87    -3.055261     19.79348     35.84002         6     1.063     0.466 -68.20   0
       202    357.7621    205.9827 300.2565946 +22.5245863     367.1269      70.1572      1.771     3.83    -3.112305     19.79348     34.87869         5     0.832     0.506 -40.54   0
       203    123.5195    202.6031 300.1848786 +22.4533586     288.4844     70.06779      1.393     3.25    -3.167051     19.79348     38.99222         5     0.902     0.494 -84.56   0
       204    484.3576    200.8293 300.2976496 +22.5610634     1044.518     70.19293      1.792     4.00    -2.882031     19.79348     94.46313        16     1.185     0.955  -2.43   0
       205    228.1356    196.7164 300.2192991 +22.4830508     366.5185     70.26434      1.744     4.29     -3.02494     19.79348     35.24951         5     1.043     0.502 -36.67   0
       206    258.4454    180.5945 300.2339527 +22.4875136     3454.049      70.1572      1.748     3.53    -3.044454     19.79348     343.9917        32     1.345     1.227 -80.37   0
       207    109.9166    180.3724 300.1878667 +22.4428982     398.6838      70.1572      1.846     4.14    -3.167051     19.79348     41.66946         8     0.892     0.815 -34.61   0
       208     20.3765    171.9922 300.1627741 +22.4136296     321.8216      70.1572      1.428     3.49    -3.173119     19.79348     45.41846         5     0.838     0.420 -70.52   0
       209    504.3736    165.6874 300.3152828 +22.5569703     3605.225     70.13933      1.857     3.90    -2.779926     19.79348     281.9723        36     1.408     1.367 -88.41   0
       210    756.4966    155.6237 300.3970530 +22.6296340     474.5339     70.06779      1.951     5.94    -2.818525     19.79348     34.42792         9     1.166     0.850  11.57   0
       211    632.6802    145.7959 300.3616780 +22.5897107     3560.174     70.06779      1.777     3.93    -2.732835     19.79348     289.4834        33     1.378     1.293  42.20   0
       212    407.7173    145.0474 300.2919067 +22.5220670     732.4121     70.17506      1.709     4.96    -2.931221     19.79348     57.66989        16     1.160     1.064  59.90   0
       213    674.2297    143.1855 300.3754638 +22.6014110     479.4709     70.17506      1.618     5.84    -2.813096     19.79348     41.15368        11     1.306     0.883 -74.77   0
       214    690.2309    138.9267 300.3818292 +22.6049816     388.7251      70.1572      2.108     4.41    -2.797354     19.79348     34.79396         5     0.775     0.715  81.28   0
       215    157.4809    137.9248 300.2164180 +22.4449834     343.2393     70.26434      1.549     4.27    -2.965894     19.79348     38.63667         8     1.008     0.773 -66.89   0
       216    959.4930    136.6365 300.4664846 +22.6849789     297.6658     70.12145      1.509     4.63     -2.72609     19.79348     27.19958         6     1.030     0.590  30.56   0
       217    676.9831    130.4939 300.3804394 +22.5985889     1562.785     70.08569      1.850     4.18    -2.793739     19.79348     117.1387        25     1.338     1.201  71.50   0
       218    692.4363    129.9202 300.3854384 +22.6030542     414.6915     70.10357      1.949     4.98    -2.779667     19.79348     39.32987         7     1.198     0.586  53.29   0
       219    763.5674    122.2214 300.4100943 +22.6221521     862.7808      70.1572      1.638     3.56    -2.706971     19.79348     82.64387        16     1.101     0.962  89.07   0
       220    506.9714    114.5873 300.3326715 +22.5430705     614.6762      70.1572      1.844     7.23    -2.429705     19.79348      42.3199        14     1.441     1.015  69.69   0
       221     80.3048    114.7634 300.1999549 +22.4151862     233.1331      70.1572      1.382     4.78    -2.632701     19.79348     31.67159         6     0.864     0.749 -11.70   0
       222    411.0029    113.5295 300.3031546 +22.5140002     364.8211     70.10357      1.521     2.89    -2.669898     19.79348     42.87077         6     0.913     0.495 -75.74   0
       223    793.1856    110.7969 300.4230292 +22.6277407     290.6366     69.99619      1.383     5.15      -2.6647     19.79348      36.3039         7     1.028     0.730  86.15   0
       224    182.2851    103.2064 300.2353894 +22.4424568     2166.471     70.08569      1.695     3.58    -2.691445     19.79348     190.2397        27     1.246     1.222  41.74   0
       225    750.9397    103.7547 300.4121515 +22.6130614     333.2442     70.17506      1.508     3.82     -2.65141     19.79348     34.09741         7     0.832     0.699 -65.60   0
       226    743.8032     95.2742 300.4126795 +22.6084860     493.3944     70.06779      1.602     5.43    -2.630122     19.79348     47.39648         9     1.121     0.742 -21.26   0
       227    298.5414     95.4450 300.2740455 +22.4750901     683.2994     70.19293      1.699     3.72    -2.916317     19.79348     68.09357        14     1.038     1.020  38.95   0
       228    704.4595     90.7452 300.4018930 +22.5953979     383.0378     70.21078      2.131     4.60    -2.663078     19.79348     31.84628         6     0.970     0.620 -26.45   0
       229    801.3392     86.2283 300.4335405 +22.6231205     1235.846     70.17506      1.678     5.79    -2.610169     19.79348     116.2619        23     1.509     1.188  74.31   0
       230    184.8236     82.1982 300.2429931 +22.4371872     638.6359     70.10357      1.734     4.90    -2.677068     19.79348      52.6779        12     1.180     0.873 -35.95   0
       231    975.5922     79.3318 300.4900969 +22.6733209     461.1224     70.13933      1.586     4.89     -2.59127     19.79348     38.69829        10     0.931     0.823  31.80   0
       232    749.5793     79.1553 300.4197080 +22.6055832     574.5285     70.21078      1.885     4.98    -2.623508     19.79348     47.70065         9     1.162     0.907 -28.04   0
       233    602.5785     64.0811 300.3788159 +22.5572105      500.773     70.12145      1.450     3.87    -2.590485     19.79348     55.41097         6     1.021     0.421 -73.84   0
       234    765.6375     59.1143 300.4312119 +22.6046324     481.0238     70.13933      1.988     4.49     -2.61079     19.79348     34.92915         8     0.990     0.789  86.11   0
       235    574.0046     57.0008 300.3722168 +22.5466142     1099.291     69.97827      1.766     4.01    -2.401677     19.79348     104.2953        21     1.341     1.051 -69.77   0
       236    296.7169     54.9399 300.2866167 +22.4629117     416.1086     70.24649      1.588     5.27    -2.887343     19.79348     43.22855         8     0.962     0.816 -39.94   0
       237     11.8946     53.3411 300.1986308 +22.3770371      383.366     70.22865      1.162     2.47    -2.022542     19.79348     80.24885         7     0.929     0.538  76.06   0
       238    531.2971     50.9388 300.3608893 +22.5320748     643.0347     70.24649      1.651     4.75     -2.17416     19.79348      65.8847        14     1.294     0.965 -59.57   0
       239    636.4959     47.6685 300.3947001 +22.5626562     751.7971     70.28217      1.761     5.19      -2.5007     19.79348     49.06723        14     1.165     0.907  25.29   0
       240    281.8970     44.2632 300.2854717 +22.4554025     346.0127     70.24649      1.806     4.59    -2.866362     19.79348     33.46795         5     0.973     0.614 -33.24   0
       241    456.9729     41.6203 300.3407822 +22.5071237     1389.336     70.13933      1.770     3.79    -2.158726     19.79348     118.2871        24     1.265     1.187  84.92   0
       242    104.5819     39.8856 300.2317839 +22.4009758     719.8005     70.10357      1.385     3.48     -2.17543     19.79348     89.20365        11     1.039     0.734 -63.52   0
       243    165.8710     21.3918 300.2568246 +22.4140463     671.2786     70.13933      1.595     4.34    -2.742555     19.79348     73.62921        12     1.091     0.870  88.68   0
       244    869.6956   1021.6429 300.1507871 +22.9122523     198.2749     64.41857      1.160     4.81    -6.008242     19.79348      32.9058         6     0.907     0.724  84.45  16
