#   1 NUMBER                 Running object number                                     
#   2 X_IMAGE                Object position along x                                    [pixel]
#   3 Y_IMAGE                Object position along y                                    [pixel]
#   4 ALPHA_J2000            Right ascension of barycenter (J2000)                      [deg]
#   5 DELTA_J2000            Declination of barycenter (J2000)                          [deg]
#   6 FLUX_APER              Flux vector within fixed circular aperture(s)              [count]
#   7 FLUXERR_APER           RMS error vector for aperture flux(es)                     [count]
#   8 FLUX_RADIUS            Fraction-of-light radii                                    [pixel]
#   9 FWHM_IMAGE             FWHM assuming a gaussian core                              [pixel]
#  10 BACKGROUND             Background at centroid position                            [count]
#  11 THRESHOLD              Detection threshold above background                       [count]
#  12 FLUX_MAX               Peak flux above background                                 [count]
#  13 ISOAREA_IMAGE          Isophotal area above Analysis threshold                    [pixel**2]
#  14 A_IMAGE                Profile RMS along major axis                               [pixel]
#  15 B_IMAGE                Profile RMS along minor axis                               [pixel]
#  16 THETA_IMAGE            Position angle (CCW/x)                                     [deg]
#  17 FLAGS                  Extraction flags                                          
         1    740.7108      1.5435 300.4424008 +22.5804848     484.7836     55.83472      1.431     4.35     -2.11908     19.80403      71.8004        12     1.481     0.594  -0.75  24
         2    644.4950      1.7271 300.4123734 +22.5517179     1062.166     56.88136      1.330     3.54    -1.361618     19.80403     115.0141        14     1.188     0.702  -2.40  24
         3    942.6919   1017.1445 300.1752448 +22.9327169     1118.073     70.24821      1.042     1.64    -5.130701     19.80403     275.6281        13     0.848     0.735 -85.86   0
         4    103.6368   1022.6341 299.9123631 +22.6823462     937.2723     60.05814     11.270    15.83     2.333034     19.80403     44.39739        35     4.121     1.691  26.67  27
         5     80.7461   1021.9102 299.9054893 +22.6752595     1204.524     63.37289      4.497     8.71    0.4974084     19.80403     48.96802        23     1.908     1.110 -45.35  27
         6     88.8137   1010.1719 299.9118177 +22.6743223     2111.679      70.1946     10.471    32.55     0.606271     19.80403     53.25806       220     7.421     3.963 -18.19  18
         7    441.3571   1013.7880 300.0202185 +22.7812702     233.2183      70.1946      1.070     3.39    -5.454316     19.80403     30.06433         5     0.745     0.447 -73.16   0
         8    731.8442   1006.0677 300.1131511 +22.8662691     555.5806     70.17671      1.769     5.24    -5.534849     19.80403     61.46571         8     1.246     0.623  62.84   0
         9    766.4308   1000.1345 300.1258568 +22.8749476     570.7206      70.1946      1.129     2.24    -5.488631     19.80403      102.843         9     0.859     0.602  36.74   0
        10    788.6071    994.0924 300.1347331 +22.8798697     6497.189     70.10514      1.126     1.88    -5.426346     19.80403     1201.503        31     0.991     0.959 -44.76   0
        11    979.4004    993.3035 300.1944550 +22.9368881     183.1837     70.06933      0.932     3.43    -5.044504     19.80403     50.10542         5     0.741     0.458  72.61   0
        12     92.2558   1021.7800 299.9091064 +22.6786813     1738.407     63.94463      6.937    13.23     1.726183     19.80403     54.47571        52     2.617     1.861 -35.79  27
        13     85.6996   1022.3234 299.9068932 +22.6768666     1124.238     61.64622      3.591     8.18     1.055942     19.80403      56.6804        26     1.809     1.332 -43.66  27
        14    796.9792    975.9725 300.1432427 +22.8771842     777.9367      70.1946      1.121     1.90    -5.234107     19.80403     167.2726        10     0.802     0.669 -11.33   0
        15    979.8579    974.5903 300.2006923 +22.9316551     336.9907     70.15882      1.056     2.48    -4.979857     19.80403      70.6274         6     0.959     0.401  61.38   0
        16    835.2065    969.6916 300.1571990 +22.8868530     479.4617     70.10514      1.338     2.50    -5.087516     19.80403      62.7553         8     0.743     0.697  66.57   0
        17    943.3442    966.3807 300.1919817 +22.9183461     243.5094     70.17671      1.259     3.49    -4.947533     19.80403     45.69778         5     0.762     0.463  14.09   0
        18    883.8310    960.9683 300.1751932 +22.8989391     397.1286      70.1946      1.201     2.74    -4.927562     19.80403     62.50848         9     0.784     0.747 -42.96   0
        19    734.9617    959.9427 300.1291436 +22.8539750     546.3422      70.1946      1.378     1.87     -5.07935     19.80403     89.15577         9     0.720     0.710 -73.89   0
        20    447.6431    956.4039 300.0408612 +22.7667092      2473.84     70.21247      1.276     2.29    -5.040502     19.80403     313.9489        23     1.072     0.974 -66.89   0
        21    746.4913    956.7818 300.1337642 +22.8565283     344.7473     70.12304      0.933     1.90    -5.047087     19.80403       76.032         5     0.667     0.475  70.48   0
        22    109.1161    945.0196 299.9393383 +22.6617615     176.1208     70.14093      1.323     4.57    -3.397942     19.80403      27.2944         7     0.894     0.663  33.18   0
        23     89.5967    943.9990 299.9336078 +22.6556040     239.9786     69.97971      1.477     3.84    -3.689467     19.80403     36.77702         5     1.011     0.554 -14.85   0
        24    173.0356    942.2515 299.9600966 +22.6801733     382.2772     70.21247      1.242     3.19    -3.343815     19.80403     67.45786        11     1.073     0.666  71.66   0
        25    150.1263    939.2850 299.9539448 +22.6724405     975.3584     70.30179      1.160     2.42    -3.558744     19.80403      133.372        14     0.958     0.774 -43.13   0
        26     81.3133    940.5663 299.9321527 +22.6521317     179.0753     70.15883      0.906     3.37     -4.04317     19.80403     42.93808         5     0.720     0.483 -12.02   0
        27   1021.4431    927.7743 300.2289053 +22.9306913     1139.307     65.18865      1.023     1.83    -4.814905     19.80403     227.6187        14     0.940     0.749 -37.07  16
        28    975.8239    926.2838 300.2151651 +22.9165812      1323.69     70.15882      1.104     1.81    -4.814178     19.80403     240.2986        16     0.915     0.807 -59.57   0
        29    759.2541    920.2306 300.1496412 +22.8498729      436.424     70.21247      1.126     2.84    -4.733172     19.80403     73.45087         6     0.769     0.512  45.68   0
        30    507.3764    918.8036 300.0716877 +22.7738642     239.9548     70.15882      1.319     2.98    -4.847039     19.80403     30.99102         5     0.730     0.451 -71.94   0
        31    627.5850    914.4471 300.1105202 +22.8086994     2793.916     70.21247      1.229     2.26    -4.787302     19.80403     384.3719        20     1.028     0.872 -89.23   0
        32    117.3048    915.4422 299.9515109 +22.6557488     333.7035      70.1946      1.361     3.36    -4.517216     19.80403     37.79293         5     0.718     0.475  15.54   0
        33    429.8449    911.2949 300.0500115 +22.7484333     365.0208     70.21247      1.538     4.47    -4.831041     19.80403     41.63043         7     1.025     0.553  24.11   0
        34    177.8160    908.5540 299.9725522 +22.6719546     739.5919     70.21247      1.115     2.62    -4.193939     19.80403      104.411        13     0.912     0.805  24.09   0
        35    648.1859    907.1267 300.1193174 +22.8127828      476.671      70.1946      1.325     3.19    -4.785939     19.80403     65.87183         8     0.933     0.578 -86.47   0
        36    197.1577    905.6279 299.9795146 +22.6769265     169.4394     70.21247      0.779     2.01    -4.185297     19.80403     47.00401         5     0.689     0.448 -20.14   0
        37    803.4677    894.1273 300.1719138 +22.8556498     2534.852     70.24821      1.280     2.41    -4.655889     19.80403     360.9363        22     1.009     0.964 -34.94   0
        38   1020.3214    894.1681 300.2394973 +22.9207082      652.669     68.80411      1.112     1.73    -4.823341     19.80403     116.5551         8     0.771     0.576 -81.95  16
        39    534.4338    891.1935 300.0890959 +22.7740699     189.8133      70.1946      0.954     3.45    -4.836156     19.80403     28.54188         5     0.780     0.440  69.31   0
        40    212.0350    888.5492 299.9896971 +22.6765015     401.3907     70.21247      1.291     3.16    -4.189999     19.80403     45.89681         6     0.770     0.497  -1.16   0
        41    520.7158    886.5449 300.0863402 +22.7686189     456.6134     70.26608      1.244     2.45    -4.829109     19.80403     65.93386         7     0.868     0.531 -60.60   0
        42    167.1342    884.8093 299.9769625 +22.6619421     596.1158     70.15882      1.276     2.57    -4.262321     19.80403     83.36507        11     0.880     0.765  65.96   0
        43    582.2153    879.9946 300.1076127 +22.7852008     417.3783     70.10514      1.516     4.95    -4.798992     19.80403     35.83792         8     1.002     0.693  68.93   0
        44    316.6831    876.9037 300.0260157 +22.7045941     31104.89     70.35532      1.311     2.29    -4.230945     19.80403     4698.539        61     1.175     1.146 -79.92   0
        45    574.5025    875.8300 300.1065676 +22.7816913     915.0294     70.14094      1.304     2.60    -4.805349     19.80403      123.773        14     0.973     0.818 -68.92   0
        46    987.2410    874.6705 300.2355289 +22.9051906     546.5803     70.15883      1.151     2.39    -4.811666     19.80403     101.7502         7     0.826     0.549 -60.19   0
        47    603.6875    871.9529 300.1169142 +22.7893390     511.1509     70.17671      1.430     2.59    -4.773113     19.80403     72.35709         9     0.900     0.644 -41.66   0
        48      2.7734    871.7477 299.9301657 +22.6088188     446.2694     61.95085      1.255     3.50    -4.616893     19.80403      66.0876         7     0.895     0.671  83.14  16
        49    614.2549    869.0668 300.1211434 +22.7916828      288.331     70.24821      1.479     4.41    -4.764283     19.80403     48.46439         7     0.996     0.556  71.98   0
        50    719.5494    866.1968 300.1548645 +22.8224574     170.7584      70.1946      1.189     2.99    -4.644866     19.80403     41.46914         7     0.841     0.596 -16.19   0
        51    757.1758    856.8422 300.1696294 +22.8310630     477.7826     70.24821      1.259     3.19    -4.537211     19.80403     57.68569         9     0.905     0.701 -16.03   0
        52    366.4047    854.1294 300.0488887 +22.7129963     18145.77     70.14094      1.350     2.49      -4.2597     19.80403     2347.034        49     1.192     1.127  56.07   0
        53    380.6929    854.5855 300.0531836 +22.7174172      1287.73     70.12304      1.499     2.50    -4.363019     19.80403     155.8283        20     1.124     0.982 -57.20   0
        54    889.3450    849.7313 300.2131277 +22.8686713     1632.857     70.23034      1.190     2.24    -4.387168     19.80403     237.0131        19     1.029     0.849 -56.98   0
        55    647.3544    845.9272 300.1389802 +22.7949786     449.3659      70.1946      1.210     2.61      -4.4748     19.80403     84.38307         7     0.703     0.685 -34.53   0
        56    249.0707    845.8000 300.0151212 +22.6753738     551.9892     70.10514      1.482     3.77    -4.172033     19.80403     62.77388        10     0.955     0.801  39.92   0
        57     53.8416    841.8246 299.9557613 +22.6155910      303.228     70.24821      1.160     3.80     -4.61724     19.80403     50.88282         6     1.055     0.412 -64.03   0
        58    494.5818    840.7883 300.0931017 +22.7476525     488.8252     70.15883      1.325     2.96    -4.423278     19.80403     74.07371         9     0.888     0.757 -73.38   0
        59    895.8679    837.4864 300.2191464 +22.8671132     339.6842     70.30179      1.345     3.37    -4.416599     19.80403     52.28181         6     0.833     0.737  76.76   0
        60    352.3712    836.6722 300.0502064 +22.7037779     153.8324      70.1946      1.533     4.28    -4.162871     19.80403      29.2216         5     1.235     0.424 -52.57   0
        61     82.1500    835.3724 299.9666527 +22.6222470     397.8361     70.21247      1.269     3.87    -4.629447     19.80403     44.36314         7     0.865     0.603  78.62   0
        62    246.3987    830.3151 300.0193302 +22.6701331     319.7298     70.08723      1.106     2.98    -4.173618     19.80403     53.72482         7     0.814     0.636 -32.26   0
        63    569.7559    820.6016 300.1230658 +22.7644264     371.7769     70.17671      1.386     3.87    -4.128664     19.80403     42.56536         6     1.002     0.429  88.46   0
        64    539.5230    818.7245 300.1142672 +22.7548143       310.92     70.28394      1.295     3.75    -4.102936     19.80403     38.04029         7     0.958     0.486  82.12   0
        65    561.2802    816.1678 300.1218706 +22.7606109     806.8691      70.1946      1.367     3.27    -4.053776     19.80403       83.043        14     1.086     0.871   5.14   0
        66    955.5281    814.9602 300.2450764 +22.8785395     2756.926     70.17671      1.224     2.19    -4.622281     19.80403     399.2968        24     1.053     0.934 -48.16   0
        67    944.2208    806.1917 300.2444048 +22.8726315     1043.858     70.15882      1.333     2.66    -4.530495     19.80403     140.9459        14     0.939     0.903  18.10   0
        68    307.1320    800.7357 300.0478348 +22.6798919     511.2507     70.24821      1.379     3.65    -4.146481     19.80403     70.70052        13     1.059     0.910  10.10   0
        69    770.4934    797.7102 300.1930232 +22.8180905     1590.603     70.35532      1.478     2.72    -4.086494     19.80403     157.7126        17     1.099     0.894   9.55   0
        70    975.2245    796.3901 300.2572611 +22.8791146     1003.258      70.1946      1.216     2.41    -4.653393     19.80403     145.5186        11     0.829     0.768 -56.72   0
        71    156.1367    784.7924 300.0060941 +22.6299773     353.6095     70.17671      1.403     2.47    -4.168366     19.80403     59.85755         6     0.843     0.597  11.65   0
        72    852.7523    783.5413 300.2232647 +22.8386979     307.2624     70.24821      1.435     3.60    -4.086565     19.80403     41.61383         7     0.954     0.478  -9.74   0
        73    888.8953    774.6813 300.2374123 +22.8469943     84481.05     70.35532      1.324     2.44     -4.10878     19.80403     10965.22       101     1.222     1.204  77.34   0
        74    741.3640    774.8867 300.1913760 +22.8028025     331.2018     70.17671      1.365     2.93    -3.870125     19.80403      54.4249         9     0.928     0.642  22.64   0
        75    575.2561    763.7482 300.1432779 +22.7497685     897.8181     70.23035      1.424     3.34    -3.684411     19.80403     108.2267        15     1.062     0.890 -11.15   0
        76    756.3890    760.8322 300.2006294 +22.8032763     5324.264      70.1946      1.406     2.77    -3.844039     19.80403     606.5461        31     1.149     1.073 -27.93   0
        77    258.0282    756.2846 300.0470329 +22.6524045     2841.492      70.1946      1.423     2.95     -4.23996     19.80403     309.7797        24     1.155     1.018  51.44   0
        78    340.2127    754.5909 300.0731341 +22.6765941     640.3209     70.08723      1.408     2.91    -3.898028     19.80403     78.46709        12     0.948     0.853 -43.12   0
        79    215.9615    751.8712 300.0353943 +22.6385076     346.7289     70.15882      1.982     3.75    -4.292774     19.80403     33.39614         5     0.825     0.489  61.25   0
        80    548.2739    750.1758 300.1392956 +22.7377781     321.8643     70.23034      1.371     3.38    -3.632867     19.80403     52.38467         8     0.994     0.613  37.59   0
        81    539.8256    741.9112 300.1393550 +22.7328720     1853.084     70.14094      1.539     3.19    -3.603332     19.80403     178.4277        23     1.195     1.061 -17.95   0
        82    530.2289    735.4229 300.1384792 +22.7281309     1010.606      70.1946      1.694     4.40    -3.581313     19.80403     93.60386        20     1.310     1.062  87.56   0
        83    923.7606    733.0562 300.2618239 +22.8454995     394.7617      70.1946      1.594     4.65    -4.105446     19.80403     31.34465         8     1.023     0.601  24.43   0
        84    193.6675    731.7124 300.0350240 +22.6260344     374.6931     70.30179      1.445     3.99    -4.209918     19.80403     54.50395         8     0.918     0.679  30.81   0
        85    207.9695    730.3400 300.0399148 +22.6299356     359.5015     70.23034      1.415     4.12    -4.259344     19.80403     44.92697         7     0.780     0.621  20.70   0
        86    976.8602    726.5889 300.2804832 +22.8595634     378.5835     70.15882      1.461     2.99     -4.33875     19.80403     52.22822         6     0.904     0.534 -70.73   0
        87    455.0486    725.4991 300.1183149 +22.7027219     1049.441     70.23034      1.590     3.37    -3.591808     19.80403     98.27143        19     1.211     0.975 -67.85   0
        88    109.0558    720.5523 300.0123663 +22.5974258     11647.48     70.23034      1.392     2.66     -3.96773     19.80403     1332.416        47     1.242     1.142  59.21   0
        89     29.8312    722.1791 299.9872319 +22.5740964     334.3702      70.1946      1.344     3.81    -3.547771     19.80403     49.87576         8     0.912     0.658   3.79   0
        90    539.9971    720.5992 300.1463415 +22.7268097     597.3385     69.97971      1.477     3.72    -3.557627     19.80403     64.09425        11     1.096     0.744 -36.07   0
        91    957.8101    706.5665 300.2810571 +22.8481026     618.1257     70.17671      1.313     3.51    -4.164043     19.80403     74.10435        13     1.076     0.898 -79.83   0
        92     55.2258    705.0440 300.0006912 +22.5768137     822.2839     70.21247      1.820     6.33    -3.645451     19.80403     68.23705        17     1.535     0.832  82.91   0
        93    121.5126    705.4682 300.0211422 +22.5968434     234.0604     70.30179      1.145     4.62    -3.820603     19.80403     36.92934         7     0.936     0.647 -70.16   0
        94    503.5053    701.5050 300.1411966 +22.7103815     223.4847     70.35532      1.387     4.02     -3.49993     19.80403     38.09193         5     0.964     0.499  87.43   0
        95    898.0305    699.1666 300.2648280 +22.8280543     435.1032     70.21247      1.550     3.16    -3.739372     19.80403      56.6685         9     0.986     0.597  29.04   0
        96    460.1614    693.8049 300.1302150 +22.6951654      316.091     70.21247      1.296     4.87    -3.490212     19.80403     45.61258         9     1.102     0.626 -75.47   0
        97    625.5245    690.1609 300.1828655 +22.7437381     419.5859     70.15882      1.488     4.33    -3.646579     19.80403      45.1395         8     0.996     0.669  51.14   0
        98    504.4129    689.6105 300.1453478 +22.7072417     547.3971     70.10514      1.621     4.99    -3.470711     19.80403     48.79314        11     1.028     0.852 -71.73   0
        99    937.8329    684.5579 300.2819879 +22.8357934     1915.862     70.24821      1.397     2.85    -3.904267     19.80403     199.1629        20     1.073     0.979  33.00   0
       100    469.7655    684.8154 300.1361270 +22.6954689     910.2965      70.1946      1.480     3.89    -3.449582     19.80403     95.49391        18     1.222     0.988   3.40   0
       101     31.8803    678.8376 300.0019645 +22.5622914     2823.536     70.15883      1.369     2.53    -3.531827     19.80403     397.5935        23     1.103     0.989 -86.68   0
       102    333.2210    671.7202 300.0979161 +22.6507315     5350.166     70.17671      1.552     3.05    -3.665568     19.80403     607.5844        35     1.271     1.175  43.32   0
       103    455.5279    668.6777 300.1369460 +22.6865670     5129.689     70.30179      1.582     3.36    -3.415032     19.80403     509.1823        32     1.222     1.189 -32.56   0
       104    867.1199    662.3982 300.2671531 +22.8082290     1080.484     70.10514      1.455     3.21    -3.544379     19.80403     104.5184        17     1.125     0.910  58.70   0
       105    951.6887    659.7106 300.2943896 +22.8328121     7299.049     70.35532      1.374     2.77     -3.89512     19.80403     798.8552        32     1.098     1.096 -46.66   0
       106    516.0752    658.2463 300.1591777 +22.7017430     6597.578      70.1946      1.568     3.12    -3.336422     19.80403     643.3936        35     1.244     1.183  58.33   0
       107    243.6608    653.8496 300.0758853 +22.6187219     764.8352     70.24821      1.571     3.24    -3.855387     19.80403     98.32394        16     1.299     0.803  46.14   0
       108    685.5366    653.7467 300.2133955 +22.7512899     381.6757     70.24821      1.790     5.45    -3.724461     19.80403     31.45007         8     1.014     0.825  61.50   0
       109    490.8749    651.0587 300.1536735 +22.6921194      251.326     70.24821      1.375     4.02    -3.273527     19.80403     44.95935         6     0.815     0.566 -62.48   0
       110    447.8209    646.4028 300.1417923 +22.6778643     2580.175     70.14094      1.615     3.51    -3.343755     19.80403     218.7988        26     1.255     1.103  72.76   0
       111    790.3677    646.2919 300.2484741 +22.7805901     343.5597     70.14094      1.363     4.14    -3.514425     19.80403     48.90606        12     1.072     0.936 -11.65   0
       112    426.0789    644.7659 300.1355611 +22.6708701     806.8608     70.14094      1.579     3.54    -3.411738     19.80403     82.56604        14     1.113     0.859   9.71   0
       113    180.2258    644.3572 300.0592579 +22.5969554     355.1172     70.23034      1.445     4.48    -3.684938     19.80403     50.55957         7     0.856     0.665 -25.15   0
       114    867.3865    641.4928 300.2740353 +22.8023064     1049.222     70.12304      1.601     3.77    -3.534902     19.80403     88.28796        18     1.253     0.925 -63.86   0
       115    747.7230    639.0273 300.2375512 +22.7657160     454.2733      70.1946      1.873     5.67    -3.548021     19.80403     33.31066        11     1.134     0.797 -67.41   0
       116    564.3488    633.9329 300.1821084 +22.7092502     117686.1     70.21247      1.631     3.41    -3.253081     19.80403     10860.49       150     1.499     1.466 -34.82   0
       117    250.6571    634.1091 300.0844791 +22.6151617     2035.953     70.24821      1.558     2.97    -3.703234     19.80403     215.7015        24     1.215     1.067 -49.03   0
       118    816.8547    630.4911 300.2618655 +22.7839962     347.9702     70.24821      1.702     5.09     -3.45482     19.80403      38.1471         7     1.036     0.706 -44.17   0
       119    455.0360    614.3799 300.1544500 +22.6708425     1527.696     70.21247      1.687     3.79    -3.189115     19.80403     122.2954        23     1.268     1.135 -88.18   0
       120    851.7582    600.1704 300.2826019 +22.7857552     888.0447     70.23034      1.542     3.63    -3.433725     19.80403     86.74257        17     1.168     0.947 -74.51   0
       121    723.0320    597.9291 300.2432243 +22.7465133      1469.54      70.1946      1.639     3.59    -3.439323     19.80403     125.6442        22     1.275     1.106 -53.11   0
       122    933.3151    594.7280 300.3097934 +22.8086417     269.2919     70.30179      1.526     4.36    -3.517574     19.80403     32.81986         5     0.750     0.721 -33.26   0
       123    510.8230    593.8143 300.1784947 +22.6816800     363.7998      70.1946      1.334     4.25    -3.033162     19.80403      47.4981         7     1.013     0.756  72.53   0
       124    980.3899    591.7549 300.3254377 +22.8218980     807.8226     70.21247      1.418     2.99    -3.487916     19.80403      93.9944        14     0.990     0.914 -89.74   0
       125    852.0350    590.3340 300.2858865 +22.7830136     1409.441      70.1946      1.872     4.40    -3.380745     19.80403     99.13063        25     1.455     1.112  73.87   0
       126    966.3210    591.3669 300.3211770 +22.8175697     487.2686     70.17671      1.829     4.04    -3.481565     19.80403     45.81351         6     0.978     0.477   4.47   0
       127    606.0292    588.2052 300.2099516 +22.7086306     342.3448     70.17671      1.947     4.90    -3.270764     19.80403     30.70256         6     1.311     0.520  75.03   0
       128    890.2610    585.4456 300.2993901 +22.7930696     2562.014     70.21247      1.504     3.05    -3.400807     19.80403     246.0692        27     1.246     1.073 -57.75   0
       129    122.6672    576.0010 300.0635990 +22.5600758     543.4775     70.15882      1.498     4.10    -3.473791     19.80403     60.40396        10     1.128     0.642  68.95   0
       130    981.9144    575.7935 300.3311028 +22.8177701     331.6485     70.12304      1.387     3.90     -3.35556     19.80403     61.46022         9     0.976     0.822  83.49   0
       131    978.2767    564.8008 300.3335424 +22.8135221     74.56496     70.08723      1.178     4.31    -3.266059     19.80403     31.44497         5     0.754     0.703  28.68   0
       132    723.1797    559.8437 300.2556526 +22.7356237     298.9988     70.23034      1.409     3.68    -3.229604     19.80403     35.50364         5     0.900     0.432 -44.29   0
       133    663.8290    555.9060 300.2384486 +22.7166952     342.2454     70.12304      1.473     5.53    -3.209824     19.80403      43.2757        10     1.056     0.820  43.20   0
       134    724.6617    548.4886 300.2598056 +22.7328080     353.9122     70.26608      1.406     2.90    -3.163162     19.80403     49.25147         9     0.869     0.741 -26.85   0
       135    978.3772    548.3243 300.3389303 +22.8088192     216.9235     70.23034      1.196     3.43    -3.126211     19.80403     49.62107         5     0.748     0.456  73.94   0
       136    881.6801    544.3852 300.3100646 +22.7787048     526.6417     70.17671      1.486     3.96    -3.135703     19.80403     71.12125        12     1.069     0.860  80.74   0
       137    865.4500    541.0942 300.3060757 +22.7728945     290.9137     70.24821      1.646     5.37    -3.136383     19.80403     30.58232         7     1.337     0.609  72.57   0
       138    610.2316    538.9142 300.2272839 +22.6957433     1692.594      70.1946      1.640     3.80    -3.034169     19.80403     153.8056        23     1.253     1.121 -38.89   0
       139    970.4100    537.6907 300.3399028 +22.8033767     437.0638     70.14094      1.819     4.35    -3.084772     19.80403     36.20872         5     1.200     0.448  32.74   0
       140   1021.6703    517.7644 300.3623657 +22.8130135      662.853     64.33597      1.396     3.26    -2.940912     19.80403     86.91434        15     0.999     0.976  -8.50  24
       141    979.7576    516.2913 300.3497737 +22.8000305     549.4326      70.1946      1.268     3.17    -3.002832     19.80403     70.22913         9     0.874     0.710 -78.13   0
       142    893.8657    517.2559 300.3226816 +22.7745653     309.9644     70.24821      1.442     3.41    -3.100385     19.80403     29.48034         5     0.980     0.344  43.12   0
       143    720.8181    512.3436 300.2703574 +22.7212776     680.4832     70.17671      1.698     4.48    -3.133334     19.80403     65.54068        14     1.379     0.867  34.46   0
       144    225.4531    511.1980 300.1166013 +22.5723470     389.6092     70.15882      1.443     4.63    -3.270324     19.80403     43.65763         8     0.979     0.622 -28.35   0
       145    287.3671    506.9093 300.1372409 +22.5896980     2137.898     70.15882      1.616     3.20    -3.405057     19.80403      238.643        25     1.235     1.142 -76.16   0
       146   1020.2130    504.8930 300.3660949 +22.8088786     2512.161     69.00446      1.446     2.89    -2.878123     19.80403     269.7239        22     1.133     1.047 -30.96  24
       147    234.5707    501.6553 300.1225365 +22.5723463     4443.725      70.1946      1.668     3.26    -3.265897     19.80403     449.1425        37     1.312     1.269  63.94   0
       148   1000.1057    495.9745 300.3627228 +22.8002910     1001.891     70.12304      1.410     2.94    -2.883907     19.80403      101.587        17     0.999     0.982  13.52   0
       149    375.1451    495.8381 300.1681334 +22.6128606     2618.933      70.1946      1.688     3.52    -3.088728     19.80403     253.9307        27     1.263     1.227  44.68   0
       150    619.3152    492.4141 300.2452258 +22.6851191     10486.93     70.14094      1.778     3.99    -2.972978     19.80403     837.6945        53     1.422     1.383  60.81   0
       151    952.8875    474.5985 300.3549462 +22.7800001     451.6409     70.12304      1.497     4.57    -2.980249     19.80403     43.06232        11     1.047     0.776 -48.78   0
       152    174.3217    472.7370 300.1132098 +22.5459695     1242.713     70.28394      1.606     3.27    -3.162865     19.80403     132.7178        22     1.177     1.129  77.95   0
       153    560.0468    461.9053 300.2366900 +22.6585867     3776.354     70.21247      1.752     3.86    -2.628985     19.80403     313.4673        33     1.342     1.277  78.04   0
       154    973.4609    461.8928 300.3654903 +22.7825146     722.4333     70.28394      1.506     3.62    -2.953001     19.80403     64.31837        11     0.983     0.777 -76.12   0
       155    276.0471    461.8251 300.1483725 +22.5733676       322.95     70.21247      1.276     3.27    -3.274233     19.80403     38.39787         6     0.742     0.576 -48.83   0
       156    132.6191    454.6795 300.1061199 +22.5282737     243.7914      70.1946      1.221     3.43    -3.117757     19.80403     40.35352         5     0.996     0.341 -68.31   0
       157    764.2283    450.7035 300.3039124 +22.7165913      631.717     70.14094      1.806     6.25     -3.14292     19.80403     44.78037        14     1.309     0.840  73.42   0
       158    466.7173    448.2015 300.2120988 +22.6266613     3600.343     70.10514      1.768     3.81    -2.651441     19.80403     295.2245        36     1.406     1.262  75.03   0
       159    956.1788    442.7329 300.3663277 +22.7718310     342.7566     70.17671      1.271     3.44    -3.021574     19.80403      39.1605         6     0.758     0.563 -47.40   0
       160    858.4567    442.1762 300.3360453 +22.7423859     841.1184      70.1946      1.776     4.68    -3.105663     19.80403     67.35532        17     1.145     1.013  86.83   0
       161    831.6330    429.9931 300.3316443 +22.7308469     369.6945      70.1946      1.719     4.68    -3.127389     19.80403     47.97855         5     1.124     0.721 -89.10   0
       162    354.3658    427.6651 300.1838232 +22.5870650     1381.961      70.1946      1.683     3.46    -2.831899     19.80403     126.6031        23     1.255     1.142  83.40   0
       163     72.8646    424.6867 300.0973021 +22.5017363     460.1157     70.28394      1.532     5.29    -3.088177     19.80403     52.91246        11     1.030     0.824  52.42   0
       164    323.6288    416.9583 300.1777435 +22.5747713     16971.06     70.21247      1.742     3.61     -2.90415     19.80403     1427.558        54     1.425     1.359  69.31   0
       165    858.3849    414.0297 300.3451683 +22.7342787     738.5415      70.1946      1.521     3.80    -3.128317     19.80403     73.73837        16     1.121     1.010  -0.54   0
       166     20.0106    405.0692 300.0872602 +22.4802451     2826.364     70.17671      1.497     2.94      -3.1017     19.80403     294.9026        24     1.120     1.095  82.92   0
       167    773.5668    403.2252 300.3222482 +22.7057540     302.3305     70.21247      1.528     3.81    -3.160245     19.80403     31.48105         5     1.028     0.405   6.31   0
       168    733.9073    396.3179 300.3121371 +22.6918824      1028.09     70.33749      1.675     3.73    -3.151326     19.80403     97.98479        17     1.108     1.018 -85.59   0
       169    949.1272    389.0674 300.3815655 +22.7542979     452.3799     70.24821      1.563     5.88    -3.062789     19.80403     45.63639        12     1.027     0.948 -57.37   0
       170    395.7819    381.2956 300.2117678 +22.5861815     1101.415     70.10514      1.796     4.28    -2.459438     19.80403     83.36578        21     1.233     1.120  89.79   0
       171    834.8613    374.4354 300.3507002 +22.7158542     390.6467     70.21247      1.513     4.30    -3.169786     19.80403     31.50206         7     1.140     0.463 -49.16   0
       172    471.7625    360.8499 300.2420463 +22.6031008     719.9568      70.1946      1.699     3.83    -2.345268     19.80403     57.47743        14     1.102     0.869 -36.61   0
       173    716.2347    352.2586 300.3209445 +22.6739302     1203.173      70.1946      1.775     5.26    -2.945909     19.80403     87.81068        20     1.281     1.155  34.70   0
       174    977.4431    346.4997 300.4042226 +22.7505483     1702.192     70.17671      1.510     3.14    -3.063078     19.80403     183.9196        22     1.200     1.027 -69.00   0
       175    425.1516    336.2310 300.2355408 +22.5820551     307.8542     70.23034      1.717     5.17    -2.370924     19.80403     32.97894         7     1.219     0.619 -79.97   0
       176    130.7318    331.3833 300.1455839 +22.4923413     334.1836      70.1946      0.992     2.81    -2.969337     19.80403     60.76499         5     1.001     0.289 -69.49   0
       177     99.8616    330.6191 300.1362418 +22.4828585     811.8752     70.17671      1.779     4.14    -2.993301     19.80403      66.2124        15     1.128     0.917 -13.28   0
       178    993.7707    327.1693 300.4155928 +22.7498837     267.5699      70.1946      1.576     4.56    -3.058934     19.80403     29.19001         5     0.790     0.748  28.67   0
       179    978.0759    319.6770 300.4131318 +22.7430288     206.3707     70.28394      1.159     4.18    -3.071037     19.80403     31.17933         5     1.052     0.474  64.37   0
       180    885.9742    302.7293 300.3899209 +22.7105664     1174.222      70.1946      1.707     3.86    -3.143991     19.80403     108.9968        23     1.293     1.187  21.01   0
       181    304.8468    300.3742 300.2097696 +22.5356803     1212.752     70.21247      1.716     3.84    -2.506065     19.80403     118.8612        18     1.116     1.068 -14.38   0
       182    784.2714    294.1308 300.3610181 +22.6776223     272.4552     70.26608      1.500     5.72    -2.652271     19.80403     43.10576         7     1.288     0.857  25.87   0
       183    382.5279    295.3029 300.2355734 +22.5575234     608.2775     70.31964      1.815     4.65    -2.421175     19.80403     52.18051         8     1.030     0.596  18.20   0
       184    199.6065    287.4934 300.1812377 +22.5004139     459.3101     70.08723      1.830     3.44    -2.653901     19.80403     44.03883         7     0.869     0.820  56.30   0
       185    737.1417    284.2558 300.3495418 +22.6606617      1013.87     70.26608      1.840     3.66    -2.522811     19.80403     91.37423        21     1.203     1.153  -7.93   0
       186    802.5105    283.5731 300.3701296 +22.6800542     206.2017     70.15883      1.505     4.89    -2.637974     19.80403     29.37154         6     1.046     0.789 -42.12   0
       187    220.9752    281.1820 300.1899283 +22.5050133     225.4378      70.1946      1.459     4.18    -2.557742     19.80403     34.10012         6     1.034     0.573 -23.02   0
       188   1008.4713    276.0710 300.4367718 +22.7395991     578.7679     70.24821      1.719     4.19    -3.007096     19.80403     62.63971        13     1.151     0.852 -88.36   0
       189    741.3242    275.7289 300.3536135 +22.6594654     418.6495     70.26608      1.774     4.82    -2.521271     19.80403     41.92707         9     1.063     0.915  -0.04   0
       190    661.9310    275.0735 300.3290982 +22.6354831     635.8832     70.26608      1.548     4.20    -2.448007     19.80403     63.48572        11     0.931     0.871 -10.57   0
       191    857.0281    266.2533 300.3927432 +22.6914119     740.5094     70.21247      1.533     3.61    -2.917296     19.80403     75.84536        16     1.150     0.938  71.01   0
       192    588.3115    266.7387 300.3088822 +22.6110222     507.7249     70.26608      1.629     5.56    -2.405231     19.80403     44.99619         9     1.354     0.643 -85.50   0
       193    868.9726    265.5979 300.3966789 +22.6948020     307.4759     70.14094      1.445     4.94    -2.964671     19.80403     33.33635         7     0.988     0.698  22.66   0
       194    985.7347    255.8449 300.4362487 +22.7269750     735.1849      70.1946      1.637     3.47    -2.945027     19.80403     68.24787        14     1.026     0.944  29.33   0
       195      9.8566    253.3268 300.1333835 +22.4336769     325.3276     70.23034      1.545     4.19    -2.165452     19.80403     36.05975         5     1.114     0.449 -57.08   0
       196    220.1750    248.8665 300.2001712 +22.4954995     349.0277     70.17671      1.397     4.97    -2.399751     19.80403     36.93652         7     1.032     0.787  61.26   0
       197     82.0950    243.8516 300.1588950 +22.4526354     1232.761     70.26608      1.645     4.37    -2.380394     19.80403     113.7308        20     1.369     1.013 -71.22   0
       198    904.6416    240.4402 300.4159658 +22.6982570     499.4947     70.28394      1.688     5.98    -2.776943     19.80403     40.52181        10     1.025     0.983  -0.80   0
       199    239.4776    237.3424 300.2099121 +22.4979822     3262.556     70.23034      1.707     3.28    -2.353379     19.80403      355.084        32     1.380     1.166 -85.52   0
       200     23.9502    231.9083 300.1447130 +22.4317621     577.0182     70.23034      1.443     2.96    -2.131373     19.80403     86.85274        14     1.030     0.882 -40.02   0
       201    883.2272    218.5380 300.4164009 +22.6855471     2134.852      70.1946      1.729     3.53    -2.582094     19.80403     199.3347        27     1.244     1.203  54.66   0
       202    986.8189    217.1853 300.4491381 +22.7161860     1560.572     70.17671      1.449     3.12    -2.766935     19.80403     163.5971        20     1.126     1.004  66.80   0
       203    123.3124    202.8972 300.1849933 +22.4532505     364.5781     70.37316      1.550     5.68    -2.215477     19.80403     45.55453         9     1.286     0.707 -70.73   0
       204    484.2735    201.3109 300.2977416 +22.5610440     966.3005     70.35532      1.767     3.76    -2.232612     19.80403     96.92455        18     1.249     1.015  62.57   0
       205    412.2243    201.9810 300.2751077 +22.5396357     415.5209     70.21247      1.811     4.49    -2.292774     19.80403     40.74477         7     1.079     0.532  30.74   0
       206    258.3274    181.2609 300.2339751 +22.4875387     3469.319     70.23034      1.722     3.55      -2.1782     19.80403     360.5021        32     1.366     1.184  80.36   0
       207    109.7172    180.5997 300.1880064 +22.4427736     293.4746     70.06933      1.237     4.59    -2.149696     19.80403     33.21602         7     0.901     0.664 -69.00   0
       208    504.2042    166.4376 300.3152625 +22.5570029     3446.289     70.23034      1.818     3.97     -2.02494     19.80403     283.8909        32     1.343     1.305  83.14   0
       209    390.2065    165.9388 300.2799568 +22.5226850     391.7271     70.15883      1.806     5.14    -2.343586     19.80403     33.68528         5     1.190     0.627 -65.36   0
       210    756.4854    156.3445 300.3970919 +22.6297042      507.847     70.26608      1.664     4.17    -1.984425     19.80403      47.9455         6     1.046     0.474  -2.25   0
       211    632.5499    146.3895 300.3617216 +22.5897095     3487.192     70.21247      1.775     3.97      -1.9875     19.80403      283.826        30     1.354     1.253 -24.39   0
       212    407.3386    145.8444 300.2918071 +22.5220511     907.6234     70.21247      1.910     4.95    -2.167815     19.80403     81.48134        19     1.365     1.192  -4.57   0
       213    673.7641    143.7477 300.3754132 +22.6013002     505.2495     70.21247      1.784     6.09    -1.968672     19.80403     32.92449        11     1.051     0.991 -36.13   0
       214    157.0676    138.0535 300.2165251 +22.4447667     297.3519     70.21247      1.678     4.09    -2.102918     19.80403     29.57565         7     0.903     0.528  46.14   0
       215    958.9036    136.8056 300.4665229 +22.6847165     395.3839     70.10514      1.752     3.99    -2.156182     19.80403     38.77313         7     1.032     0.786 -68.94   0
       216    676.6746    131.1462 300.3804090 +22.5985512     1567.054     70.21247      1.786     3.79    -1.951013     19.80403      169.236        25     1.356     1.191  70.51   0
       217    763.1816    122.7127 300.4100923 +22.6220446     728.6702     70.14094      1.589     4.30    -1.932972     19.80403     72.94073        17     1.111     1.068  27.09   0
       218    701.2374    116.5504 300.3927955 +22.6017162     251.3584      70.1946      1.337     4.21    -1.932781     19.80403     39.90757         6     1.137     0.444 -12.40   0
       219    506.9291    115.4912 300.3326432 +22.5431860     728.6786     70.35532      1.813     4.08    -1.992982     19.80403     57.90078        15     1.148     0.911 -12.66   0
       220    410.9071    113.9553 300.3032649 +22.5139629     475.4521      70.1946      1.556     5.16    -2.096032     19.80403     38.30523         9     1.198     0.627 -19.63   0
       221    749.9736    104.4218 300.4119126 +22.6128310     374.6952     70.17671      1.658     4.15    -1.910232     19.80403     36.39073         5     1.107     0.444 -67.23   0
       222    182.1726    103.7438 300.2354588 +22.4424481     2263.106      70.1946      1.690     3.35    -2.103104     19.80403     223.1918        28     1.302     1.203 -81.53   0
       223    298.1978     95.9099 300.2740668 +22.4749907     766.1891     70.10514      1.728     5.56    -2.098407     19.80403     59.42743        15     1.201     1.090 -66.90   0
       224    743.4672     95.9228 300.4126433 +22.6084392     568.4185     70.28394      1.604     3.88    -1.906435     19.80403     45.79591        11     1.060     0.717 -44.66   0
       225    781.9510     91.0168 300.4262249 +22.6185568     209.9026     70.23034      1.376     4.88    -1.885956     19.80403     31.05656         7     0.925     0.728 -77.02   0
       226    801.0767     87.1891 300.4334263 +22.6231852     1205.916      70.1946      1.611     3.36    -1.870683     19.80403     126.6729        21     1.158     1.100  19.10   0
       227    184.7723     82.9610 300.2430093 +22.4372617     418.8228     70.23034      1.603     4.29    -2.120487     19.80403     52.14441         9     1.058     0.841 -16.05   0
       228    975.4818     80.2286 300.4900510 +22.6734120     407.8143     70.21247      1.486     5.53    -2.191776     19.80403     52.64377        12     1.249     0.827 -82.75   0
       229    750.1578     79.7765 300.4199663 +22.6058026     414.6886     70.24821      1.731     6.39    -1.932707     19.80403     44.74757        10     1.237     0.928  85.22   0
       230    602.5197     65.4227 300.3786426 +22.5574471     350.3763     70.15883      1.455     4.00    -1.957159     19.80403     41.58638         8     0.842     0.787  17.76   0
       231    765.4626     59.7784 300.4312224 +22.6046386     403.4426     70.17671      1.631     4.20    -1.941454     19.80403     46.08781         6     0.917     0.694  72.58   0
       232    573.9332     57.6298 300.3722710 +22.5466425      1047.63     70.17671      1.731     4.11    -1.958904     19.80403     85.34074        18     1.245     1.097  89.18   0
       233    296.8047     55.0901 300.2868760 +22.4628518     418.2399     70.10514      1.542     4.99    -2.077184     19.80403     46.20425         7     1.118     0.702 -57.72   0
       234     11.6098     53.7290 300.1986974 +22.3769354     267.7237     70.17671      1.539     2.59    -2.231018     19.80403     38.52896         5     0.708     0.455  71.21   0
       235    531.1410     51.7408 300.3608613 +22.5321278     700.2541     70.26608      1.574     4.15    -1.977373     19.80403     69.81837        15     1.119     1.049  22.91   0
       236    636.3932     48.3631 300.3947237 +22.5626937     755.5188      70.1946      1.669     3.98    -1.709249     19.80403     69.90856        15     1.094     1.020  38.99   0
       237    456.9091     42.0837 300.3408933 +22.5071076     1322.429     70.33748      1.827     3.92    -2.050296     19.80403     113.6222        23     1.295     1.180 -48.85   0
       238    104.4141     40.3293 300.2318692 +22.4009249     789.9774      70.1946      1.392     3.11     -2.26227     19.80403     87.26716        14     1.096     0.813 -45.53   0
       239    165.1516     21.6827 300.2567888 +22.4137861     731.8649     70.21247      1.728     4.15    -2.260278     19.80403     67.72659        13     1.069     0.946  72.82   0
       240    129.3906   1018.2325 299.9217961 +22.6888250     796.7061     70.17671      4.488     7.54     1.885084     19.80403     30.40074         8     2.160     0.736  57.50  18
