#   1 NUMBER                 Running object number                                     
#   2 X_IMAGE                Object position along x                                    [pixel]
#   3 Y_IMAGE                Object position along y                                    [pixel]
#   4 ALPHA_J2000            Right ascension of barycenter (J2000)                      [deg]
#   5 DELTA_J2000            Declination of barycenter (J2000)                          [deg]
#   6 FLUX_APER              Flux vector within fixed circular aperture(s)              [count]
#   7 FLUXERR_APER           RMS error vector for aperture flux(es)                     [count]
#   8 FLUX_RADIUS            Fraction-of-light radii                                    [pixel]
#   9 FWHM_IMAGE             FWHM assuming a gaussian core                              [pixel]
#  10 BACKGROUND             Background at centroid position                            [count]
#  11 THRESHOLD              Detection threshold above background                       [count]
#  12 FLUX_MAX               Peak flux above background                                 [count]
#  13 ISOAREA_IMAGE          Isophotal area above Analysis threshold                    [pixel**2]
#  14 A_IMAGE                Profile RMS along major axis                               [pixel]
#  15 B_IMAGE                Profile RMS along minor axis                               [pixel]
#  16 THETA_IMAGE            Position angle (CCW/x)                                     [deg]
#  17 FLAGS                  Extraction flags                                          
         1    453.8302     16.2450 300.3409010 +22.5070579     1288.639     70.35589      1.719     3.34    -2.312493     19.83943     109.8472        21     1.129     1.103 -37.38   0
         2    101.1044     14.2583 300.2318464 +22.4007515     813.2413     70.39169      1.441     3.21    -1.973862     19.83943     90.91578        17     1.109     0.956 -41.92   0
         3    585.0598     10.4675 300.3836314 +22.5447170     192.2691     70.35589      1.284     4.45    -1.694806     19.83943     42.85232         5     1.341     0.421 -12.15   0
         4    239.0685   1021.4675 299.9472664 +22.7310382     868.6887      65.2859      4.594     9.31    0.8702488     19.83943     51.61764        17     2.179     1.111  47.24  24
         5    109.7111   1017.3086 299.9084174 +22.6909798     1595.496     70.48109     13.673    20.34     8.415339     19.83943     46.16558        64     4.293     2.676  16.95  27
         6     69.6403   1006.1820 299.8995930 +22.6757513     1748.938     70.33798     12.656    22.37     2.189542     19.83943     49.70435       100     6.174     2.251 -60.68  19
         7     86.6628   1014.9702 299.9020183 +22.6833840     3124.356     70.33798     15.793    38.08     6.247067     19.83943     66.72474       437     7.011     5.740  19.97  27
         8     85.0555    996.9692 299.9073832 +22.6777449     2271.765     70.33798     17.740    30.71     3.726061     19.83943      50.6897       200     7.521     3.480 -13.91  19
         9     80.7614    986.4186 299.9094860 +22.6734324      1863.83     70.33798      8.602    15.59     1.903515     19.83943     44.10654        58     2.866     2.359 -53.59   3
        10     89.0266    982.9992 299.9131676 +22.6749365     2008.135     70.26632     11.287    21.20      2.55797     19.83943      52.0641        96     4.167     2.996  19.99   3
        11     65.9485   1019.3246 299.8941646 +22.6784062     1129.041     70.33798      6.912    10.20     2.493171     19.83943     43.11148        19     1.972     1.471 -39.98  19
        12    569.0214   1018.2728 300.0509599 +22.8292154     950.7075     70.33798      1.240     2.56    -5.178726     19.83943     140.3237        14     0.963     0.822  66.59  16
        13    168.3847   1018.6329 299.9262188 +22.7089895     431.1904     70.30216      2.452     4.12     7.792907     19.83943     25.25552         5     1.000     0.484 -86.76  16
        14    119.6933   1011.3181 299.9134707 +22.6922635     1493.524     70.46322      8.213     8.89      7.52737     19.83943     49.76663        17     1.562     1.412  71.16  19
        15    462.8389   1014.8718 300.0190170 +22.7963585     587.8447     70.28424      1.112     1.99    -5.172608     19.83943     118.0076         9     0.726     0.698 -76.40   0
        16    393.5016   1012.8748 299.9980935 +22.7749636      3733.88     70.44534      1.210     2.06    -5.265263     19.83943     579.3043        24     1.000     0.950  50.02   0
        17    100.4750   1001.6054 299.9106635 +22.6837064     1259.234     70.24839     10.835    11.39      6.29141     19.83943     47.89661        27     2.402     1.505 -13.11   1
        18    939.6928    991.3729 300.1752235 +22.9327385     1290.389     70.26632      1.112     2.07    -5.235809     19.83943     219.9885        14     0.893     0.767 -71.12   0
        19    728.6693    980.6810 300.1129299 +22.8663549     429.3254     70.42746      1.724     5.99    -5.192991     19.83943     44.53041         9     1.854     0.545  66.42   0
        20     69.7373   1022.9371 299.8941646 +22.6805795     794.3334     58.70326      5.056     7.63     3.644151     19.83943     38.82225        17     1.728     0.942 -11.03  27
        21    540.5850    975.6129 300.0560054 +22.8084462     127.8165     70.24839      1.079     3.87    -5.126993     19.83943     30.32982         5     0.984     0.437  74.99   0
        22    763.0540    974.2468 300.1257397 +22.8748277     607.9681     70.35589      1.202     2.94    -5.128613     19.83943     91.99657         8     0.879     0.623  35.55   0
        23    785.4977    968.1002 300.1347361 +22.8797990      6568.78     70.51682      1.167     1.95    -5.066659     19.83943     1013.177        28     1.002     0.930  61.28   0
        24     97.1934    960.3532 299.9230814 +22.6709033     418.1042     70.33798      1.426     2.85    0.2073575     19.83943     66.29284         8     0.915     0.710  48.00   0
        25    836.9831    955.8018 300.1547892 +22.8917181     441.5571     70.23046      1.708     2.66    -5.059813     19.83943     49.70615         8     0.805     0.654 -41.37   0
        26    794.0583    950.1724 300.1432441 +22.8772241     882.6516     70.32008      1.301     2.03    -4.988132     19.83943     152.0909        10     0.807     0.698 -88.84   0
        27    832.2426    943.4551 300.1573335 +22.8867531     543.5462     70.32008      1.377     3.08    -5.010639     19.83943     72.74694         9     0.999     0.637  85.71   0
        28    940.6699    940.2676 300.1921772 +22.9183646     232.6759     70.37379      1.097     2.85    -5.237596     19.83943     37.15852         5     0.732     0.446 -75.00   0
        29    880.3716    934.8984 300.1751243 +22.8987363     242.1592     70.26632      1.138     2.43    -5.082248     19.83943     56.14513         7     0.793     0.586  55.32   0
        30    335.3972    934.4088 300.0055797 +22.7350230     266.5404     70.14073      1.130     3.92    -4.812453     19.83943     29.18038         5     1.092     0.404  74.18   0
        31    731.8187    934.0746 300.1290933 +22.8539301     461.5001     70.32008      1.405     2.09    -4.923834     19.83943     75.93878         8     0.742     0.659  46.12   0
        32    444.6140    930.5087 300.0408273 +22.7667004      2231.84     70.24839      1.222     2.24    -5.148459     19.83943     307.8442        22     1.030     0.949  66.52   0
        33    743.4687    930.8896 300.1337605 +22.8565121     356.9572     70.46322      1.206     2.07    -4.923478     19.83943     57.03681         5     0.693     0.445 -64.89   0
        34    222.6521    919.3485 299.9754266 +22.6968446     160.0346     70.35589      1.097     3.77    -3.688681     19.83943     31.34097         5     1.013     0.403 -15.89   0
        35    169.8885    916.1376 299.9600715 +22.6800751     475.0164     70.39169      1.238     2.69    -3.770486     19.83943     69.60417         7     0.813     0.626 -52.24   0
        36    147.0723    913.4498 299.9538559 +22.6724509     818.4127     70.32008      1.242     2.21    -3.950289     19.83943     132.8055        13     0.974     0.748  53.85   0
        37   1018.3953    901.9974 300.2288856 +22.9306899     1289.957     70.14073      1.148     1.79    -5.184617     19.83943     219.6672        14     0.858     0.773  30.24  16
        38    972.7913    900.4314 300.2151704 +22.9165641     1258.346     70.32008      1.148     1.83    -5.069996     19.83943     216.7517        15     0.987     0.782 -59.03   0
        39    678.3431    901.3675 300.1230865 +22.8285002     291.1149     70.33798      1.444     4.04    -4.686352     19.83943     36.70877         6     0.982     0.475  89.34   0
        40    756.3032    894.2244 300.1497013 +22.8498434     393.6892     70.23046      1.304     3.56    -4.855757     19.83943     48.59782         9     0.871     0.852  88.50   0
        41    179.0811    895.1005 299.9697792 +22.6768082     298.1845     70.44534      1.154     2.26    -4.069414     19.83943     51.52897         6     0.728     0.546  49.08   0
        42    624.4916    888.5839 300.1104770 +22.8086723     2817.206     70.24839      1.258     2.27    -4.742909     19.83943     368.7271        22     1.034     0.944  85.25   0
        43    114.5169    890.2047 299.9513089 +22.6560103     284.3708     70.24839      1.431     5.08    -4.426483     19.83943     35.77982         7     1.040     0.703 -89.77   0
        44    426.9739    885.5293 300.0499865 +22.7485077     383.6411     70.32008      1.254     1.96    -4.906466     19.83943     55.59933         6     0.718     0.499   1.36   0
        45    174.8156    882.7769 299.9724663 +22.6719953     753.2003     70.32008      1.162     2.61    -4.266791     19.83943     123.4874        13     0.993     0.763 -49.39   0
        46    645.2426    881.0853 300.1193815 +22.8127487     408.9155     70.28424      1.355     3.04    -4.680527     19.83943     54.58463         7     0.725     0.673  78.45   0
        47    800.4747    868.2202 300.1719350 +22.8556334     2434.692     70.32008      1.215     2.18    -4.695687     19.83943     362.4872        19     0.958     0.906 -62.18   0
        48   1017.4493    868.1754 300.2396054 +22.9206959     703.5768     70.32008      1.079     2.18     -4.93303     19.83943     97.42109         8     0.705     0.673  37.85   0
        49    208.8118    862.5790 299.9896099 +22.6764178     292.0967     70.30216      1.510     4.12    -4.280543     19.83943     47.67567         6     0.937     0.678  61.21   0
        50    517.5697    860.7921 300.0862365 +22.7686101     326.9036     70.32008      1.363     4.94    -4.539263     19.83943     39.56622         8     0.967     0.826 -85.51   0
        51    163.9432    858.9764 299.9768365 +22.6619089     582.9503     70.32008      1.393     2.71    -4.624375     19.83943      79.1751        10     0.908     0.680  62.93   0
        52    313.6758    851.0759 300.0259603 +22.7046120     31144.82     70.40958      1.332     2.22    -4.440616     19.83943     4358.341        67     1.246     1.153  72.28   0
        53    578.9424    854.1091 300.1075192 +22.7851134     316.5428     70.37379      1.270     2.65    -4.491898     19.83943     53.12115         6     0.742     0.554 -37.69   0
        54    571.5973    850.0222 300.1065629 +22.7817367     900.7603     70.26632      1.385     2.49    -4.469012     19.83943       113.99        13     0.891     0.858  57.61   0
        55    984.1126    848.9693 300.2354605 +22.9051855     603.5098     70.30216      1.362     2.18    -4.754556     19.83943     89.05608         9     0.758     0.712 -71.94   0
        56    600.3619    845.8770 300.1168691 +22.7891802     506.5862     70.30216      1.291     2.32    -4.558293     19.83943     89.18414         9     0.819     0.732  76.91   0
        57    611.3644    844.1509 300.1208573 +22.7919868     315.6989     70.33798      1.168     2.52    -4.589173     19.83943     54.07834         5     0.717     0.449  71.94   0
        58    716.4993    840.5206 300.1547869 +22.8224916     238.4848     70.44534      1.108     3.67    -4.736118     19.83943     37.98953         6     0.965     0.402  70.19   0
        59    754.2372    830.9400 300.1696645 +22.8310641     581.2065     70.33798      1.368     2.40    -4.616949     19.83943     78.71329         8     0.793     0.673 -79.87   0
        60    363.3709    828.3208 300.0488256 +22.7130091     18071.39     70.32008      1.322     2.36    -4.788965     19.83943     2029.659        55     1.232     1.143  59.99   0
        61    377.5869    828.8977 300.0530601 +22.7174425     1259.397     70.21252      1.452     2.73    -4.788965     19.83943     145.9996        16     1.057     0.822  81.08   0
        62    886.2457    823.8851 300.2131079 +22.8686354     1535.286     70.30216      1.236     2.02    -4.263349     19.83943     264.5736        18     0.977     0.912 -82.00   0
        63    644.4280    820.0115 300.1390136 +22.7949828     506.4888     70.32008      1.390     2.22    -4.622441     19.83943     72.72382         8     0.744     0.667 -12.17   0
        64    481.1548    820.3110 300.0880819 +22.7460698     309.8954     70.33798      1.145     3.19    -4.351318     19.83943      33.7579         6     0.737     0.623 -65.71   0
        65    245.9743    820.0711 300.0150020 +22.6753943     497.3657     70.32008      1.357     2.27    -4.177659     19.83943     69.48665         9     0.767     0.703  61.33   0
        66    491.4362    814.9432 300.0930293 +22.7476162     540.2354     70.32008      1.284     2.71     -4.31384     19.83943     82.30984        11     0.912     0.796 -87.43   0
        67     50.2219    815.6054 299.9556204 +22.6153202     428.0958     70.30216      1.237     4.09    -4.301909     19.83943     43.53627         7     1.026     0.519 -47.65   0
        68    892.1878    811.5435 300.2189787 +22.8668746     344.2377     70.32008      1.368     4.40    -4.141623     19.83943     41.24877         7     1.057     0.522 -47.12   0
        69    393.7739    810.7438 300.0640058 +22.7170964     327.7969     70.32008      1.340     3.40    -4.788965     19.83943     42.96858         5     0.963     0.347 -49.26   0
        70     78.7192    809.6655 299.9664069 +22.6221785     442.2983     70.42746      2.533     4.61    -4.451931     19.83943     45.77025         6     1.013     0.596  38.72   0
        71    869.8703    806.4028 300.2136942 +22.8587058     156.6116     70.26632      1.226     3.47    -4.080759     19.83943     38.25269         5     0.998     0.663  62.94   0
        72    243.6529    804.7134 300.0192795 +22.6702947        144.1     70.35589      0.998     2.27    -4.175815     19.83943     47.66351         5     0.667     0.474  84.14   0
        73    536.4030    793.2363 300.1140928 +22.7548855     445.4818     70.33798      1.558     4.39    -4.316877     19.83943       43.975         7     0.991     0.565 -65.67   0
        74    558.1493    790.3046 300.1218173 +22.7605704     974.6781     70.39169      1.700     2.85    -4.370021     19.83943     95.15113        16     1.062     0.874  44.70   0
        75    952.5660    789.0682 300.2451237 +22.8785278     2609.727     70.32008      1.230     2.08    -4.245511     19.83943     396.1294        21     0.987     0.869  34.88   0
        76    940.9725    780.6382 300.2442522 +22.8726311     877.8914     70.33798      1.202     2.26    -4.121726     19.83943     138.4025        14     0.926     0.812 -81.39   0
        77    304.3515    774.8562 300.0478721 +22.6799599     554.4157     70.35589      1.360     3.16    -4.296865     19.83943     59.16031        11     0.909     0.856  -5.44   0
        78    767.4606    771.9207 300.1929984 +22.8180926     1471.543     70.37379      1.396     2.40    -4.113246     19.83943     185.3062        20     1.132     0.924  -4.67   0
        79    972.2086    770.6585 300.2572428 +22.8791312     993.7468     70.28424      1.228     2.30    -4.420707     19.83943     142.5092        10     0.842     0.709  45.06   0
        80    288.7565    765.5891 300.0460385 +22.6726207     2828.101     70.32008      0.770     1.13    -4.217315     19.83943     1079.899         8     0.572     0.500  70.48   0
        81    152.6929    758.6335 300.0060027 +22.6297706     375.0391     70.26632      1.377     3.23     -4.27426     19.83943     49.98488        10     0.861     0.839  89.44   0
        82    849.7393    757.6495 300.2232885 +22.8386730     293.5179     70.37379      1.378     2.30     -3.94057     19.83943     48.02689         5     0.725     0.428  21.06   0
        83    885.8365    748.8010 300.2374224 +22.8469574     85882.22     70.32008      1.293     2.22    -3.942904     19.83943     12784.86       110     1.286     1.217  73.96   0
        84    738.4297    749.2076 300.1913449 +22.8028657     422.9313     70.32008      1.302     2.93    -4.018365     19.83943     52.85088         8     0.915     0.595 -17.28   0
        85    918.9050    741.2553 300.2501895 +22.8547064     222.1201     70.37379      1.121     3.74    -3.947535     19.83943     37.31409         5     0.835     0.482 -58.13   0
        86    572.1880    737.8527 300.1432602 +22.7497347     926.3362     70.32008      1.339     3.01     -4.16383     19.83943     111.0382        12     0.976     0.781  23.38   0
        87    753.3661    734.9662 300.2006341 +22.8032582     5419.596     70.39169      1.354     2.44    -3.886299     19.83943     655.0485        33     1.151     1.066  72.65   0
        88    255.0914    730.5034 300.0469885 +22.6524534     2709.119     70.49896      1.371     2.41    -4.160522     19.83943     347.3998        25     1.083     1.040 -86.62   0
        89    337.1438    728.5192 300.0731513 +22.6765172     686.0315     70.35589      1.428     3.03    -4.185711     19.83943     75.01099        10     0.905     0.735 -56.68   0
        90    545.1974    723.9777 300.1393722 +22.7376552     530.1595     70.26632      1.452     3.73    -4.011643     19.83943      55.4324         9     1.030     0.665 -21.10   0
        91    536.9276    715.9899 300.1393970 +22.7328820     1843.847     70.32008      1.396     2.58    -3.937047     19.83943     223.4164        20     1.059     0.971  68.11   0
        92    527.0457    709.7089 300.1383646 +22.7281148     844.7778     70.30216      1.328     3.40    -3.902547     19.83943     101.9475        16     1.134     0.910 -45.96   0
        93    190.7206    706.4375 300.0348074 +22.6262265     365.4162     70.28424      1.374     3.21    -4.030454     19.83943     48.24683         6     0.883     0.449 -89.94   0
        94    204.9337    704.5718 300.0398327 +22.6299591     230.9475     70.30216      1.275     3.72    -4.031257     19.83943       36.566         6     0.802     0.495  -0.83   0
        95    230.5561    701.5502 300.0487813 +22.6367855     222.2434     70.35589      1.104     3.00     -4.02755     19.83943     43.56268         5     0.918     0.479 -42.76   0
        96    452.0260    699.5838 300.1183092 +22.7026984     972.9497     70.33798      1.371     2.73    -4.021431     19.83943     111.1307        14     0.932     0.886 -57.44   0
        97    106.0769    694.7159 300.0123151 +22.5974497     11674.74     70.42746      1.362     2.43    -4.082632     19.83943     1427.812        46     1.225     1.135  78.20   0
        98     27.1908    696.3943 299.9872612 +22.5742397     343.4204     70.17664      1.062     2.29    -4.103508     19.83943     59.46542         7     0.785     0.585  79.78   0
        99    537.0910    694.6873 300.1463797 +22.7268189      532.275     70.48109      1.350     2.97    -3.730992     19.83943     70.70027        10     0.951     0.710 -57.78   0
       100    954.5905    681.0415 300.2809137 +22.8481139       560.85     70.32008      1.250     2.91    -4.333046     19.83943     78.41308         9     0.853     0.731  59.97   0
       101     52.0771    679.0223 300.0006436 +22.5767347     798.9051     70.30216      1.596     4.94    -4.102843     19.83943     75.65034        15     1.353     0.766  87.99   0
       102    821.6411    678.8353 300.2401784 +22.8076198     279.8994     70.37379      1.371     3.84    -3.944366     19.83943     37.50657         7     0.931     0.552  31.51   0
       103    500.7616    675.2230 300.1414037 +22.7103337     259.9206     70.33798      1.460     4.36    -3.797943     19.83943     26.86207         5     0.772     0.702  60.43   0
       104    894.9095    673.4698 300.2647661 +22.8280475     420.7104     70.48109      1.253     3.68    -4.045253     19.83943     49.80725         7     0.861     0.595  82.59   0
       105    457.0821    667.7957 300.1302254 +22.6950963     364.8773     70.24839      1.383     2.64    -3.927492     19.83943     52.89999         8     0.800     0.705 -23.65   0
       106    605.0571    666.2886 300.1767819 +22.7390604     289.4858     70.37379      1.301     4.64    -3.507349     19.83943     37.36515         7     0.932     0.691  -7.27   0
       107    622.8615    664.6010 300.1828757 +22.7439169     215.2485     70.28424      1.225     4.14    -3.553969     19.83943     36.04495         6     0.907     0.683 -69.74   0
       108    501.2997    663.6257 300.1453443 +22.7071677      519.082     70.26632      1.492     3.13    -3.739557     19.83943     68.66156         9     0.869     0.774 -20.44   0
       109    934.7504    658.9213 300.2819235 +22.8358134     1879.039     70.32008      1.300     2.30    -4.150193     19.83943     259.6277        18     0.961     0.897  55.20   0
       110    466.8599    659.0574 300.1361113 +22.6955233     966.6216     70.39169      1.370     2.92    -3.865736     19.83943     106.4068        14     0.956     0.907 -12.79   0
       111     28.8097    652.8042 300.0019449 +22.5622321     3088.298     70.15869      1.446     2.53    -4.107093     19.83943      381.083        26     1.153     0.977  84.88   0
       112    974.4017    648.7094 300.2976127 +22.8447663     252.8397     70.24839      1.556     3.49     -4.35379     19.83943     32.90363         5     0.758     0.465 -74.86   0
       113    330.1724    645.9102 300.0978606 +22.6507321     5195.104     70.30216      1.449     2.73    -3.903587     19.83943     541.4234        35     1.208     1.125  46.79   0
       114    586.7266    646.6060 300.1774772 +22.7279129     169.5224     70.26632      1.545     3.88    -3.387554     19.83943     28.74536         5     1.043     0.414  15.73   0
       115    452.6228    642.8599 300.1369498 +22.6866041     5180.328     70.30216      1.454     2.70    -3.794259     19.83943     604.1129        35     1.204     1.111  72.51   0
       116    863.9883    636.7485 300.2670725 +22.8082320     1049.186     70.33798      1.343     2.70    -3.903452     19.83943     121.9402        15     0.991     0.866 -40.70   0
       117    948.6549    633.9416 300.2943868 +22.8328071     7229.057     70.37379      1.325     2.29    -4.135697     19.83943     951.8712        39     1.162     1.108 -79.53   0
       118    513.1323    632.4433 300.1591718 +22.7017705     6743.025     70.30216      1.446     2.72    -3.500302     19.83943     649.4377        37     1.219     1.157  46.94   0
       119    240.6782    628.1242 300.0758155 +22.6187689     850.9423     70.42746      1.447     2.87    -3.899775     19.83943     99.84251        16     1.004     0.974 -49.80   0
       120    787.4287    620.6248 300.2484530 +22.7806477     491.1383     70.32008      1.473     6.45    -3.874816     19.83943     43.86772        14     1.233     0.967 -37.96   0
       121    444.7679    620.5250 300.1417707 +22.6778391     2444.662     70.32008      1.528     2.94    -3.693948     19.83943     261.2742        27     1.208     1.111  24.23   0
       122    422.9883    619.3279 300.1353827 +22.6709605     671.2123     70.33798      1.396     3.11    -3.739622     19.83943      77.2308        13     0.953     0.902 -69.48   0
       123    177.1785    618.6127 300.0591688 +22.5969792     395.6333     70.30216      1.515     4.27      -3.9195     19.83943     56.72727         7     0.781     0.665 -13.76   0
       124    864.5269    615.8951 300.2740242 +22.8024049     827.5041     70.44534      1.400     2.85    -3.876429     19.83943     90.62827        15     1.002     0.882 -68.27   0
       125    744.8498    613.2272 300.2375903 +22.7657563     518.1119     70.33798      1.540     3.41    -3.621519     19.83943     56.13573        11     0.994     0.835  83.30   0
       126    561.3667    608.1320 300.1820963 +22.7092638     117252.6     70.32008      1.520     2.78    -3.226479     19.83943     11998.29       155     1.484     1.452 -24.86   0
       127    247.5578    608.2471 300.0844197 +22.6151333      1873.33     70.35589      1.376     2.57     -3.88282     19.83943     255.7007        22     1.104     0.996  41.47   0
       128    813.4461    603.9852 300.2619748 +22.7836705     351.6973     70.33798      1.760     3.73    -3.901909     19.83943     30.89217         6     0.807     0.496 -86.96   0
       129    452.0434    588.3870 300.1544879 +22.6708007     1526.433     70.33798      1.611     3.34    -3.573369     19.83943     120.3879        24     1.229     1.118 -74.90   0
       130    592.1439    587.1207 300.1985136 +22.7124651     1515.272     70.35589      0.522    -0.55    -3.131383     19.83943      1210.05         5     0.487     0.291  59.79   0
       131    848.9098    574.4230 300.2826450 +22.7858127     961.6876     70.24839      1.269     2.34    -3.730256     19.83943     124.2626        14     0.946     0.829 -59.71   0
       132    720.0644    572.2635 300.2431912 +22.7465628     1390.707     70.35589      1.432     2.95    -3.367063     19.83943     140.0983        18     1.093     0.932  44.66   0
       133    507.5688    568.2080 300.1783326 +22.6816677     445.7985     70.32008      1.541     4.84    -3.323463     19.83943     38.88646         8     0.821     0.810  43.93   0
       134    977.3583    566.0566 300.3254209 +22.8219098     699.5148     70.30216      1.266     2.60    -3.371898     19.83943     109.3289        12     0.953     0.746  -0.25   0
       135    963.1949    564.9991 300.3213471 +22.8173613     428.4375     70.14073      1.247     2.68    -3.463032     19.83943     56.52246         7     0.720     0.655  58.08   0
       136    849.1127    564.4595 300.2859487 +22.7830120     1209.658     70.40958      1.609     3.57     -3.68527     19.83943     124.3619        16     1.339     0.841  79.50   0
       137    602.4677    562.7440 300.2096563 +22.7085643     431.8694     70.35589      1.857     3.43     -3.06789     19.83943     37.08249         5     0.746     0.456 -70.00   0
       138    887.1982    559.6379 300.2993909 +22.7930435     2359.521     70.33798      1.325     2.41    -3.690374     19.83943     317.2581        21     1.090     0.896  62.05   0
       139    119.6256    550.4018 300.0634645 +22.5601419       610.62     70.26632      1.588     3.17    -3.842242     19.83943     64.28768        10     0.846     0.832 -54.61   0
       140    978.9011    550.0897 300.3310950 +22.8177850     324.7081     70.48109      1.289     3.93    -3.062567     19.83943     50.33371         6     0.754     0.587 -55.30   0
       141    660.7292    530.3195 300.2383462 +22.7167279     419.9483     70.42746      1.611     5.50    -2.976691     19.83943     42.67755         9     1.160     0.735 -57.21   0
       142    721.5791    522.3038 300.2599096 +22.7326717     505.8881     70.23046      1.428     4.29    -3.157471     19.83943     53.07151        10     1.102     0.743 -72.97   0
       143    975.3427    522.2753 300.3390300 +22.8087274     211.2274     70.35589      1.279     3.48    -2.999982     19.83943     43.24804         5     0.760     0.461  79.29   0
       144    878.7479    518.6787 300.3100757 +22.7787453     509.2589     70.32008      1.310     2.61    -3.571902     19.83943     77.48401         9     0.875     0.644 -72.62   0
       145    863.0533    514.7504 300.3064597 +22.7729128     399.3829     70.35589      1.351     3.73    -3.566329     19.83943     43.35522         7     0.749     0.664 -34.32   0
       146    607.3356    513.2128 300.2272786 +22.6958052     1890.324     70.28424      1.568     3.02    -2.946661     19.83943     185.2023        26     1.267     1.062  76.14   0
       147   1018.5557    491.7635 300.3624315 +22.8129086     676.6735     70.37379      1.194     2.49     -2.52211     19.83943     103.4974        12     0.958     0.737  50.40  16
       148    976.9112    490.5063 300.3498490 +22.8000694     531.9437     70.48109      1.327     2.41    -2.948501     19.83943       74.356         8     0.746     0.678 -90.00   0
       149    717.9401    486.9715 300.2702636 +22.7214344      615.754     70.33798      1.546     3.08    -2.959743     19.83943      61.3273        11     0.991     0.707  -3.64   0
       150    222.0632    485.2956 300.1164723 +22.5722151     357.3125     70.40958      1.463     4.77     -3.36674     19.83943     47.65899         9     1.015     0.768 -36.15   0
       151    284.3091    480.9620 300.1372361 +22.5896504     2140.885     70.30216      1.517     2.91    -3.485114     19.83943     235.1898        24     1.211     1.017 -85.25   0
       152   1017.1243    479.1190 300.3660959 +22.8088462     2391.368     70.42746      1.335     2.34    -2.564911     19.83943     307.2303        23     1.143     0.929  62.10  16
       153    231.5605    475.8623 300.1224917 +22.5723590     4170.114     70.32008      1.519     2.86    -3.324639     19.83943     463.3457        31     1.241     1.110  77.72   0
       154    997.1728    470.2078 300.3627688 +22.8003076     992.8096     70.32008      1.360     2.95    -2.772271     19.83943     121.6701        16     1.016     0.933  64.82   0
       155    372.3266    469.9938 300.1681791 +22.6129110     2804.139     70.26632      1.564     3.10    -3.465342     19.83943     262.8134        26     1.204     1.090  77.38   0
       156    616.3792    466.5779 300.2452564 +22.6851278     10770.37     70.32008      1.635     3.11    -2.847388     19.83943     1046.513        53     1.375     1.325  62.89   0
       157    949.7600    449.0662 300.3548525 +22.7800264     384.8259     70.28424      1.220     4.24    -3.141894     19.83943     46.17734         9     0.976     0.666 -37.18   0
       158    171.2957    447.0033 300.1131373 +22.5459952     1169.296     70.23046      1.558     3.20    -3.330947     19.83943     120.4081        17     1.066     0.971 -82.22   0
       159    556.9960    436.0293 300.2366945 +22.6585503     3715.239     70.28424      1.622     3.18    -2.795337     19.83943     322.1074        36     1.345     1.229  62.54   0
       160    970.5967    436.0440 300.3655846 +22.7825276     667.6327     70.33798      1.372     3.12    -2.997205     19.83943     80.39885        13     1.029     0.831  14.85   0
       161    129.9502    429.3761 300.1060159 +22.5285306     342.2098     70.32008      1.644     2.95    -3.227344     19.83943     47.70013         6     0.914     0.510  74.92   0
       162    671.3028    426.4443 300.2754094 +22.6900705     282.3752     70.33798      1.283     3.85    -2.868071     19.83943     34.66872         6     0.930     0.456  85.99   0
       163    761.1000    424.7419 300.3039415 +22.7164995     746.2853     70.40958      1.790     4.27    -3.003026     19.83943     65.91272        13     1.114     0.849  37.25   0
       164    463.7306    422.4522 300.2120741 +22.6266831     3451.905     70.30216      1.695     3.18    -2.842482     19.83943     317.0356        32     1.294     1.206  85.69   0
       165    952.2606    416.5559 300.3661998 +22.7714335     260.7835     70.33798      1.213     4.57     -3.07773     19.83943     46.92199         6     0.952     0.624 -63.60   0
       166    855.4357    416.5768 300.3359999 +22.7424266      904.399     70.33798      1.679     3.71    -3.441378     19.83943      78.1796        17     1.153     1.022   1.70   0
       167    828.1857    404.3528 300.3314777 +22.7307485      315.517     70.33798      1.589     4.73    -3.207203     19.83943     28.75993         6     0.962     0.661  77.27   0
       168    351.3488    401.5762 300.1838901 +22.5869831     1502.846     70.33798      1.647     3.52    -3.196811     19.83943      145.462        20     1.173     1.072  58.38   0
       169     69.7944    399.3026 300.0970963 +22.5018503     482.9403     70.23046      1.304     3.11    -2.899375     19.83943     75.38221        12     1.038     0.781 -89.28   0
       170    320.6029    391.1338 300.1777196 +22.5747632     16872.52     70.32008      1.623     3.09    -3.177075     19.83943     1558.754        59     1.434     1.287  75.69   0
       171    855.2219    388.3973 300.3450917 +22.7342661     817.6759     70.26632      1.553     3.56    -3.297824     19.83943     73.53075        16     1.114     0.931 -54.76   0
       172     17.0970    379.1180 300.0872838 +22.4802444     2741.357     70.46322      1.404     2.66    -2.619916     19.83943     304.7698        24     1.108     1.025  79.84   0
       173    770.1799    377.2036 300.3222209 +22.7055650     327.7998     70.28424      1.295     3.99    -3.003672     19.83943     27.14429         6     0.794     0.574  43.73   0
       174    419.0835    376.7284 300.2130388 +22.6001674     321.0243     70.44534      1.587     4.27    -2.997935     19.83943     31.98175         5     1.073     0.484 -37.69   0
       175    194.8594    377.4685 300.1430594 +22.5331173     266.3922     70.33798      1.807     5.48    -3.014841     19.83943     33.08026         7     1.490     0.569  18.84   0
       176    730.8740    370.5911 300.3121209 +22.6918850     1024.009     70.32008      1.529     3.35    -2.954951     19.83943     93.11739        19     1.188     0.966  25.25   0
       177    946.0559    363.1951 300.3816063 +22.7542396     282.8568     70.28424      1.290     4.11    -3.119279     19.83943     36.91219         8     0.848     0.665 -42.14   0
       178    392.7445    355.4048 300.2117719 +22.5861469     1358.592     70.28424      1.855     4.55    -3.058607     19.83943     87.34103        19     1.294     1.039  78.59   0
       179    831.9432    347.6259 300.3510834 +22.7155757     378.8758     70.32008      1.516     4.18    -3.081241     19.83943     40.18272         7     1.055     0.481  44.88   0
       180    468.4548    334.9630 300.2419740 +22.6029827     591.3635     70.32008      1.562     4.06    -2.861582     19.83943     65.35252        12     1.100     0.874 -41.22   0
       181    713.2919    326.5877 300.3209402 +22.6739746     1360.973     70.26632      1.733     3.78    -2.928015     19.83943       101.33        22     1.224     1.097  40.20   0
       182    974.5393    320.8007 300.4042656 +22.7505870     1882.832     70.28424      1.482     2.59    -3.080828     19.83943     201.1858        21     1.057     0.997  42.38   0
       183     96.7523    304.7649 300.1361869 +22.4828208     770.3679     70.35589      1.625     3.86    -2.583429     19.83943     68.35107        16     1.152     0.970 -24.90   0
       184    127.4396    305.1888 300.1455857 +22.4921500     339.9342     70.32008      1.349     3.51    -2.614141     19.83943     47.04491         7     0.842     0.679 -18.24   0
       185    375.4436    287.6255 300.2284082 +22.5615007     326.8064     70.33798      1.749     4.06    -2.981406     19.83943     33.48074         5     0.953     0.494 -86.59   0
       186    883.1191    276.8549 300.3900306 +22.7105703      1166.49     70.35589      1.535     3.40    -2.933727     19.83943      107.413        20     1.169     1.000  68.59   0
       187    301.8638    274.3903 300.2098185 +22.5356347     1151.513     70.28424      1.635     3.45    -2.537878     19.83943     113.7069        23     1.227     1.087 -76.04   0
       188    379.7084    269.3646 300.2356664 +22.5575369     651.9158     70.26632      1.776     4.67    -2.977484     19.83943     71.59412        15     1.372     0.948  78.30   0
       189    781.5918    269.1716 300.3608760 +22.6779450     281.3219     70.30216      1.322     3.46    -2.935191     19.83943     31.06172         5     0.756     0.458 -72.81   0
       190    196.8848    261.5269 300.1813529 +22.5004548     457.4882     70.42746      1.500     4.36    -2.430364     19.83943     49.76267         7     0.927     0.584 -85.61   0
       191    734.1860    258.4679 300.3495791 +22.6606648     1000.339     70.33798      1.579     3.51    -2.864341     19.83943     89.55846        19     1.117     1.080 -27.34   0
       192    799.5855    258.2099 300.3700449 +22.6801862     310.0769     70.23046      1.489     3.44    -2.903354     19.83943     25.10007         5     0.755     0.454 -71.46   0
       193   1005.7267    250.5025 300.4368309 +22.7397186     513.6936     70.44534      1.579     3.60    -2.747501     19.83943     51.65694        10     1.142     0.664  58.60   0
       194    738.4629    249.4505 300.3538406 +22.6593553     598.3456     70.37379      2.007     4.95    -2.836088     19.83943     40.74016        11     1.032     0.962 -60.17   0
       195    658.8445    249.0635 300.3291602 +22.6353854     751.0469     70.33798      1.721     5.28    -2.867794     19.83943     57.81431        14     1.191     0.836  67.99   0
       196    585.3821    240.9456 300.3089162 +22.6110361     482.2509     70.30216      1.483     4.02     -2.79799     19.83943     53.25274        10     1.060     0.742  83.46   0
       197    853.9396    240.7606 300.3926564 +22.6914550     772.0801     70.32008      1.638     3.90    -2.757045     19.83943     70.42371        16     1.205     0.908   8.80   0
       198    866.2840    239.7921 300.3968197 +22.6948745     588.4318     70.24839      1.837     3.39    -2.735812     19.83943     59.43842        10     1.033     0.675  50.78   0
       199    982.9066    229.7092 300.4364652 +22.7269063     617.0175     70.48109      1.443     2.48    -2.575243     19.83943     83.69316        11     0.930     0.699  69.92   0
       200      6.7594    227.6062 300.1332865 +22.4336808     233.4803     70.35589      1.254     3.40    -3.135573     19.83943     35.83849         6     0.723     0.646 -64.56   0
       201    217.5832    223.2259 300.2002262 +22.4956704     316.6058     70.33798      1.454     4.12     -2.35651     19.83943     37.47773         6     0.742     0.652  55.89   0
       202     79.0998    218.2076 300.1588127 +22.4526889     1249.073     70.23046      1.578     3.47    -2.809626     19.83943     108.5449        21     1.208     1.076 -12.79   0
       203    901.6287    215.0145 300.4158875 +22.6983392     389.1208     70.33798      1.633     5.07    -2.569512     19.83943     47.52791         9     1.039     0.852 -69.96   0
       204    236.4075    211.5843 300.2098594 +22.4979747     3143.978     70.24839      1.567     2.89    -2.322121     19.83943     334.9638        32     1.287     1.176  85.27   0
       205     28.8024    214.9089 300.1442569 +22.4366518     274.4505     70.24839      1.423     4.98    -2.969676     19.83943     43.33325         6     1.148     0.613  76.95   0
       206     20.6655    206.1361 300.1445776 +22.4316934     822.3939     70.37379      1.456     2.77    -2.894594     19.83943     103.7865        16     1.098     0.885 -79.90   0
       207    220.0280    202.1881 300.2078175 +22.4903650     280.4296     70.32008      1.381     3.79     -2.29857     19.83943     37.60257         5     0.811     0.509 -54.79   0
       208    880.2705    192.6578 300.4164874 +22.6855152     2121.872     70.33798      1.518     3.16     -2.52699     19.83943     195.0462        22     1.130     1.057  57.43   0
       209    983.9037    191.2491 300.4492660 +22.7161467     1555.994     70.37379      1.444     2.85    -2.523018     19.83943     151.5792        20     1.083     0.979  -0.74   0
       210    429.9469    188.4735 300.2775676 +22.5493722     357.4876     70.35589      1.424     4.65    -2.739843     19.83943     36.25598         9     1.032     0.696 -83.98   0
       211    120.3635    176.9788 300.1850217 +22.4532358     291.9438     70.33798      1.387     4.22    -2.439073     19.83943     39.05444         6     1.223     0.416  77.88   0
       212    480.8940    175.4648 300.2976479 +22.5609083     983.9388     70.42746      1.771     4.32    -2.652349     19.83943     81.36398        18     1.235     1.021  26.38   0
       213    255.4338    155.3855 300.2340217 +22.4875472     3514.169     70.30216      1.638     3.11    -2.196477     19.83943     326.1612        34     1.306     1.225  78.35   0
       214    106.3803    154.4298 300.1879964 +22.4425698     434.6307     70.32008      1.912     4.38    -2.349081     19.83943     45.02372         5     0.885     0.628 -53.81   0
       215    501.3672    140.5213 300.3153652 +22.5570074     3684.777     70.30216      1.704     3.37    -2.621281     19.83943     310.3436        36     1.335     1.263  28.32   0
       216    386.4900    140.6507 300.2795708 +22.5226103     329.4251     70.33798      1.278     4.34    -2.608046     19.83943     42.28142         8     0.845     0.810   9.36   0
       217    753.8290    129.9763 300.3974230 +22.6296236     533.5547     70.32008      2.050     4.52    -2.371013     19.83943     32.06302         8     0.847     0.753 -74.60   0
       218    846.1981    128.4053 300.4267249 +22.6568390     236.6599     70.14073      1.423     3.67    -2.253912     19.83943     30.64092         5     0.996     0.389 -84.49   0
       219    629.5953    120.4965 300.3617943 +22.5896801      3675.86     70.23046      1.658     3.03    -2.623456     19.83943     344.8845        33     1.256     1.225  42.38   0
       220    404.5033    119.6099 300.2920058 +22.5219671     840.1151     70.24839      1.723     5.00    -2.608046     19.83943     80.65932        16     1.296     0.931  59.87   0
       221    670.5692    118.1818 300.3753091 +22.6012911     414.7419     70.30216      1.350     4.99    -2.416955     19.83943     51.47807         9     1.289     0.571  12.63   0
       222    687.1606    114.4566 300.3816872 +22.6051912     350.9091     70.32008      1.589     4.16    -2.360082     19.83943     38.38611         5     1.099     0.450  58.72   0
       223    153.7478    111.7802 300.2165620 +22.4445348     357.5445     70.30216      1.528     3.54    -2.218927     19.83943     44.62057         6     0.750     0.646 -52.40   0
       224    956.4899    111.6341 300.4665627 +22.6850446     286.3094     70.30216      1.325     3.96    -2.514859     19.83943     36.27493         6     0.932     0.482   0.89   0
       225    724.9524    109.8532 300.3949566 +22.6151895     185.6864     70.35589      1.269     3.98    -2.269567     19.83943     36.59392         6     0.795     0.569  31.49   0
       226    689.0633    104.3132 300.3855725 +22.6028460     495.2615     70.42746      2.133     6.40    -2.297652     19.83943     36.80629         9     1.461     0.787  46.04   0
       227    673.8063    105.2315 300.3805212 +22.5985391     1544.632     70.32008      1.590     3.25    -2.330719     19.83943     167.6927        22     1.167     1.131  85.84   0
       228    760.0584     96.6646 300.4101774 +22.6219144     868.8224     70.35589      1.635     3.71     -2.20916     19.83943      79.7576        16     1.083     1.017  29.54   0
       229    698.0265     90.5927 300.3928184 +22.6015876     447.2003     70.32008      1.551     4.30    -2.212886     19.83943     46.66821         9     1.132     0.663 -83.68   0
       230    504.1017     89.7915 300.3326830 +22.5432532     607.1085     70.19458      1.773     3.54    -2.646283     19.83943      63.5251        11     1.044     0.805  27.17   0
       231     77.3095     89.7154 300.1999676 +22.4152761     370.8902     70.48109      1.338     2.78    -2.168001     19.83943     39.22084         5     0.729     0.446 -77.81   0
       232    407.5244     87.6328 300.3033247 +22.5136880     459.9491     70.32008      1.551     6.10    -2.520073     19.83943     43.34694        13     1.328     0.788  34.64   0
       233    179.1910     77.7796 300.2355057 +22.4424039     2279.879     70.30216      1.618     3.00    -2.083375     19.83943     216.9547        29     1.250     1.222 -44.72   0
       234    740.6350     70.2715 300.4126905 +22.6085096      544.851     70.32008      1.633     3.59     -2.08555     19.83943     51.86467         8     0.910     0.628 -67.97   0
       235    295.2507     69.8550 300.2741658 +22.4749264      686.577     70.35589      1.619     3.71    -2.016368     19.83943     73.14304        14     1.061     0.959  25.14   0
       236    778.1923     64.8246 300.4261631 +22.6181927     395.1685     70.32008      1.777     4.12    -2.118437     19.83943     39.41417         6     1.109     0.437  60.20   0
       237    798.1214     61.3117 300.4335149 +22.6231513     1368.258     70.44534      1.581     3.48    -2.128006     19.83943     121.1508        23     1.285     1.186  36.92   0
       238    504.0869     59.5177 300.3425033 +22.5345508     223.7992     70.44534      1.344     4.49    -2.524987     19.83943      28.3826         7     0.930     0.615 -79.70   0
       239    181.5104     56.9123 300.2429984 +22.4371082     560.8651     70.48109      1.629     5.03    -2.041083     19.83943     58.12854        10     1.205     0.738  -1.28   0
       240    972.7440     54.4329 300.4901986 +22.6734604     361.0519     70.33798      1.310     3.59     -2.00952     19.83943     43.37646        10     0.869     0.836  -8.22   0
       241    746.5853     53.7004 300.4199227 +22.6055282     595.7539     70.23046      1.628     3.88    -2.040372     19.83943     49.86695        11     0.926     0.832  24.15   0
       242    599.3558     38.8133 300.3788862 +22.5571464     366.8471     70.33798      1.423     5.36    -2.021171     19.83943     44.62874        10     1.096     0.755  31.78   0
       243    762.2222     33.5360 300.4313393 +22.6044145     458.8391     70.30216      1.513     4.67     -1.98506     19.83943     45.22395         8     0.949     0.829   3.09   0
       244    570.7437     31.7048 300.3722824 +22.5465314     1004.388     70.37379      1.585     3.81    -1.942821     19.83943     89.24071        19     1.133     1.086  67.23   0
       245    293.8415     29.1685 300.2869299 +22.4628191     463.6062     70.37379      1.680     3.76    -1.979408     19.83943     47.14779         8     0.917     0.775  47.18   0
       246      8.4018     28.0839 300.1985579 +22.3769186     431.7657     70.23046      1.522     3.35    -2.246896     19.83943     43.69981         9     0.873     0.766  12.25   0
       247    528.3705     25.8653 300.3609834 +22.5321577     694.4538     70.33798      1.652     4.80     -2.08797     19.83943     54.81607        18     1.206     1.068 -38.54   0
       248    633.5056     22.4072 300.3948460 +22.5626616      790.576     70.21252      1.629     3.84    -1.855494     19.83943     67.56346        17     1.128     1.031 -61.11   0
       249    229.0976     21.4782 300.2692909 +22.4412014     289.6467     70.42746      1.538     3.61    -1.963644     19.83943     44.42281         6     0.896     0.646 -78.85   0
       250    539.9814   1022.0574 300.0406861 +22.8215817     301.9933     62.78796      1.340     3.60    -5.180542     19.83943     46.29216         5     0.697     0.534  89.69  16
       251    133.1955   1023.5494 299.9136814 +22.6998244     595.0974      55.3232      4.307     4.35     9.287225     19.83943      32.8096         6     1.108     0.487   5.98  24
