#   1 NUMBER                 Running object number                                     
#   2 X_IMAGE                Object position along x                                    [pixel]
#   3 Y_IMAGE                Object position along y                                    [pixel]
#   4 ALPHA_J2000            Right ascension of barycenter (J2000)                      [deg]
#   5 DELTA_J2000            Declination of barycenter (J2000)                          [deg]
#   6 FLUX_APER              Flux vector within fixed circular aperture(s)              [count]
#   7 FLUXERR_APER           RMS error vector for aperture flux(es)                     [count]
#   8 FLUX_RADIUS            Fraction-of-light radii                                    [pixel]
#   9 FWHM_IMAGE             FWHM assuming a gaussian core                              [pixel]
#  10 BACKGROUND             Background at centroid position                            [count]
#  11 THRESHOLD              Detection threshold above background                       [count]
#  12 FLUX_MAX               Peak flux above background                                 [count]
#  13 ISOAREA_IMAGE          Isophotal area above Analysis threshold                    [pixel**2]
#  14 A_IMAGE                Profile RMS along major axis                               [pixel]
#  15 B_IMAGE                Profile RMS along minor axis                               [pixel]
#  16 THETA_IMAGE            Position angle (CCW/x)                                     [deg]
#  17 FLAGS                  Extraction flags                                          
         1    163.9068      9.9399 300.2566588 +22.4138746     684.0751     70.17789      1.467     3.17    -1.429412     19.77415     87.68783        13     1.096     0.818 -67.07   0
         2     83.6687    999.0197 299.9103081 +22.6733597     1993.947     70.07083      7.967    18.71     2.799798     19.77415     48.10686        82     4.310     2.257 -38.63  19
         3    119.1853   1022.2807 299.9137632 +22.6906961     767.9149     61.57353      7.800     7.32     7.091324     19.77415     41.84538        13     1.674     1.146  34.86  24
         4     70.2910   1022.1035 299.8986366 +22.6759484     1073.497     62.54135      5.332    12.15     3.006541     19.77415     46.84335        28     2.419     1.699  22.16  27
         5     72.9271   1015.7277 299.9015316 +22.6749152      1446.58     70.14222      4.864    13.88     2.954347     19.77415     41.59975        43     3.650     1.467  34.78  19
         6     99.0306   1005.9423 299.9128245 +22.6799594     1301.786     70.10654      8.256     9.45     5.157658     19.77415      45.6344        23     2.053     1.214 -54.97   3
         7     86.5101   1009.5513 299.9077609 +22.6772295      2197.61     70.08868     12.350    29.85     4.310747     19.77415     52.07591       193     6.393     3.870  -1.27  19
         8     92.8180    995.2465 299.9143781 +22.6750293     1644.182     70.12438      8.772    15.84     3.387409     19.77415     46.92389        51     4.005     1.741  -8.15   3
         9     94.3970   1018.9133 299.9071614 +22.6822810     1721.733     70.01723      6.006    11.98     6.288589     19.77415     49.18457        39     2.302     1.737  56.03  19
        10    868.5591   1009.8068 300.1509570 +22.9121913     62.73819     70.12438      0.820     3.48    -4.706352     19.77415     31.56895         5     0.771     0.454  71.15   0
        11    941.4641   1005.0017 300.1752440 +22.9326908     1291.225     70.08868      1.006     1.66    -5.416793     19.77415     251.4472        13     0.800     0.733  -5.09   0
        12    103.0424   1014.2205 299.9113745 +22.6835359     1353.874     70.12438      7.660     8.74     6.124491     19.77415     66.32442        21     2.187     0.975 -24.75  17
        13    730.3733    993.9520 300.1130730 +22.8661676     385.9884     70.10654      1.446     5.40    -4.529696     19.77415     61.06498         9     1.338     0.615  61.17   0
        14     86.1320   1022.8768 299.9033039 +22.6809316     1594.282     58.85126     11.780    18.50     5.531273     19.77415     54.97978        76     6.801     1.398   0.11  27
        15    765.0573    988.2291 300.1257392 +22.8749377     599.5768     70.08868      1.028     1.96    -4.608427     19.77415     135.7598         9     0.776     0.647  74.16   0
        16    542.7053    989.0824 300.0562381 +22.8084253     305.2364     70.24917      1.102     2.04    -4.715178     19.77415     55.79871         5     0.717     0.419 -72.02   0
        17    787.2803    981.8536 300.1347377 +22.8797796     6573.229     70.12438      1.108     1.84    -4.649278     19.77415     1258.936        29     0.963     0.901  52.14   0
        18    978.5298    981.6112 300.1944170 +22.9371013     194.3107     70.10654      0.901     3.34    -5.196237     19.77415     67.82033         5     0.805     0.464  44.24   0
        19    833.0137    981.5360 300.1490888 +22.8934144     299.3235     70.05297      1.065     2.34    -4.660556     19.77415     71.26555        10     0.957     0.589 -66.78   0
        20     98.8662    973.9515 299.9231905 +22.6707488     272.7754     70.08868      1.133     2.26     1.290325     19.77415     67.00677         8     0.792     0.639 -45.54   0
        21    839.1402    969.6094 300.1548817 +22.8918320     195.3757     70.07083      0.970     2.84    -4.663555     19.77415     39.99258         5     0.729     0.447 -19.80   0
        22    795.9320    963.9826 300.1432526 +22.8772505     923.8359     70.08868      1.147     1.87    -4.678205     19.77415     176.6481        10     0.812     0.667  59.00   0
        23    978.9407    962.7446 300.2006893 +22.9318111     277.8997     70.16006      1.264     2.98    -4.982341     19.77415     56.16541         5     0.797     0.555  82.17   0
        24    648.4105    960.8802 300.0983220 +22.8320789     354.2027     70.07083      1.290     3.39    -4.565634     19.77415     37.78548         5     0.760     0.437 -68.74   0
        25    173.0330    957.5630 299.9515638 +22.6883441     143.4581     70.12438      1.061     3.05    -1.063187     19.77415     32.55538         5     0.749     0.588 -85.02   0
        26    833.9467    957.2377 300.1572923 +22.8867246     334.8304     70.10654      1.017     1.78    -4.669869     19.77415      92.2792         7     0.660     0.612  86.02   0
        27    942.4742    954.2144 300.1920989 +22.9184228     93.82497     70.08868      0.977     3.76    -4.868732     19.77415     43.47285         5     0.876     0.565  41.14   0
        28    882.1903    948.5082 300.1751679 +22.8986975     310.1725      70.0351      1.061     3.00    -4.697486     19.77415     49.11935         8     0.850     0.646  46.02   0
        29    733.7579    947.3215 300.1293122 +22.8538109     515.6988     70.07083      1.146     2.28     -4.74081     19.77415     79.05412         8     0.765     0.646  52.61   0
        30    446.3883    944.3361 300.0408439 +22.7666741     2512.648      70.0351      1.168     2.09    -4.794513     19.77415     382.8239        21     1.027     0.902  38.76   0
        31    744.9376    944.7983 300.1336156 +22.8564428     278.1863     70.07083      1.009     2.17    -4.743707     19.77415     75.04585         6     0.824     0.445 -38.73   0
        32    108.0281    932.7692 299.9394440 +22.6617077     172.5198     70.08868      1.238     4.72    -3.664695     19.77415     38.18321         7     0.913     0.705  -5.14   0
        33    489.8379    931.7679 300.0584518 +22.7761201     337.5879     70.10654      1.585     3.50    -4.715178     19.77415     43.99342         5     0.968     0.366 -87.31   0
        34    171.6898    930.0948 299.9600894 +22.6800722     507.6431     70.26698      1.123     2.20    -4.053387     19.77415     93.41499         7     0.704     0.641  83.49   0
        35    149.0071    927.1583 299.9539990 +22.6724152     948.6179     70.10654      1.190     1.92    -4.165971     19.77415     168.0088        10     0.922     0.594 -56.40   0
        36     80.6829    928.5164 299.9323362 +22.6522717     237.4849     70.21354      1.053     4.11    -4.305038     19.77415     57.50681         7     1.114     0.499   1.39   0
        37     23.5948    916.9075 299.9183893 +22.6317892     295.8336     69.99937      1.077     2.53    -4.847539     19.77415     49.11951         6     0.789     0.486 -83.87   0
        38   1020.3070    915.7269 300.2288973 +22.9307279     1126.516     68.86402      0.934     1.64    -4.585024     19.77415     271.8112        11     0.704     0.684  67.37  16
        39    974.5927    914.2938 300.2151103 +22.9166036     1126.861     69.98149      1.000     1.94    -4.582785     19.77415     221.3239        11     0.777     0.719 -84.11   0
        40    758.0843    908.4160 300.1495560 +22.8499533     387.0645     70.05297      1.285     3.79    -4.768979     19.77415     55.14944        10     1.010     0.732  47.97   0
        41    180.9673    908.8258 299.9698956 +22.6767670     332.6049     70.08868      1.333     3.72    -4.339299     19.77415     52.86733         5     0.636     0.624 -24.50   0
        42    626.3301    902.3184 300.1105154 +22.8086578     2818.208     70.19572      1.167     2.17    -4.598004     19.77415     383.6309        22     0.973     0.915  77.19   0
        43    116.1848    903.1895 299.9516065 +22.6556864     269.4715     70.01723      1.352     2.03    -4.394774     19.77415     55.35923         6     0.717     0.528  46.81   0
        44    428.3253    899.2614 300.0499003 +22.7483298     310.9675     70.12438      1.100     3.36    -4.878171     19.77415     55.37511         9     0.948     0.739  46.48   0
        45    176.6567    896.4406 299.9725879 +22.6719237     809.5272     70.07083      1.147     2.27    -4.445486     19.77415     129.6882        13     0.918     0.791  13.79   0
        46    646.7976    894.6043 300.1193983 +22.8125896     332.6487     69.90993      1.236     3.06    -4.696666     19.77415      63.4327         8     0.895     0.658  42.64   0
        47    195.6164    893.6735 299.9793792 +22.6768275     166.4906     70.08868      1.156     3.06    -4.472757     19.77415     45.77643         6     0.868     0.702  19.60   0
        48    802.3097    881.9827 300.1719376 +22.8556425     2493.457     70.01723      1.205     2.12    -4.617735     19.77415     386.3495        19     0.961     0.867  85.00   0
        49   1019.3210    881.9481 300.2395871 +22.9207374     585.4113     70.08868      0.893     1.43    -4.546957     19.77415     171.0579         8     0.656     0.606   7.73  16
        50    210.9330    876.5181 299.9897222 +22.6765140     349.0416     70.19572      1.484     2.72    -4.613266     19.77415     44.06435         6     0.762     0.493   7.82   0
        51    519.0914    874.5631 300.0861758 +22.7685043     298.7386     70.05297      1.283     4.27    -4.666385     19.77415     49.51611        10     1.152     0.670 -35.48   0
        52    165.9050    872.8153 299.9769376 +22.6619250      520.519     70.01723      1.127     2.28    -4.637581     19.77415     108.6216        10     0.866     0.679  82.76   0
        53    315.5263    864.8607 300.0260236 +22.7045925     30523.96     70.12438      1.242     2.16    -4.750368     19.77415     4991.052        60     1.136     1.088 -75.74   0
        54    573.1550    863.6679 300.1065458 +22.7816114     873.1728     70.07083      1.179     2.58    -4.514094     19.77415     135.8757        11     0.923     0.714  25.44   0
        55    985.7855    862.8711 300.2353407 +22.9052033     486.4399     70.08868      1.139     2.12    -4.513339     19.77415     86.80991         7     0.723     0.616 -89.06   0
        56    243.2415    862.9813 300.0041679 +22.6823412     232.2348     70.10654      1.284     4.52    -4.705363     19.77415     40.76289         7     0.879     0.661  34.82   0
        57    602.2861    859.8011 300.1168712 +22.7892475     447.5201     69.99937      1.109     3.00    -4.494662     19.77415     68.55142         9     0.904     0.654  36.08   0
        58      1.6320    859.5363 299.9302443 +22.6087580     430.9442     56.26431      1.088     2.56    -4.771206     19.77415     67.30608         9     0.907     0.623  80.16  24
        59    613.0452    857.9730 300.1208152 +22.7919528     324.8361     70.10654      1.165     2.48    -4.499234     19.77415     49.95234         5     0.632     0.565  89.12   0
        60    756.0974    844.3845 300.1697807 +22.8309891     467.8854     69.99937      1.158     2.39    -4.505286     19.77415     63.04087         7     0.698     0.656 -14.26   0
        61    365.1971    842.1061 300.0488722 +22.7129887     17882.96     69.99937      1.277     2.33    -4.699424     19.77415     2390.149        47     1.103     1.101 -60.57   0
        62    379.5923    842.6463 300.0531725 +22.7174665      1143.07     70.10654      1.251     2.31    -4.712428     19.77415     159.2603        15     0.968     0.871 -33.49   0
        63    888.1777    837.6355 300.2131287 +22.8686815     1662.383     70.10654      1.174     2.01    -4.437991     19.77415      270.425        19     0.980     0.864  25.02   0
        64    376.1804    836.6996 300.0540469 +22.7147373     466.1884     69.99937      1.291     3.59    -4.678148     19.77415     46.74826         8     0.995     0.553 -48.99   0
        65    645.9974    833.6193 300.1389996 +22.7948591     616.0145     70.01723      1.271     2.53    -4.388845     19.77415     86.88749         9     0.851     0.656  70.72   0
        66    247.4143    833.9744 300.0149050 +22.6752825     563.1071     70.10654      1.398     3.77    -4.682429     19.77415     65.36755         9     0.989     0.661 -23.15   0
        67     52.8300    829.3111 299.9559761 +22.6154866      372.041     70.07083      1.236     4.62     -4.74261     19.77415       55.081         7     1.359     0.445 -51.26   0
        68    493.1414    828.8419 300.0929829 +22.7476040     529.9041     70.07083      1.427     3.84     -4.60173     19.77415      51.6445         8     0.826     0.738  71.77   0
        69    894.2198    825.4847 300.2189664 +22.8670070     250.2668     70.01723      0.895     2.48    -4.377855     19.77415     67.14629         7     0.874     0.494   6.14   0
        70    396.4391    824.5917 300.0642871 +22.7173500     266.9958     70.10654      2.240     4.14    -4.619654     19.77415     25.38818         5     1.233     0.398 -36.06   0
        71     80.6911    823.5343 299.9665076 +22.6222034     430.8518     70.21354      0.988     2.81    -4.737997     19.77415     66.92813         5     0.941     0.328 -68.34   0
        72    872.0867    819.7505 300.2139349 +22.8587218     200.2913     70.08868      1.163     3.51    -4.392298     19.77415     41.57961         7     0.768     0.644   0.38   0
        73    245.3291    818.3811 300.0193313 +22.6701875     246.6632     70.12438      1.375     4.77    -4.673269     19.77415     32.36244         8     0.972     0.665   1.16   0
        74    538.3487    806.8370 300.1142099 +22.7548658     350.9926     70.10654      1.222     2.42    -4.342114     19.77415     56.29714         7     0.712     0.635  75.65   0
        75    954.4271    802.9850 300.2450556 +22.8786091     2565.589     70.10654      1.156     1.85    -4.154609     19.77415     443.1848        21     0.949     0.909 -54.39   0
        76    447.6699    805.4171 300.0864604 +22.7272356     235.7988     70.10654      1.497     3.48    -4.508399     19.77415     41.02084         5     1.052     0.627 -38.62   0
        77    560.0775    804.1053 300.1218607 +22.7606050     738.9965     70.19572      1.215     2.38     -4.28942     19.77415     102.0582         9     0.772     0.698  50.71   0
        78    942.6960    794.3574 300.2442063 +22.8726142     1060.392     70.10654      1.300     2.16    -4.143853     19.77415     177.3162        15     0.945     0.848 -17.27   0
        79    306.1775    788.5715 300.0479438 +22.6799192     412.9447     70.08868      1.157     2.83    -4.478646     19.77415     69.42977         8     0.846     0.641 -10.94   0
        80    769.2277    785.6704 300.1929784 +22.8180836     1354.348     70.07083      1.330     2.42     -4.01652     19.77415      187.077        16     1.000     0.852   6.37   0
        81    973.9484    784.3835 300.2571949 +22.8791244     964.1129     70.08868      1.084     1.79    -4.047912     19.77415     165.1307        11     0.810     0.726 -42.51   0
        82    154.9252    772.7464 300.0060898 +22.6299545      384.621     70.10654      1.188     2.86    -4.507625     19.77415     44.38199         7     0.705     0.675  64.88   0
        83    851.1594    771.2094 300.2232097 +22.8385137      366.444     70.08868      1.367     4.49    -4.186857     19.77415     43.33215         9     0.981     0.701  69.46   0
        84    887.6635    762.5845 300.2373919 +22.8469882     85672.41     70.07083      1.204     2.17    -4.142014     19.77415     12271.73        99     1.187     1.153  63.39   0
        85    740.1839    762.6711 300.1914156 +22.8027703      260.162     70.08868      1.127     2.91    -3.965634     19.77415     51.74864         6     0.711     0.646  66.37   0
        86    755.2047    748.8043 300.2006057 +22.8032981     5532.094     69.94572      1.302     2.43    -3.970347     19.77415     696.1931        34     1.164     1.048  42.27   0
        87    574.0542    751.6344 300.1432832 +22.7497511     987.5841     70.10654      1.387     2.79    -3.877642     19.77415     106.4714        15     1.007     0.855 -29.45   0
        88    256.9148    744.2285 300.0470581 +22.6524146     2902.913     70.08868      1.324     2.54    -4.259776     19.77415     388.8691        21     1.025     0.942  66.94   0
        89    338.9911    742.1356 300.0732526 +22.6764615     511.5404     70.07083      1.320     4.15    -4.222262     19.77415     88.85746        11     1.182     0.754 -84.88   0
        90    547.2007    737.5527 300.1395073 +22.7376525     436.4146     70.08868      1.239     2.93    -3.697132     19.77415     57.52749         7     0.848     0.567 -84.28   0
        91    538.5159    729.6755 300.1393672 +22.7327864     1785.338     70.19572      1.406     2.93    -3.686267     19.77415     235.7482        21     1.185     0.948  39.37   0
        92    529.0110    723.4725 300.1384274 +22.7281545     767.5051     70.10654      1.349     2.93    -3.698545     19.77415      89.7313        13     0.957     0.851  72.93   0
        93    922.3755    720.8350 300.2617940 +22.8454153     238.5523     70.10654      1.037     3.95    -3.852727     19.77415     47.83935         6     0.952     0.607  14.37   0
        94    192.5093    719.8984 300.0349582 +22.6260983     368.5646     70.26698      1.380     2.97    -4.177507     19.77415     62.40054        10     0.992     0.656  26.79   0
        95    263.2404    715.3624 300.0584140 +22.6460398     266.5837     70.16006      1.447     3.44     -4.20709     19.77415     33.85342         5     0.746     0.457  14.59   0
        96    232.4996    714.9964 300.0489792 +22.6367033     206.0626     69.98148      1.530     4.58    -4.199059     19.77415     31.88068         6     0.981     0.729 -21.62   0
        97    975.3344    714.3157 300.2804244 +22.8594250      260.482     70.19572      1.146     3.12    -3.815155     19.77415      42.4269         6     0.835     0.517 -40.91   0
        98    453.6838    713.2234 300.1183257 +22.7026048     1138.282     70.05297      1.469     2.66    -3.896481     19.77415     132.3344        17     1.030     0.980  46.35   0
        99    107.9103    708.5331 300.0123740 +22.5974309     11293.57     70.21354      1.342     2.41    -3.916445     19.77415     1532.045        43     1.181     1.065  82.41   0
       100     28.7534    710.1807 299.9872567 +22.5741238     308.8732     70.12438      1.069     2.44    -3.845791     19.77415     70.34248         6     0.806     0.561 -28.46   0
       101    538.7598    708.3615 300.1463765 +22.7267462     566.6688     70.16006      1.377     3.45    -3.614159     19.77415     77.03647        12     1.085     0.759 -81.00   0
       102    956.5844    694.7596 300.2809403 +22.8481880     586.7209     70.10654      1.181     2.94    -3.709025     19.77415     89.71712        10     0.974     0.741  16.50   0
       103     53.9984    692.4335 300.0008674 +22.5766228     883.8973     70.05297      1.602     4.10     -3.66161     19.77415     95.23969        17     1.350     0.864 -86.16   0
       104    823.6659    693.1180 300.2400484 +22.8078541     340.2205     70.19572      1.551     4.65     -3.85271     19.77415     34.37416         5     0.870     0.706  19.88   0
       105    502.1004    688.6768 300.1413723 +22.7100974     281.8178     70.23136      1.415     4.25    -3.593585     19.77415      36.8854         5     1.056     0.487  64.94   0
       106    896.9507    687.2607 300.2647910 +22.8281523     463.1881     70.14222      1.294     2.66    -3.700421     19.77415     62.09879         9     0.864     0.690  63.61   0
       107    458.9023    681.6974 300.1302031 +22.6951299     398.9468     70.28479      1.308     3.34    -3.710048     19.77415      62.8599        10     1.023     0.694  37.28   0
       108    607.0178    679.7137 300.1769385 +22.7390121      264.787      70.0351      1.505     3.56    -3.646472     19.77415     39.28048         5     1.176     0.311 -65.11   0
       109    624.4686    678.0889 300.1828992 +22.7437823     305.7923     70.24917      1.394     4.21    -3.718122     19.77415     43.08462         6     0.774     0.653 -39.32   0
       110    503.0647    677.3005 300.1453724 +22.7071238     637.5445     70.17789      1.789     3.31    -3.522695     19.77415     63.10344         9     0.972     0.672  13.43   0
       111    936.5340    672.4786 300.2819371 +22.8357786     1987.789     70.19572      1.276     2.31    -3.567963     19.77415     239.6975        21     1.015     0.983  28.76   0
       112    468.5178    672.9395 300.1360427 +22.6955041     911.6335     70.17789      1.358     3.01    -3.587801     19.77415     111.2139        14     1.045     0.819  69.08   0
       113     30.6422    666.7425 300.0019700 +22.5622450     2814.907     70.05297      1.270     2.21    -3.413227     19.77415     444.6611        22     1.030     0.927  84.49   0
       114    331.9797    659.6559 300.0978997 +22.6507084     5292.315     70.08868      1.436     2.77     -4.00921     19.77415      587.086        33     1.212     1.104  72.22   0
       115    454.3722    656.6473 300.1369407 +22.6865856     5191.348     70.10654      1.507     2.81    -3.606187     19.77415     604.7756        34     1.253     1.137  47.65   0
       116    865.8019    650.3834 300.2670775 +22.8082245     1092.163     69.98148      1.281     2.59    -3.558391     19.77415     136.4456        15     0.990     0.820 -27.47   0
       117    950.4647    647.6762 300.2943465 +22.8328344     7247.185     70.16006      1.270     2.39    -3.490633     19.77415     867.8354        32     1.059     1.025  87.74   0
       118    514.9868    646.1771 300.1592036 +22.7017742     6646.864     70.07083      1.446     2.89    -3.325273     19.77415     643.2809        36     1.213     1.144  59.14   0
       119    242.4809    641.6730 300.0759272 +22.6186813     754.8514     70.21354      1.442     3.01    -4.040191     19.77415      102.945        13     0.979     0.861  78.98   0
       120    684.4808    642.2993 300.2132233 +22.7515180     318.3726     70.21354      1.244     4.16    -3.738182     19.77415     40.26259         5     0.990     0.498 -48.34   0
       121    446.6225    634.3787 300.1417715 +22.6778725     2481.333     70.08868      1.551     3.10    -3.488451     19.77415      269.451        27     1.191     1.116  71.76   0
       122    789.0456    634.4003 300.2483595 +22.7806164     367.9173     70.08868      1.307     4.55    -3.641696     19.77415     54.27179         8     0.804     0.732  46.88   0
       123    424.8225    632.6250 300.1355609 +22.6708264     732.5945     70.05297      1.526     3.74    -3.524673     19.77415     70.40401        14     0.999     0.957  49.46   0
       124    179.4473    632.0980 300.0594535 +22.5970088     408.5265     70.12438      1.519     2.77    -3.739925     19.77415     57.06199         7     0.752     0.660  88.15   0
       125    866.2093    629.6275 300.2739544 +22.8023879     793.9703     70.08868      1.391     3.10    -3.468884     19.77415     85.54768        14     0.986     0.891 -27.19   0
       126    387.4417    628.6489 300.1252281 +22.6584659     141.2083     70.08868      1.404     5.68     -3.55372     19.77415     28.67478         7     1.083     0.838  67.57   0
       127    563.1547    621.8833 300.1820928 +22.7092588     117052.5     70.05297      1.515     3.03    -3.099346     19.77415     12136.57       144     1.431     1.402 -35.69   0
       128    746.9137    626.4720 300.2378136 +22.7657038      495.987     70.21354      1.393     2.48    -3.851752     19.77415     60.39323         8     0.822     0.642  54.98   0
       129    249.4193    622.0294 300.0844708 +22.6151327     2019.885     70.08868      1.475     2.58    -3.952093     19.77415     258.9557        23     1.170     1.023  61.86   0
       130    453.8448    602.2701 300.1544583 +22.6708301      1585.26     70.05297      1.630     3.48    -3.294796     19.77415     131.7961        24     1.256     1.104 -78.91   0
       131    770.8690    590.9011 300.2568415 +22.7626785     228.8767     70.17789      1.269     4.03    -3.482536     19.77415     30.73491         8     0.851     0.656 -44.69   0
       132    850.6169    588.1628 300.2825782 +22.7858077     978.3224     70.08868      1.426     3.36    -3.269685     19.77415     97.70114        18     1.170     0.943 -14.08   0
       133    721.8335    585.8696 300.2432041 +22.7465273     1475.247     70.07083      1.554     3.34    -3.503656     19.77415     132.6892        22     1.181     1.070  56.12   0
       134    626.6864    583.4284 300.2143713 +22.7172857     275.5707     70.08868      1.483     5.45     -3.10181     19.77415     31.29352         6     1.111     0.755 -54.35   0
       135    965.3887    582.4244 300.3202176 +22.8185712     307.2828     70.08868      1.560     6.39    -3.307147     19.77415     33.14277         7     1.471     0.779  18.78   0
       136    509.1667    581.7833 300.1783303 +22.6815543     319.6434     70.07083      1.358     5.33    -3.014077     19.77415     47.16579         9     0.938     0.854 -75.81   0
       137    979.0096    579.6520 300.3253657 +22.8218583     643.1517     70.08868      1.175     2.99    -3.300493     19.77415     102.2577        13     0.998     0.804 -78.84   0
       138    850.9253    578.2111 300.2859099 +22.7830429     1316.027     70.10654      1.673     4.61    -3.217336     19.77415     116.3777        21     1.450     0.982  80.99   0
       139    965.0268    578.5838 300.3213535 +22.8173597     366.5972     70.10654      1.268     3.46    -3.305182     19.77415      61.1922         8     0.906     0.728 -13.96   0
       140    889.0270    573.2454 300.2993984 +22.7930415     2444.877     70.10654      1.386     2.85    -3.221159     19.77415      252.208        22     1.042     1.014  -9.25   0
       141    604.0466    573.5245 300.2105434 +22.7076517     372.4216     70.08868      1.408     3.44    -2.954051     19.77415     38.90131         5     1.225     0.279 -55.21   0
       142    121.3646    564.1629 300.0634955 +22.5600928     639.5995     70.16006      1.552     3.56     -3.39018     19.77415     71.38567        12     1.077     0.809 -71.20   0
       143    980.7975    563.6245 300.3311340 +22.8177911     462.8053      70.0351      1.239     3.14    -3.295237     19.77415     58.70882        10     0.868     0.831  -1.86   0
       144    662.6470    543.7518 300.2384656 +22.7166858     453.8834     70.12438      1.758     4.67    -2.817749     19.77415     54.25552        10     1.347     0.670 -16.97   0
       145    976.9384    536.2810 300.3388198 +22.8087808     437.7134     70.17789      1.595     2.82    -3.275165     19.77415        55.39         7     0.915     0.635 -67.57   0
       146    723.2515    536.1663 300.2598038 +22.7326854     479.2152     70.10654      1.493     4.78    -3.071177     19.77415     49.66699        10     1.047     0.923 -64.65   0
       147    880.4279    532.2245 300.3100538 +22.7786840     568.8499     70.07083      1.346     2.92    -3.053989     19.77415     69.01009        12     0.965     0.785  40.55   0
       148    864.8123    528.8302 300.3062905 +22.7730276     277.3436     70.08868      1.200     4.10    -3.003752     19.77415     45.37886         6     0.760     0.632 -24.03   0
       149    609.1480    526.7086 300.2273498 +22.6957467     1825.869     70.14222      1.629     3.30    -2.554883     19.77415      174.671        25     1.267     1.108  24.44   0
       150    969.5862    525.2334 300.3401187 +22.8034039     402.6282     70.08868      1.673     4.36    -3.248896     19.77415     34.36753         6     0.966     0.559 -24.99   0
       151    417.6637    523.0471 300.1689575 +22.6372458     1102.796     70.10654      0.546     0.81    -2.954074     19.77415     765.5669         5     0.472     0.297  -0.15   0
       152    449.7366    514.1979 300.1818100 +22.6443311     268.4896     70.08868      1.541     4.49    -2.966533     19.77415     35.86583         5     1.394     0.410 -83.11   0
       153   1020.4167    505.4157 300.3624100 +22.8129465      794.755     68.42655      1.337     3.55    -3.339333     19.77415     100.4674        14     1.068     0.878  84.21  16
       154    978.5054    504.2514 300.3497195 +22.8000506     492.5046     70.16006      1.172     3.22    -3.234154     19.77415     73.03271         9     0.887     0.726 -59.81   0
       155    719.8231    500.6969 300.2702647 +22.7214748     669.3446     70.01723      1.601     3.10    -2.999314     19.77415     76.53028        11     0.935     0.820 -60.31   0
       156    286.2105    494.8747 300.1372391 +22.5897138     2103.321     70.08868      1.543     3.00    -3.097909     19.77415     237.6601        21     1.155     1.012  73.35   0
       157   1018.8846    492.7566 300.3660467 +22.8088507     2502.098     70.05297      1.327     2.46    -3.345886     19.77415     347.7873        22     1.022     0.990  84.89  16
       158    233.4115    489.7271 300.1225011 +22.5723895       4325.7     70.10654      1.561     2.83    -3.094251     19.77415     527.2919        29     1.209     1.131  63.49   0
       159    998.8759    483.8653 300.3626970 +22.8002998     1032.924     70.17789      1.300     2.82    -3.280044     19.77415     121.3565        14     1.062     0.787 -89.19   0
       160    374.0550    483.8326 300.1681395 +22.6129097     2783.562     70.10654      1.629     3.16    -2.952712     19.77415     286.2769        27     1.228     1.188  62.64   0
       161    618.2051    480.2516 300.2452680 +22.6851295     10542.74     70.07083      1.621     3.42    -2.400211     19.77415     934.7671        48     1.370     1.262  81.73   0
       162    636.3891    480.3653 300.2508921 +22.6906160     526.3568     70.07083      1.967     5.88    -2.547491     19.77415     43.60844         8     1.534     0.634 -42.95   0
       163    815.2806    471.3268 300.3095455 +22.7416647     258.1714     70.19572      1.346     3.49    -3.061404     19.77415     40.40297         5     0.784     0.448  12.38   0
       164    951.3076    462.9832 300.3546520 +22.7800444     302.6182     70.01723      1.561     5.21    -3.081869     19.77415     35.59798         9     1.132     0.677  -1.08   0
       165    173.1439    460.6230 300.1132306 +22.5459520     1104.235     70.10654      1.404     3.08    -3.046867     19.77415     133.1631        16     1.156     0.817  77.22   0
       166    558.7953    449.7567 300.2366851 +22.6585570     3769.953     70.10654      1.647     3.51    -2.511122     19.77415     329.0538        30     1.251     1.199  59.73   0
       167    972.3384    449.7821 300.3654986 +22.7825553     655.0094     70.05297      1.397     2.80    -3.125063     19.77415     77.36187        10     0.849     0.792 -66.21   0
       168    274.0891    449.4114 300.1482442 +22.5730356     352.6835      70.0351      1.491     3.52    -3.040959     19.77415     38.81616         7     0.979     0.752  78.33   0
       169    131.5829    442.8141 300.1061049 +22.5283687      415.514      70.0351      1.579     4.07    -3.042819     19.77415     41.87236         7     0.979     0.483 -83.22   0
       170    762.7932    438.6041 300.3038268 +22.7165315     746.5767     69.92783      1.793     4.99    -3.021747     19.77415     55.01702        15     1.122     0.958  10.17   0
       171    465.4935    436.1199 300.2120838 +22.6266551     3701.815     70.21354      1.705     3.44    -2.990364     19.77415     334.2227        35     1.374     1.215 -87.16   0
       172    954.8860    430.5107 300.3663194 +22.7717886     400.6497     70.24917      1.288     4.17    -3.061914     19.77415     53.40071         8     0.942     0.790 -12.82   0
       173    857.3184    430.0818 300.3360470 +22.7424217     728.0229     70.21354      1.426     3.55    -2.803765     19.77415     87.03976        16     1.102     0.976 -23.66   0
       174    450.5971    425.1502 300.2110137 +22.6190383     346.7552     70.08868      1.782     4.97    -2.992992     19.77415     36.70901         8     1.204     0.579 -25.84   0
       175    353.0779    415.5680 300.1837968 +22.5870303     1473.228     70.07083      1.704     3.42    -2.993345     19.77415     148.3232        22     1.292     1.098  78.32   0
       176     71.8378    412.9680 300.0972438 +22.5018745     535.9675     70.10654      1.375     2.93    -3.034649     19.77415     80.74216        10     1.002     0.659 -81.88   0
       177    322.4317    404.9359 300.1777220 +22.5747843     17124.45     70.08868      1.634     3.19    -2.917232     19.77415     1727.854        55     1.358     1.322 -79.62   0
       178    856.9771    402.0674 300.3450425 +22.7342729     747.9064     70.07083      1.500     3.22    -2.673997     19.77415     78.88759        17     1.139     0.990  50.82   0
       179     18.9277    392.9346 300.0873211 +22.4802454     2823.696     70.12438      1.429     2.47    -3.017263     19.77415     381.1286        27     1.204     1.030 -73.80   0
       180    196.8346    391.1679 300.1431559 +22.5331433      333.396     70.12438      1.403     4.01    -2.966026     19.77415     30.17815         6     0.800     0.574 -46.34   0
       181    732.7676    384.3173 300.3121114 +22.6919404     1053.353     70.07083      1.562     3.90    -2.633151     19.77415      100.372        16     1.126     1.010  71.64   0
       182    947.6002    377.5188 300.3812643 +22.7543809     249.6849     69.96361      1.490     3.81    -2.993515     19.77415     38.94702         6     0.934     0.446  15.99   0
       183    394.6451    369.2318 300.2117751 +22.5862059     1270.353     70.14222      1.835     4.62    -2.616922     19.77415     93.56612        23     1.413     1.117  81.19   0
       184    833.6760    361.5600 300.3509403 +22.7156533     318.5396     70.05297      1.376     4.22    -2.417021     19.77415     46.89864         7     1.003     0.672   7.78   0
       185    470.4243    348.7574 300.2419971 +22.6030613     639.2276     70.14222      1.579     3.64    -2.723976     19.77415     68.71286        14     1.198     0.933   9.93   0
       186    715.1172    340.2639 300.3209234 +22.6739976     1181.956     70.19572      1.545     3.17    -2.330135     19.77415     111.0543        21     1.187     1.032   3.70   0
       187    976.3199    334.3781 300.4042315 +22.7505910     1806.655     70.05297      1.435     2.72    -2.904243     19.77415     188.2571        21     1.122     0.964  62.11   0
       188    423.8891    324.3320 300.2354535 +22.5820926     421.9168     70.23136      1.724     5.59    -2.528851     19.77415     37.37194         6     1.224     0.721 -38.42   0
       189    129.3040    319.0788 300.1455873 +22.4921982     341.8631     70.19572      1.331     4.75    -2.886595     19.77415     39.01876         8     1.161     0.552  72.92   0
       190     98.5369    318.6837 300.1361585 +22.4828507     743.8287     70.17789      1.574     4.03    -2.914203     19.77415     70.60812        16     1.204     0.958  38.98   0
       191    992.3953    314.6137 300.4156631 +22.7497278     341.1549     69.96361      1.407     2.70    -2.813349     19.77415      54.3281         6     0.934     0.797 -47.66   0
       192    183.0001    311.0054 300.1648916 +22.5059969     307.4516     69.90993      1.497     3.55    -2.683574     19.77415     38.28833         5     1.039     0.350 -36.20   0
       193    977.3069    307.0684 300.4134088 +22.7430389      263.149     70.21354      1.345     3.90    -2.713588     19.77415     34.48642         5     0.870     0.502  41.01   0
       194    786.6896    301.1777 300.3559116 +22.6842253      326.556     70.01723      1.305     4.29    -2.161668     19.77415     40.11185         9     0.935     0.686  23.18   0
       195    884.7841    290.6692 300.3898913 +22.7106040     1084.924     70.10654      1.511     3.51    -2.294415     19.77415     128.4725        16     1.108     0.966  71.25   0
       196    303.5908    288.3566 300.2097263 +22.5356812     1171.591     70.10654      1.645     3.77    -2.104167     19.77415     108.9674        22     1.286     1.093  34.35   0
       197    381.6877    283.2077 300.2356818 +22.5576309     654.2933     69.99937      1.778     4.24    -2.238923     19.77415     46.27379        12     1.000     0.887  -5.42   0
       198    782.6488    281.5623 300.3610223 +22.6773795     186.9126     70.10654      1.210     3.31    -2.097481     19.77415     40.36865         5     1.116     0.285  69.22   0
       199    890.3705    279.3123 300.3953203 +22.7090147     292.1074     70.08868      1.661     4.14    -2.269542     19.77415      29.1054         6     1.077     0.454  -5.51   0
       200    198.3400    275.9160 300.1810516 +22.5005332     281.2144     70.19572      1.407     4.85     -2.35946     19.77415     44.16756        10     1.075     0.877  88.45   0
       201    735.9589    272.2738 300.3494940 +22.6607173     997.6782     70.07083      1.757     4.45    -2.063301     19.77415     81.93195        16     1.103     1.066 -27.92   0
       202   1007.6339    264.0429 300.4368369 +22.7397590     565.0878     70.14222      1.655     3.55    -2.441862     19.77415     60.66365         9     1.014     0.744 -83.39   0
       203    660.6030    263.0616 300.3290173 +22.6354832     711.8854     70.07083      1.532     3.70    -2.024182     19.77415     71.45858        15     1.088     0.907 -72.78   0
       204    856.0888    254.3130 300.3927531 +22.6915592     908.4144     70.24917      1.633     3.98     -2.11237     19.77415     88.63999        18     1.278     1.044 -50.97   0
       205    587.0917    254.5651 300.3088900 +22.6110050     631.2158     70.07083      1.799     4.96    -2.272488     19.77415     53.62457        13     1.275     0.948 -13.36   0
       206    868.0988    253.1125 300.3968858 +22.6948130     552.4922     70.24917      2.077     3.94    -2.150839     19.77415     49.99726         9     1.119     0.566 -66.64   0
       207    984.4841    243.6721 300.4362322 +22.7269692     593.6328     70.19572      1.360     2.93    -2.234637     19.77415     75.51907        11     0.930     0.787  21.44   0
       208      8.4975    241.3234 300.1333131 +22.4336383     276.4647     70.23136      1.309     3.43    -2.766509     19.77415     44.03999         5     0.923     0.498  87.09   0
       209    218.8960    237.4980 300.1999119 +22.4956779     325.4027     70.26698      1.461     4.15    -1.959585     19.77415     57.59157         9     1.205     0.728 -66.17   0
       210     80.9625    231.9494 300.1588593 +22.4526978     1132.114     70.08868      1.477     3.16    -2.245018     19.77415      129.808        18     1.109     0.971 -83.95   0
       211     30.6059    228.6816 300.1442815 +22.4366479     314.7929     70.01723      1.699     4.87    -2.562656     19.77415      36.0122         8     1.165     0.673  46.03   0
       212    903.4801    228.3774 300.4159439 +22.6983061     439.4984     70.05297      1.678     3.64    -2.097677     19.77415     44.45178         7     0.856     0.659 -15.41   0
       213    238.2289    225.2213 300.2099056 +22.4979551     3227.037     70.08868      1.584     3.17    -1.853069     19.77415     338.1549        31     1.276     1.200 -56.13   0
       214     22.2669    219.5722 300.1446489 +22.4315323      806.835     70.07083      1.624     4.14    -2.580206     19.77415      102.411        15     1.314     0.829  22.46   0
       215    222.2134    215.8500 300.2079700 +22.4904612     272.3978     70.12438      1.387     3.87    -1.848606     19.77415     45.42337         6     1.026     0.584 -66.19   0
       216    882.0045    206.2918 300.4164198 +22.6855251      1998.27     69.99937      1.584     3.15    -1.958366     19.77415     209.9874        25     1.234     1.097 -84.10   0
       217    985.6905    204.9725 300.4491719 +22.7162071     1505.863     70.07083      1.451     2.94    -2.067568     19.77415     182.5408        21     1.120     1.042  67.01   0
       218    185.0269    202.3722 300.2007886 +22.4754374     170.8463     70.05297      1.144     3.02    -1.901305     19.77415     39.22017         5     0.758     0.597  85.54   0
       219    121.9136    191.3579 300.1847547 +22.4533411     350.8841     70.07083      1.517     2.33    -1.899684     19.77415     46.14847         5     0.727     0.426 -21.86   0
       220    483.0523    189.1468 300.2977481 +22.5610267     1076.718     70.12438      1.753     3.83    -2.140648     19.77415     86.08663        17     1.186     1.028 -88.01   0
       221    257.1633    169.1384 300.2339935 +22.4875400     3472.822     70.10654      1.601     3.03    -1.814053     19.77415     324.6305        31     1.340     1.124 -80.75   0
       222    108.6284    168.7514 300.1879644 +22.4428688     353.2822     70.10654      1.501     2.38    -1.800101     19.77415     50.23871         5     0.729     0.425  67.23   0
       223    503.1099    154.3419 300.3152849 +22.5570459     3537.385     70.16006      1.711     3.57    -2.069962     19.77415     308.7848        34     1.370     1.243 -85.79   0
       224    388.4825    153.8737 300.2797774 +22.5225423      367.382     70.19572      1.778     5.43    -1.901725     19.77415     48.63461        11     1.347     1.050 -75.85   0
       225    755.4430    144.1420 300.3971559 +22.6297452     524.0946     70.05297      1.977     4.50    -1.597861     19.77415     42.12214         9     1.118     0.662 -11.42   0
       226    631.4223    134.3650 300.3617055 +22.5897703      3496.69     70.10654      1.703     3.44    -1.654047     19.77415     332.2144        32     1.342     1.219 -61.93   0
       227    406.4185    133.5746 300.2919431 +22.5220924     877.8328     70.10654      1.782     3.82    -2.001199     19.77415     87.09254        18     1.228     1.015 -80.99   0
       228    672.3615    131.7225 300.3753102 +22.6012805     452.7563     70.07083      1.770     5.55    -1.644421     19.77415     43.84153         7     1.182     0.735  15.10   0
       229    957.9291    125.3338 300.4663634 +22.6849989     324.7465     70.12438      1.337     4.32    -1.770552     19.77415     45.43493         8     0.941     0.774  -7.45   0
       230    155.3704    125.9276 300.2163815 +22.4446040     357.3946     70.08868      1.390     3.70    -1.682408     19.77415     45.97053         7     0.850     0.751  46.17   0
       231    675.5490    119.2880 300.3803377 +22.5986633     1579.985     70.12438      1.639     3.42    -1.618003     19.77415     162.5699        20     1.156     1.053  54.49   0
       232    690.8734    117.6528 300.3856405 +22.6027857     503.6693     70.10654      1.947     4.03    -1.612376     19.77415     42.86238         7     0.983     0.578 -56.75   0
       233    761.9406    110.6839 300.4100371 +22.6220778     895.5782     70.19572      1.506     3.97     -1.50815     19.77415     73.14446        15     1.101     0.964  17.73   0
       234    700.3843    103.6644 300.3931413 +22.6016165     382.1042     70.07083      1.511     3.66    -1.586852     19.77415     42.44477         5     0.943     0.435 -74.88   0
       235    505.7698    103.3400 300.3326621 +22.5431960     695.2145     70.12438      1.801     3.95    -2.137516     19.77415     57.15001        12     1.042     0.919 -77.27   0
       236     78.4396    103.5918 300.1997300 +22.4151152     245.4906     70.10654      1.693     4.15    -1.524883     19.77415      26.0318         5     0.995     0.493 -86.23   0
       237    409.6420    101.4928 300.3033552 +22.5138470     533.1873     70.10654      1.839     3.83    -2.151085     19.77415     48.82673        10     1.081     0.860  46.10   0
       238    180.9393     91.6883 300.2354349 +22.4424475     2187.229     70.16006      1.675     3.23    -1.779337     19.77415     221.4361        28     1.273     1.191   4.10   0
       239    748.8666     91.9048 300.4120575 +22.6127642     313.7594     70.21354      1.352     4.81    -1.531595     19.77415     49.34517         7     0.969     0.846 -42.56   0
       240    742.3846     84.1003 300.4125706 +22.6085793     417.8553     69.99937      1.606     4.09    -1.560239     19.77415     46.96266         6     0.840     0.637  64.59   0
       241    297.0070     83.7270 300.2740931 +22.4749725     710.9777      70.0351      1.615     3.58    -2.131207     19.77415     77.32537        13     0.983     0.960  19.50   0
       242    779.5966     78.7455 300.4259001 +22.6181891     483.6274     70.05297      2.045     5.62    -1.453659     19.77415      34.0125         8     1.006     0.885 -89.24   0
       243    799.9409     75.0401 300.4334407 +22.6232188     1177.363     70.08868      1.500     3.23    -1.412477     19.77415     113.8158        19     1.131     1.020 -51.67   0
       244    506.2215     74.4175 300.3421861 +22.5350243     237.3774     70.07083      1.280     3.52    -1.834329     19.77415     29.67097         5     0.791     0.452  17.65   0
       245    183.4740     70.7352 300.2430199 +22.4371938        605.2     70.12438      1.707     4.90    -1.758593     19.77415     55.58525        12     1.272     0.726  15.88   0
       246    748.3127     67.9244 300.4196651 +22.6057069     627.9472     70.21354      1.777     3.91    -1.553241     19.77415     57.17924        13     1.104     0.903 -60.70   0
       247    974.9448     68.0642 300.4902508 +22.6736296     461.4505     70.14222      1.445     4.32    -1.599661     19.77415     45.75967        10     0.998     0.869   3.76   0
       248    600.8995     52.9451 300.3786194 +22.5572322     334.9887     70.17789      1.439     3.35    -1.312365     19.77415     48.72766         7     0.951     0.620  -5.07   0
       249    764.8587     46.9628 300.4316194 +22.6046395     285.5158     70.10654      1.351     3.92     -1.55421     19.77415     40.00965         6     0.983     0.449 -39.87   0
       250    572.9693     45.4318 300.3723623 +22.5467035     1065.194     70.08868      1.608     3.73    -1.377429     19.77415     108.1647        19     1.179     1.013 -52.17   0
       251    295.6767     42.7054 300.2869865 +22.4627962     413.9043     70.21354      1.539     4.37    -2.139572     19.77415     45.96498         8     0.999     0.767 -71.52   0
       252     10.4360     42.3172 300.1984881 +22.3771311     428.6678     70.07083      1.417     2.91    -1.220297     19.77415     59.09753         7     0.869     0.637  85.99   0
       253    529.5112     39.3997 300.3607931 +22.5319462     717.9662     69.99937      1.665     4.93    -1.373194     19.77415     61.88216        14     1.081     0.991  50.41   0
       254    635.1351     36.2131 300.3947054 +22.5626839     795.6629      70.0351      1.703     3.80    -1.285931     19.77415     71.13963        17     1.166     1.008 -17.31   0
       255    230.5480     35.8432 300.2689671 +22.4412961     257.3474     70.12438      1.500     3.50    -2.140084     19.77415     48.21266         5     0.981     0.683 -15.18   0
       256    455.8638     30.1436 300.3408794 +22.5072131     1228.134     70.14222      1.542     3.39    -1.600102     19.77415     126.1565        21     1.223     1.021 -27.36   0
       257    102.9013     28.0657 300.2318274 +22.4007797     661.4372     70.17789      1.412     3.03    -1.288722     19.77415     95.37516        14     1.014     0.891 -56.50   0
       258    587.6777     24.6438 300.3836836 +22.5451389     196.1889     70.07083      1.227     4.81    -1.239139     19.77415     34.32745         5     1.297     0.505 -47.86   0
       259    930.2668     18.3732 300.4924406 +22.6459630     270.2799     70.07083      1.329     4.19    -1.317134     19.77415     41.44784         6     0.884     0.720  10.15   0
