#   1 NUMBER                 Running object number                                     
#   2 X_IMAGE                Object position along x                                    [pixel]
#   3 Y_IMAGE                Object position along y                                    [pixel]
#   4 ALPHA_J2000            Right ascension of barycenter (J2000)                      [deg]
#   5 DELTA_J2000            Declination of barycenter (J2000)                          [deg]
#   6 FLUX_APER              Flux vector within fixed circular aperture(s)              [count]
#   7 FLUXERR_APER           RMS error vector for aperture flux(es)                     [count]
#   8 FLUX_RADIUS            Fraction-of-light radii                                    [pixel]
#   9 FWHM_IMAGE             FWHM assuming a gaussian core                              [pixel]
#  10 BACKGROUND             Background at centroid position                            [count]
#  11 THRESHOLD              Detection threshold above background                       [count]
#  12 FLUX_MAX               Peak flux above background                                 [count]
#  13 ISOAREA_IMAGE          Isophotal area above Analysis threshold                    [pixel**2]
#  14 A_IMAGE                Profile RMS along major axis                               [pixel]
#  15 B_IMAGE                Profile RMS along minor axis                               [pixel]
#  16 THETA_IMAGE            Position angle (CCW/x)                                     [deg]
#  17 FLAGS                  Extraction flags                                          
         1    643.8135     13.2950 300.4125262 +22.5514944     1591.875     70.14327      2.007     4.38    -2.288115     19.80974     106.9921        28     1.410     1.293 -88.39   0
         2    740.4233     13.0601 300.4426901 +22.5803630     570.7219     70.19696      1.811     5.56    -1.778243     19.80974     47.38504        14     1.351     1.073  66.86   0
         3    577.7195      3.4942 300.3951285 +22.5288788     728.0426     65.07252      1.829     5.17    -2.164085     19.80974     60.12034        15     1.217     1.002 -25.72  24
         4    543.6723   1013.9269 300.0560959 +22.8086717     322.9896     70.26848      1.500     4.66    -6.007686     19.80974     35.03981         6     0.913     0.675  59.68   0
         5    102.1366   1019.4368 299.9170398 +22.6776281     1248.929     70.21485      8.694    13.94   -0.3494253     19.80974     75.42772        27     2.860     1.891 -51.99  19
         6     94.8349   1020.9155 299.9142906 +22.6758574     1379.454     67.06819      5.573    10.87   -0.3851506     19.80974     44.84742        31     2.958     1.113 -52.31  19
         7    765.9807   1012.3821 300.1258099 +22.8749578       560.45     70.21485      1.279     2.49    -4.420256     19.80974     89.97237        11     0.901     0.735  75.48   0
         8    922.2167   1010.1405 300.1752212 +22.9211929     291.6544     70.17907      1.535     4.29     -5.42099     19.80974     28.83089         5     0.742     0.707 -61.95   0
         9    788.0984   1006.1005 300.1347456 +22.8797934     6363.486     70.44696      1.217     2.09    -4.419608     19.80974     1069.745        30     1.021     0.958  -0.78   0
        10    833.7506   1005.6143 300.1491266 +22.8933525     324.5752     70.23273      1.039     1.75    -4.593027     19.80974     62.37703         5     0.649     0.464  18.91   0
        11     83.6311   1021.5395 299.9106079 +22.6726692     1228.071     64.91795      4.771    12.75    -1.005541     19.80974     44.60822        33     3.142     1.440 -59.68  27
        12    839.7053    993.7994 300.1548304 +22.8917500     313.5906     70.08955      1.399     3.10    -4.610094     19.80974     38.41404         6     0.736     0.617 -41.70   0
        13    796.5792    988.1251 300.1432426 +22.8771823     780.9328     70.21485      1.257     2.49    -4.442255     19.80974     127.1693        12     0.952     0.734  25.40   0
        14    979.6913    986.8680 300.2007187 +22.9317562     290.7643     70.33993      1.174     2.47    -5.297774     19.80974     56.73269         6     0.729     0.586  -8.35   0
        15    834.8536    981.9232 300.1571870 +22.8868874     318.4527     70.25061      1.116     2.59    -4.576628     19.80974     62.98112         7     0.837     0.529  38.39   0
        16    173.9714    982.1418 299.9514995 +22.6885299     264.8032     70.21485      2.252     4.63    -2.022257     19.80974     34.34485         6     1.361     0.447  23.95   0
        17    942.7789    978.5675 300.1919149 +22.9183022     181.6619     70.21485      1.059     2.82    -5.222991     19.80974     37.67082         5     0.707     0.479  14.11   0
        18    883.2143    972.7431 300.1752466 +22.8987628     336.9888     70.19696      1.188     3.39    -4.802113     19.80974     49.03603         8     0.908     0.736  54.20   0
        19    734.4908    972.0207 300.1291484 +22.8539319     272.4922     70.16117      1.029     2.03    -4.441577     19.80974     61.20031         8     0.741     0.648  -5.33   0
        20    447.4973    968.4948 300.0409718 +22.7667723     2691.614     70.39347      1.420     6.26    -4.478961     19.80974     462.8865        23     1.120     0.984 -13.26   0
        21    745.6502    969.1056 300.1335733 +22.8564446     331.4982     70.28635      1.136     1.79    -4.445325     19.80974     70.22216         6     0.715     0.472  82.93   0
        22    109.0748    957.7399 299.9392870 +22.6620424     202.9875     70.26848      1.327     3.60    -2.883748     19.80974     33.26262         5     0.794     0.503  51.91   0
        23    172.4260    954.1507 299.9601344 +22.6800472     437.2314     70.23273      1.346     2.82    -3.104063     19.80974     67.67045         9     1.008     0.591  79.15   0
        24    149.6651    951.3907 299.9539623 +22.6724187     812.0029     70.19696      1.223     2.41    -3.174572     19.80974     124.9878        12     0.939     0.748  64.75   0
        25   1021.1694    940.0085 300.2289135 +22.9307484     1430.337     66.23923      1.236     2.23    -4.958598     19.80974     208.5152        13     0.891     0.772 -41.53  16
        26     24.6050    941.3099 299.9184067 +22.6319556     165.6558     70.12537      0.882     3.76    -4.128312     19.80974     45.62038         5     0.848     0.477 -43.54   0
        27    975.2671    938.4327 300.2151142 +22.9165298     1242.714     70.21485      1.220     2.12    -4.895378     19.80974     192.6016        14     0.907     0.788   0.38   0
        28    181.4656    933.1097 299.9697939 +22.6767349     258.2497     70.33993      1.357     2.54    -3.938152     19.80974     46.11201         5     0.725     0.455  68.84   0
        29    627.0593    926.5296 300.1105119 +22.8086442     2757.285     70.25061      1.367     2.57    -4.454799     19.80974     323.9853        27     1.164     1.048   9.83   0
        30    429.4805    923.8766 300.0498970 +22.7485732     323.4982     70.32207      1.325     4.21    -4.425296     19.80974     36.22497         6     1.014     0.498  87.43   0
        31    177.4126    920.5577 299.9726215 +22.6719213     701.4009     70.21485      1.241     2.56     -4.08818     19.80974     92.72673        11     0.889     0.754  85.51   0
        32    647.6537    919.1880 300.1193136 +22.8127196     386.4424     70.21485      1.233     3.31    -4.455373     19.80974     52.37337         9     0.878     0.723 -89.74   0
        33    803.0089    906.2180 300.1719192 +22.8556148     2413.704     70.16117      1.343     2.49    -4.434462     19.80974      314.064        23     1.055     1.017  80.98   0
        34   1020.0317    906.1570 300.2395820 +22.9206911     545.3597     69.53191      1.227     2.25    -4.542503     19.80974     98.32139         8     0.786     0.624 -33.72  16
        35    520.2556    898.7384 300.0863207 +22.7686179     386.5592     70.28635      1.450     2.72    -4.277126     19.80974     50.70528         8     0.869     0.615   4.96   0
        36    166.7346    897.0227 299.9769662 +22.6619710     505.4528     70.19696      1.237     2.20    -4.087975     19.80974     76.61879         8     0.762     0.636 -55.06   0
        37    316.2279    889.1132 300.0259991 +22.7046029     30815.79     70.21485      1.429     2.62    -4.188344     19.80974     3580.611        70     1.291     1.231  83.94   0
        38    573.9688    887.7879 300.1066008 +22.7816001     820.8467     70.21485      1.437     3.43     -4.21788     19.80974     77.13655        14     1.015     0.897  24.79   0
        39    986.8157    886.8464 300.2355124 +22.9051876      464.588     70.23273      1.194     2.73    -4.326173     19.80974     72.14178         8     0.794     0.667 -43.50   0
        40    603.0054    884.0557 300.1168534 +22.7892444     573.7238     70.19696      1.472     3.26    -4.228142     19.80974     60.13464         9     0.876     0.719  -9.70   0
        41      2.4300    883.7620 299.9302572 +22.6088106     410.2035       60.409      1.234     2.95    -4.582174     19.80974     63.53179         9     0.886     0.684  73.52  24
        42    613.8017    882.5392 300.1207077 +22.7920496     368.7498     70.17907      1.382     3.39    -4.250363     19.80974     37.35954         5     0.740     0.454  20.74   0
        43    756.9398    868.5359 300.1698366 +22.8309828     415.7711     70.25061      1.297     2.67    -4.280002     19.80974     59.10825         8     0.783     0.679 -81.94   0
        44    365.9305    866.3179 300.0488726 +22.7129932     17900.59     70.32207      1.466     2.76    -4.152507     19.80974     1875.956        55     1.285     1.206  59.42   0
        45    380.2694    866.7822 300.0531802 +22.7174314     1130.608     70.23273      1.395     2.89    -4.157813     19.80974     120.0484        15     1.015     0.873  88.23   0
        46    888.7515    861.9232 300.2130576 +22.8686248     1667.461     70.21485      1.335     2.53    -4.248353     19.80974     205.5657        19     1.040     0.928  40.43   0
        47    248.2121    858.3885 300.0148595 +22.6753721     508.8637     70.10746      1.400     4.57    -4.068012     19.80974     53.40199        12     1.146     0.825 -72.59   0
        48    646.6279    858.0193 300.1389088 +22.7948678     488.4301     70.21485      1.382     4.16    -4.317299     19.80974      59.7979        11     1.002     0.908  62.69   0
        49    494.0745    853.1613 300.0930120 +22.7476906     468.0332     70.17907      1.398     4.36    -4.099855     19.80974     52.74105         8     0.852     0.645 -35.44   0
        50     52.9840    853.9725 299.9556496 +22.6154666      356.444     70.23273      1.426     3.52    -4.608584     19.80974     37.09548         7     0.876     0.534 -52.21   0
        51    246.1383    843.0637 300.0192031 +22.6703574      291.238     70.25061      1.564     5.01    -4.082264     19.80974     41.52975         7     1.310     0.541 -61.46   0
        52    538.8881    831.1213 300.1141297 +22.7548208     382.9084     70.35778      1.473     4.88    -3.980096     19.80974     41.43775         9     1.063     0.634 -60.16   0
        53    560.7720    828.5644 300.1217721 +22.7606552     730.5695     70.23273      1.547     3.78    -3.989967     19.80974      75.7664        16     1.166     0.980  39.89   0
        54    955.2256    827.0581 300.2451273 +22.8785533      2486.65     70.21485      1.302     2.28    -4.091128     19.80974     357.1878        20     0.996     0.936 -72.34   0
        55    943.5382    818.5017 300.2442689 +22.8725925     1051.025     70.30421      1.358     2.59    -4.097656     19.80974     114.7214        13     0.972     0.830 -69.08   0
        56    306.8599    812.8889 300.0478974 +22.6799419     344.3916     70.28635      1.332     4.24    -4.176099     19.80974     49.20583        10     0.913     0.786  85.73   0
        57    770.0150    810.0430 300.1929493 +22.8181225     1542.232     70.23273      1.518     3.11    -4.035782     19.80974     142.2476        20     1.158     0.988   4.92   0
        58    974.8538    808.6265 300.2572459 +22.8791479     995.6748     70.23273      1.275     2.47    -4.019215     19.80974     115.9772        13     0.975     0.793 -71.22   0
        59    156.1692    796.6079 300.0063665 +22.6300250      346.364     70.21485      1.429     4.33    -4.054347     19.80974     33.32008         7     1.208     0.441 -39.53   0
        60    852.3908    795.9465 300.2232017 +22.8387848     394.6701     70.21485      1.947     5.77    -4.055381     19.80974     29.99979         9     1.354     0.693  19.37   0
        61    888.4272    786.7698 300.2374186 +22.8469580     84812.62     70.21485      1.426     2.65    -4.056325     19.80974     8793.615       109     1.316     1.294  70.05   0
        62    740.7882    787.0212 300.1913382 +22.8027495     478.1267     70.19696      1.537     4.43    -3.993008     19.80974     43.29948        10     0.964     0.817  68.79   0
        63    921.6027    779.9647 300.2499735 +22.8549529     184.2947     70.19696      1.401     5.81    -4.046027     19.80974     35.90819         8     1.450     0.655 -11.47   0
        64    574.7005    776.0585 300.1431948 +22.7497751     929.2405     70.30421      1.512     4.01    -3.928601     19.80974     88.78906        14     1.101     0.910  58.76   0
        65    755.9187    772.9689 300.2006239 +22.8032557     5292.477     70.21485      1.500     2.96    -3.988066     19.80974      491.205        35     1.206     1.189  76.80   0
        66    257.5428    768.4403 300.0470320 +22.6523933      2660.89     70.19696      1.502     2.65    -4.135702     19.80974     319.3027        26     1.174     1.082   0.20   0
        67    339.6431    766.7007 300.0731195 +22.6765431      662.293     70.21485      1.594     3.39    -4.181229     19.80974     63.52344        14     1.005     0.947 -56.46   0
        68    216.0000    764.0838 300.0355391 +22.6386709     272.3634     70.08955      1.291     3.68    -4.043364     19.80974     36.27925         5     1.351     0.289  90.00   0
        69    548.1321    761.8791 300.1395402 +22.7377355     394.6382     70.32207      1.543     5.18     -3.89611     19.80974     52.44143         8     1.264     0.600 -69.85   0
        70    539.4724    753.9678 300.1394196 +22.7328678     1842.487     70.21485      1.562     3.37    -3.893568     19.80974     172.4596        24     1.182     1.145  89.14   0
        71    529.7346    747.6772 300.1384362 +22.7281413     908.3364     70.30421      1.717     3.69     -3.89304     19.80974     78.98856        17     1.074     1.060  40.59   0
        72    193.1985    743.9650 300.0349997 +22.6260576     353.5902     70.17907      1.282     3.54    -3.990866     19.80974     51.39389         7     0.929     0.633 -88.44   0
        73    207.6859    742.5853 300.0399502 +22.6300122      352.642     70.16117      1.588     5.64    -4.012705     19.80974     30.35762        10     1.060     0.844 -81.38   0
        74    976.3500    738.3799 300.2805728 +22.8594290     231.8078     70.19696      1.000     4.01    -3.980383     19.80974     31.46775         6     0.844     0.546 -45.04   0
        75    454.6748    737.6560 300.1183438 +22.7027421     1021.755     70.25061      1.626     3.41    -3.938352     19.80974     111.2691        18     1.241     0.933  19.47   0
        76    108.5729    732.7742 300.0123508 +22.5974378      11189.8     70.17907      1.473     2.61    -3.785404     19.80974     1393.191        43     1.242     1.173  56.55   0
        77    539.5102    732.7899 300.1463219 +22.7268044     571.7178     70.16117      1.507     3.96    -3.851289     19.80974     52.30568        13     1.062     0.847 -82.15   0
        78     29.5133    734.0945 299.9873697 +22.5740715     279.2679     70.39346      1.402     4.85    -3.677256     19.80974     35.69735         8     0.910     0.731  33.93   0
        79    957.2555    718.6845 300.2810279 +22.8480496     468.9148     70.30421      1.346     3.96    -3.836871     19.80974     63.54246        12     1.025     0.946  76.95   0
        80     54.6939    717.1507 300.0007004 +22.5767793     785.9799     70.26848      1.732     4.76    -3.676078     19.80974     94.38703        16     1.443     0.806 -81.79   0
        81    503.2019    712.9802 300.1414688 +22.7102272      324.667     70.14327      1.500     3.99    -3.682905     19.80974     32.26266         6     0.932     0.489  51.85   0
        82    897.4084    711.3966 300.2647436 +22.8280144     417.8697     70.03577      1.634     4.04    -3.794279     19.80974     55.39922        10     1.236     0.852  27.24   0
        83    459.7357    705.5659 300.1303579 +22.6950573     407.5233     70.21485      1.565     3.61    -3.690203     19.80974     43.34968         8     0.814     0.787  82.28   0
        84    504.1734    701.9557 300.1453574 +22.7073564      515.104     70.23273      1.762     4.42    -3.590294     19.80974     51.12538         9     1.059     0.814 -42.20   0
        85    937.5128    696.8052 300.2819914 +22.8358488     1796.215     70.14327      1.427     2.95    -3.685331     19.80974     188.4286        22     1.095     1.031  -0.28   0
        86    469.1854    697.1658 300.1360302 +22.6954836     1005.172     70.19696      1.710     3.78    -3.590152     19.80974     79.48153        19     1.172     1.082 -88.77   0
        87     31.3053    691.0848 300.0019165 +22.5622855     2770.494     70.39346      1.462     2.76    -3.618711     19.80974      300.294        24     1.127     1.049  88.01   0
        88    332.6219    683.8747 300.0978819 +22.6506870     5248.311     70.21485      1.687     3.34    -4.185246     19.80974     484.5656        36     1.338     1.208  76.66   0
        89    455.1115    680.8975 300.1369438 +22.6865941     5169.854     70.39346      1.666     3.46    -3.520207     19.80974     434.4693        39     1.340     1.303 -15.73   0
        90    866.5565    674.3004 300.2671963 +22.8081142     1077.536     70.21485      1.643     4.40    -3.533271     19.80974     87.08376        18     1.233     0.968  61.13   0
        91    951.1974    671.8319 300.2943815 +22.8327805     7202.594     70.17907      1.461     2.89    -3.481436     19.80974     701.2635        34     1.181     1.151  71.96   0
        92    515.5795    670.4276 300.1591621 +22.7017346     6658.442     70.21485      1.739     3.56      -3.3427     19.80974     523.1711        42     1.375     1.308  40.33   0
        93    684.8218    665.7963 300.2133495 +22.7511753     385.5734     70.17907      1.498     4.39    -3.605553     19.80974     48.91287         7     1.134     0.658  77.37   0
        94    243.2939    665.9205 300.0759541 +22.6187251     768.3904     70.33993      1.506     3.75    -3.859238     19.80974     82.08923        15     1.177     0.894  61.65   0
        95    447.3444    658.7391 300.1417349 +22.6779076     2480.041     70.28635      1.740     3.53    -3.496031     19.80974     218.5587        31     1.324     1.253 -55.65   0
        96    789.7484    658.2705 300.2484781 +22.7804822     473.5894     70.21485      1.587     5.05    -3.356591     19.80974     39.87743         9     0.959     0.751 -76.89   0
        97    425.6703    656.8631 300.1356032 +22.6708657     635.6418     70.25061      1.566     3.59    -3.588613     19.80974     59.00091        13     0.978     0.931  38.31   0
        98    179.8950    656.3887 300.0593531 +22.5969595     349.0321     70.16117      1.267     2.60    -3.668324     19.80974     46.95195         6     0.735     0.574  46.97   0
        99    866.7819    654.0575 300.2738511 +22.8023701     980.1465     70.19696      1.605     3.55    -3.495684     19.80974     75.40299        16     1.180     0.875 -89.44   0
       100    747.6545    650.8900 300.2377662 +22.7657410     398.3494     70.25061      1.736     4.45    -3.486028     19.80974     46.07704        10     1.221     0.596  83.05   0
       101    563.8751    646.1010 300.1821035 +22.7092446       115127     70.33993      1.741     3.75    -3.308758     19.80974     8460.928       147     1.588     1.552  -8.43   0
       102    250.0574    646.3127 300.0844330 +22.6151336     2116.311     70.28635      1.679     3.59    -3.795229     19.80974     167.3491        27     1.281     1.175  64.92   0
       103    815.4398    642.3286 300.2616675 +22.7836093      305.603     70.19696      1.058     3.34    -3.254915     19.80974     46.23572         5     0.746     0.432  66.33   0
       104    454.4281    626.5200 300.1544168 +22.6707909     1589.779     70.23273      1.881     4.31    -3.465171     19.80974     121.5138        25     1.331     1.194  88.06   0
       105    851.4917    612.3093 300.2826640 +22.7857995     967.3282     70.37563      1.689     4.39    -3.328243     19.80974     74.34698        19     1.266     1.082  52.85   0
       106    722.6364    610.1650 300.2432186 +22.7465489      1435.35     70.28635      1.743     4.14     -3.29135     19.80974     106.5613        24     1.319     1.141  75.31   0
       107    931.8477    606.7927 300.3095030 +22.8083035     285.4092     70.23273      1.677     4.35    -3.388263     19.80974     30.06631         5     0.871     0.618  34.46   0
       108    510.2775    606.5991 300.1782706 +22.6818317     392.2413     70.10746      1.689     4.09    -3.275236     19.80974     36.43758         7     0.984     0.486   4.46   0
       109    979.7951    603.9005 300.3253918 +22.8218439     703.8575     70.10746      1.457     4.07    -3.346355     19.80974     67.53611        11     1.017     0.770 -82.23   0
       110    851.5812    602.5837 300.2858547 +22.7830338     1303.975     70.19696      1.854     4.54    -3.294204     19.80974     81.04456        23     1.354     1.142  72.58   0
       111    965.3557    602.6819 300.3212861 +22.8171662     382.3066     70.17907      1.448     3.01    -3.350722     19.80974     52.66182         9     0.962     0.676  36.30   0
       112    889.6745    597.5193 300.2993732 +22.7929990     2367.812     70.32207      1.628     3.34    -3.347023     19.80974      219.684        25     1.260     1.099 -63.92   0
       113    122.0658    588.4059 300.0634937 +22.5601087     572.4832     70.21485      1.422     3.32    -3.583678     19.80974     63.16566         9     0.880     0.687  56.11   0
       114    981.4815    587.8699 300.3311306 +22.8177450     422.7233     70.32207      1.541     3.84    -3.288077     19.80974     62.17838        10     0.990     0.923   6.09   0
       115    663.5438    568.4659 300.2383758 +22.7168591     399.3368     70.26848      1.625     5.42    -3.070126     19.80974     41.69157         8     1.086     0.836 -47.51   0
       116    977.2642    560.4343 300.3387365 +22.8086008     276.4038     70.21485      1.535     3.37    -3.184372     19.80974     32.35019         5     0.751     0.438  22.34   0
       117    723.9002    560.1607 300.2598716 +22.7325735     466.6313     70.23273      1.804     6.53    -3.060029     19.80974     43.09274         8     1.222     0.979   8.40   0
       118    881.2704    556.3454 300.3101419 +22.7786560     555.6876     70.25061      1.708     4.77    -3.078335     19.80974     49.09355        12     1.156     0.832 -60.66   0
       119    866.0212    553.0904 300.3064477 +22.7731504     360.5636     70.14327      1.493     4.39    -3.041167     19.80974      26.9531         6     1.242     0.442 -54.35   0
       120    609.8099    551.0162 300.2273199 +22.6957362     1794.204     70.14327      1.815     4.14    -3.011284     19.80974     125.1036        24     1.313     1.159  55.81   0
       121   1020.9686    529.7225 300.3623496 +22.8128749     816.2696     66.95576      1.658     4.17    -3.162491     19.80974     60.94344        15     1.139     0.963 -79.16  16
       122    979.3510    528.3578 300.3498158 +22.8000122     489.2704     70.23273      1.594     4.56    -3.110929     19.80974     52.19561        11     1.039     0.915  15.92   0
       123    720.4924    525.0583 300.2702220 +22.7214742     534.2305     70.26848      1.728     5.70    -2.970937     19.80974     50.98465        12     1.181     0.858 -47.45   0
       124    225.0073    523.0468 300.1167251 +22.5722673     403.5514     70.23273      1.990     4.63    -3.412074     19.80974     44.52992         7     1.216     0.501  83.96   0
       125    286.8224    519.0743 300.1372294 +22.5896784     2098.146     70.23273      1.775     3.97     -3.38249     19.80974     162.8979        26     1.342     1.155  62.32   0
       126   1019.7175    517.0718 300.3660721 +22.8088657     2471.917     70.14327      1.537     3.09    -3.148838     19.80974      216.458        25     1.172     1.087  20.99  16
       127    234.0514    513.9196 300.1225025 +22.5723639       4277.4     70.21485      1.697     3.41    -3.345511     19.80974     403.2505        34     1.340     1.253  65.60   0
       128    374.8319    509.3049 300.1677686 +22.6132829     3435.019     70.19696      2.591     9.77     -3.16768     19.80974     739.0434        33     2.367     1.125  87.67   0
       129    999.4914    508.0398 300.3627009 +22.8002104      1019.27     70.21485      1.439     3.39     -3.11325     19.80974      90.2802        15     1.064     0.887  70.18   0
       130    618.9016    504.5512 300.2452548 +22.6851257     10613.52     70.25061      1.875     4.18    -2.874908     19.80974     689.3984        56     1.517     1.446  44.97   0
       131    816.4330    495.3814 300.3097556 +22.7417139      217.987     70.19696      1.372     3.44    -2.955074     19.80974     26.75724         5     1.098     0.311 -20.76   0
       132    952.6414    486.8955 300.3549663 +22.7800978     319.9031     70.23273      1.473     5.52    -3.026962     19.80974     31.48508         7     1.020     0.843 -52.99   0
       133    173.7387    485.0693 300.1131372 +22.5459892      1097.87     70.25061      1.728     4.22    -3.131223     19.80974     95.54125        21     1.305     1.114  30.80   0
       134    973.1803    474.3857 300.3654359 +22.7826583     558.4587     70.17907      1.535     4.83     -3.04756     19.80974     52.64357        13     1.195     0.864  66.51   0
       135    559.5825    474.0426 300.2367064 +22.6585800      3741.76     70.23273      1.941     4.24    -2.981257     19.80974       256.05        40     1.540     1.380  56.60   0
       136    763.4069    463.0453 300.3037455 +22.7165333     531.3358     70.23273      1.799     6.94    -2.892955     19.80974     39.45715        14     1.274     1.060 -48.27   0
       137    466.1933    460.4946 300.2120495 +22.6266834     3507.313     70.10746      1.906     4.02    -2.901868     19.80974     247.4286        37     1.441     1.385  63.92   0
       138    858.1290    454.8011 300.3359377 +22.7425559     824.2244     70.14327      1.851     4.69    -2.944809     19.80974     59.28457        15     1.219     0.905 -21.09   0
       139    955.5834    454.5534 300.3663951 +22.7716880     377.3679     70.25061      1.483     2.98     -3.02343     19.80974     46.99731         5     0.904     0.480   9.82   0
       140    353.8611    439.7410 300.1838548 +22.5870329     1477.233     70.26848      1.872     4.22    -2.649532     19.80974     106.5851        28     1.367     1.311 -83.65   0
       141     72.4392    437.1962 300.0972261 +22.5018572     524.4131     70.23273      1.796     5.56    -3.131771     19.80974     46.12741        12     1.110     1.024 -49.53   0
       142    323.0975    429.1645 300.1777260 +22.5747695     16890.27     70.21485      1.881     3.87    -2.812213     19.80974     1305.969        65     1.538     1.472  53.69   0
       143    857.4125    426.2781 300.3449835 +22.7341482     726.7967     70.21485      1.721     5.17    -2.904223     19.80974     50.62343        16     1.210     1.010  16.41   0
       144     19.5614    417.2639 300.0872817 +22.4802700     2995.803     70.19696      1.682     3.33    -3.531147     19.80974     258.0992        29     1.286     1.167  67.01   0
       145    733.2816    408.8962 300.3119578 +22.6919530     877.5859     70.35778      1.703     4.97     -2.65565     19.80974     66.69157        17     1.119     1.100  30.82   0
       146    948.6708    400.7236 300.3817323 +22.7541511     360.5301     70.30421      1.662     4.62    -3.034864     19.80974     36.13862         8     1.022     0.859  44.72   0
       147    395.4452    393.3976 300.2118442 +22.5862081     1195.708     70.21485      2.062     5.81    -2.564866     19.80974     84.32518        25     1.502     1.260  77.93   0
       148    834.5628    386.5252 300.3507795 +22.7158816     340.2386     70.16117      1.594     3.83    -2.867247     19.80974      34.6993         5     0.930     0.524 -45.16   0
       149    471.0320    372.6605 300.2420935 +22.6029250     577.4014     70.25061      1.789     6.21    -2.388304     19.80974      45.7003        14     1.329     0.815 -89.45   0
       150    715.9562    364.5596 300.3209661 +22.6740268     1228.239     70.28635      1.972     4.22    -2.546877     19.80974     84.02669        20     1.252     1.123 -35.53   0
       151    976.9918    358.6887 300.4042191 +22.7505568     1837.321     70.12537      1.722     3.87    -3.227234     19.80974     136.6719        23     1.255     1.062  65.37   0
       152     99.3818    342.9465 300.1362118 +22.4829131     861.3477     70.19696      1.695     4.31    -2.703246     19.80974     69.25775        15     1.200     0.935 -64.58   0
       153    130.1044    341.7584 300.1461412 +22.4917911     380.7485     70.23273      1.690     3.58    -2.799128     19.80974     35.57821         5     0.819     0.525 -29.86   2
       154    787.7493    326.5485 300.3556769 +22.6846241      384.103     70.25061      1.590     4.88    -2.680608     19.80974     33.13815         8     0.843     0.802  32.73   0
       155    885.4600    315.0493 300.3898601 +22.7105964     1201.713     70.26848      1.791     4.32    -2.806097     19.80974     93.58605        21     1.249     1.168  16.97   0
       156    304.1925    312.4030 300.2097776 +22.5355944     1290.714     70.03577      1.938     5.11    -2.632876     19.80974     81.46602        26     1.443     1.254  59.67   0
       157    382.3584    307.5028 300.2356745 +22.5576308     600.4102     70.21485      1.954     6.85    -2.475955     19.80974     40.92567        15     1.391     1.069 -67.45   0
       158    784.5798    306.0424 300.3613498 +22.6777834     349.3849     70.25061      1.856     4.85    -2.645348     19.80974      31.1302         5     0.997     0.669   1.87   0
       159    199.4825    299.4826 300.1814271 +22.5004779     478.5308     70.33993      1.804     4.56    -2.584976     19.80974     52.21481         9     1.309     0.691  70.35   0
       160    736.7736    296.4296 300.3495794 +22.6606966     1020.411     70.21485      1.846     4.34     -2.60349     19.80974     65.14188        19     1.256     1.038 -56.01   0
       161    221.0219    293.0849 300.1901984 +22.5051036      336.611     70.16117      1.703     4.54    -2.569715     19.80974     36.32171         6     1.376     0.425  73.27   0
       162   1008.0894    288.5323 300.4367040 +22.7397082      659.738     70.35778      1.887     6.39    -3.454467     19.80974     42.51705        14     1.145     1.003 -79.54   0
       163    740.8871    288.3416 300.3534874 +22.6596059     397.3134     70.28635      1.695     5.28    -2.623411     19.80974     37.00922         5     0.985     0.798  82.09   0
       164    661.1528    287.0518 300.3290743 +22.6353404     660.5463     70.25061      2.015     7.38    -2.651864     19.80974     45.20002        19     1.391     1.196  58.65   0
       165    856.5219    278.6573 300.3926603 +22.6914700     756.8546     70.26848      1.682     4.75    -2.684876     19.80974     55.11903        17     1.254     0.949  70.98   0
       166    587.5107    278.8460 300.3088121 +22.6109113     484.3892     70.21485      1.663     5.71    -2.629651     19.80974     45.81309         9     1.156     0.911  28.22   0
       167    869.3306    277.5415 300.3970145 +22.6949866     363.0853     70.23273      1.603     4.05    -2.698564     19.80974     31.90952         6     0.997     0.470  89.79   0
       168    985.1956    268.0488 300.4362170 +22.7269640     646.4244     70.19696      1.512     3.98    -3.061934     19.80974     55.65971        11     1.006     0.886  59.18   0
       169    219.3271    261.3531 300.1999754 +22.4954898     392.2956     70.21485      1.856     5.13     -2.52686     19.80974      40.9703         8     1.288     0.973 -46.93   0
       170     81.4110    256.3685 300.1587447 +22.4526859      1264.25     70.21485      1.727     3.63    -2.561005     19.80974     122.2125        22     1.258     1.119  85.59   0
       171    904.6071    253.0544 300.4159614 +22.6985168      520.887     70.21485      2.050     3.92    -2.720566     19.80974     38.71481         7     0.847     0.702  15.59   0
       172    238.8119    249.4017 300.2099116 +22.4979045     3219.783     70.03577      1.853     3.93    -2.551587     19.80974     250.0283        34     1.454     1.319  79.93   0
       173     23.2688    244.1330 300.1446607 +22.4317309     774.3156     70.26848      1.675     4.24    -2.688757     19.80974     65.82252        18     1.300     1.008  65.97   0
       174    882.7928    230.7256 300.4164121 +22.6855655     2033.362     70.16117      1.862     4.07    -2.696044     19.80974     142.4925        29     1.337     1.261  24.14   0
       175    986.1248    229.2243 300.4491135 +22.7160823     1541.639     70.23273      1.583     3.41    -2.690606     19.80974     151.6393        22     1.246     1.079  60.09   0
       176    432.4896    226.0238 300.2777240 +22.5492721      488.733     70.14327      2.192     5.87    -2.515425     19.80974     37.31295         9     1.234     0.787   3.50   0
       177    122.7820    215.6125 300.1848270 +22.4534046      377.943     70.17907      1.659     5.10    -2.421757     19.80974      40.5774         6     1.134     0.648  18.42   0
       178    483.6067    213.5633 300.2976723 +22.5610184     895.9755     70.21485      1.975     5.60    -2.408484     19.80974     72.10916        18     1.425     1.003  -2.10   0
       179    257.7554    193.4339 300.2339689 +22.4875231     3437.262     70.25061      1.838     3.73    -2.487637     19.80974     252.6317        38     1.427     1.366  47.02   0
       180    109.5310    193.6473 300.1878407 +22.4431272      364.628     70.19696      1.832     3.93    -2.243971     19.80974      30.1379         6     0.925     0.477  -1.83   0
       181    503.7673    178.5191 300.3153213 +22.5569979      3463.42     70.21485      1.942     4.43     -2.62206     19.80974     219.8402        36     1.469     1.389  60.70   0
       182    756.3176    168.2548 300.3972830 +22.6297268     542.6439     70.26848      2.217     6.71    -2.359864     19.80974     38.27839         9     1.462     0.863 -34.72   0
       183    632.0537    158.5219 300.3617425 +22.5896998     3687.085     70.25061      1.939     4.29    -2.596176     19.80974     252.1333        40     1.486     1.433  69.99   0
       184    407.1129    157.6030 300.2920403 +22.5220189     855.9008     70.14327      2.027     5.16    -2.676163     19.80974     62.55383        20     1.530     1.200 -87.51   0
       185    673.5361    155.8026 300.3755417 +22.6013479      411.933     70.19696      1.776     4.04    -2.494345     19.80974     38.37018         7     1.014     0.952  47.05   0
       186    155.9332    150.7286 300.2161863 +22.4447295      326.542     70.25061      1.631     5.71    -2.004463     19.80974     45.36753         6     1.343     0.683 -76.49   0
       187    676.2297    143.3351 300.3804270 +22.5985728     1573.553     70.23273      1.996     4.77    -2.440215     19.80974     97.76287        28     1.450     1.291  58.64   0
       188    762.7023    134.9833 300.4100708 +22.6220782     719.5351     70.14327      1.792     4.30    -2.203756     19.80974     54.05933        15     1.213     1.051 -34.05   0
       189    506.5604    127.7832 300.3326573 +22.5432633     508.5526     70.23273      1.693     4.81    -2.682343     19.80974     49.53711        13     1.225     0.990 -64.88   0
       190     79.4834    127.7932 300.1998799 +22.4152177     306.7602     70.14327      1.342     3.53     -2.04662     19.80974     46.97622         7     0.980     0.608 -65.46   0
       191    410.0627    126.3312 300.3031067 +22.5139233     448.1367     70.26848      1.806     4.58    -2.452294     19.80974     37.03351         6     1.323     0.450  -6.29   0
       192    181.7233    115.9221 300.2354950 +22.4424742      2233.88     70.32207      1.860     3.90    -2.186124     19.80974     171.9238        29     1.378     1.225 -78.14   0
       193    742.8946    109.1264 300.4122918 +22.6087141     480.7771     70.35778      1.371     3.69    -2.031584     19.80974     44.30717         6     1.228     0.318  -4.62   0
       194    297.4971    108.0711 300.2740272 +22.4749349     714.6707     70.32207      1.845     3.67    -2.500529     19.80974     63.97697        16     1.212     1.096  67.57   0
       195    800.5445     99.1529 300.4334884 +22.6231151     1355.534     70.25061      1.831     4.80    -2.060388     19.80974     94.31606        25     1.385     1.258  39.59   0
       196    184.1823     95.0854 300.2430201 +22.4372308     412.6921     70.16117      1.477     5.41    -2.275016     19.80974     54.05043        11     1.375     0.693  -8.93   0
       197    748.9348     91.7484 300.4198124 +22.6055290     493.9052     70.25061      1.692     6.46    -1.962301     19.80974     46.84787        12     1.397     0.898  63.61   0
       198    974.6389     92.1617 300.4900213 +22.6732374     454.7333     70.28635      1.943     4.59     -2.51104     19.80974     32.17861         6     0.973     0.614  59.94   2
       199    601.4717     76.6804 300.3787803 +22.5570236     536.4225     70.33993      2.043     6.71      -2.3176     19.80974     36.25245        10     1.233     1.024  -7.47   0
       200    211.0979     74.9400 300.2579206 +22.4395187     314.3632     70.28635      1.391     3.55    -2.326578     19.80974     37.00817         5     0.622     0.612  50.78   0
       201    572.9839     69.8984 300.3721127 +22.5465397     1078.499     70.12537      1.794     4.46    -2.394622     19.80974     80.13864        25     1.401     1.171  18.92   0
       202    296.3961     67.8189 300.2867451 +22.4630477     444.1701     70.16117      1.399     2.06    -2.352916     19.80974     53.08231         5     0.696     0.443 -67.19   0
       203     10.7032     66.7874 300.1983136 +22.3770812     348.2356     70.10746      1.478     5.28    -1.411819     19.80974     41.55384         8     0.989     0.795   2.63   0
       204    530.6102     63.6674 300.3609458 +22.5320530     878.3144     70.21485      1.862     4.83    -2.440976     19.80974       56.367        18     1.260     1.041   1.43   0
       205    635.7133     60.6070 300.3946558 +22.5626637     858.9651     70.12537      1.847     5.59    -2.288115     19.80974      64.4962        18     1.350     1.077  -0.84   0
       206    456.3996     54.2455 300.3409108 +22.5071082     1271.572     70.21485      2.027     4.60    -2.325281     19.80974     111.9411        25     1.462     1.227  40.37   0
       207    103.3988     52.7231 300.2316650 +22.4008463     809.4102     70.10746      1.678     4.03    -1.599516     19.80974     70.37427        17     1.159     1.023   5.69   0
       208    164.6755     34.0790 300.2567504 +22.4138694     496.1395     70.32207      1.570     4.81    -2.166232     19.80974      54.7059        12     1.257     0.881 -73.53   0
       209    125.5244     24.3781 300.2477330 +22.3993453     278.6014     70.19696      1.531     3.39    -1.666842     19.80974     30.85015         5     1.060     0.313  21.45   0
       210    731.4709   1018.2028 300.1131655 +22.8662704     447.0291     70.16117      1.719     5.48    -4.429875     19.80974     46.79128        12     1.442     0.747  60.89  16
       211     89.7370   1020.8349 299.9127336 +22.6743024     1863.705      67.3671      6.496    14.64   -0.6821952     19.80974     50.62551        57     3.380     1.764 -50.55  27
