#   1 NUMBER                 Running object number                                     
#   2 X_IMAGE                Object position along x                                    [pixel]
#   3 Y_IMAGE                Object position along y                                    [pixel]
#   4 ALPHA_J2000            Right ascension of barycenter (J2000)                      [deg]
#   5 DELTA_J2000            Declination of barycenter (J2000)                          [deg]
#   6 FLUX_APER              Flux vector within fixed circular aperture(s)              [count]
#   7 FLUXERR_APER           RMS error vector for aperture flux(es)                     [count]
#   8 FLUX_RADIUS            Fraction-of-light radii                                    [pixel]
#   9 FWHM_IMAGE             FWHM assuming a gaussian core                              [pixel]
#  10 BACKGROUND             Background at centroid position                            [count]
#  11 THRESHOLD              Detection threshold above background                       [count]
#  12 FLUX_MAX               Peak flux above background                                 [count]
#  13 ISOAREA_IMAGE          Isophotal area above Analysis threshold                    [pixel**2]
#  14 A_IMAGE                Profile RMS along major axis                               [pixel]
#  15 B_IMAGE                Profile RMS along minor axis                               [pixel]
#  16 THETA_IMAGE            Position angle (CCW/x)                                     [deg]
#  17 FLAGS                  Extraction flags                                          
         1    595.9728      4.7675 300.3787445 +22.5570446     553.5419     69.05817      1.452     3.07    -2.147581     19.81944     59.42608        10     0.906     0.832  67.59  16
         2    205.2549      2.3621 300.2579825 +22.4392848       231.42     60.08397      1.117     3.41    -2.721504     19.81944     33.55545         5     0.735     0.457  15.02  16
         3      1.6038   1017.5946 299.8648104 +22.6692878     775.9753     56.03542      5.801    10.23    -17.74893     19.81944     32.30772        13     2.980     0.979  69.74  26
         4    644.4765   1023.6544 300.0627087 +22.8640853     3514.285     54.76481      0.884     1.66    -6.299397     19.81944     1052.505        19     1.178     0.591  -1.24  24
         5    206.8804   1019.9070 299.9278170 +22.7316232     2542.094     69.89044     14.530    33.62     12.31543     19.81944     67.42438       248     8.125     3.861  -9.77  27
         6    243.9301   1014.1581 299.9412031 +22.7411046     5735.167     70.21343      9.622    33.76     3.878499     19.81944     125.2725       631    10.151     5.475  52.37  26
         7    225.1358   1021.5398 299.9329583 +22.7375744     3764.175     64.94973      5.384    18.02     7.879968     19.81944     89.69807       135     4.368     2.625   6.17  27
         8    173.2509   1016.6514 299.9184278 +22.7205886      1713.85       70.285      7.525    16.16     20.40347     19.81944     44.03031        55     3.225     2.252  69.36  26
         9     81.7698    950.8487 299.9114358 +22.6742577     2130.975     70.26711     17.451    32.91     1.212197     19.81944     100.1054       248     8.733     3.442 -30.82   3
        10     84.5116    988.3799 299.9000679 +22.6858318     3056.065     70.19553     26.779    81.95     11.42106     19.81944      67.3178      1487    19.149     9.732 -83.39  26
        11    503.1964   1015.4764 300.0213989 +22.8193341     78.53403      70.1597      1.038     3.40    -5.672614     19.81944     35.62345         5     0.769     0.434  22.91   0
        12    565.8746    984.3602 300.0510372 +22.8292272     872.7366     70.23133      1.057     1.60    -5.711529     19.81944     192.2145        13     0.824     0.753   9.50   0
        13     67.4400    971.7922 299.9001669 +22.6759518      1734.54       70.285     17.751    21.87     3.162771     19.81944     44.95596       102     5.368     2.474 -63.49   3
        14    104.5138    979.8895 299.9090449 +22.6894090      1333.47     70.41008      7.549     7.73     12.49623     19.81944     48.09055        14     1.724     0.971  -0.29   3
        15    390.3107    978.9724 299.9981702 +22.7749795     3825.469     70.23133      1.080     1.76    -5.777835     19.81944     779.8762        25     0.917     0.881  62.27   0
        16    112.6621    979.5419 299.9116891 +22.6917572     1073.127     70.30289      7.272     7.54     12.56524     19.81944     41.18045        13     1.696     0.939 -24.58   1
        17    117.3971    976.9826 299.9139932 +22.6924466     992.5722      70.1597      7.769     7.66     11.66426     19.81944      39.1644        11     1.798     0.913  85.45   1
        18    151.0552    996.1279 299.9182151 +22.7080419     1067.091     70.26711      5.227    11.29     17.52128     19.81944     37.98562        27     2.937     1.208  31.38   0
        19    422.6770    965.7669 300.0125367 +22.7809116     344.6184     70.24922      1.049     2.12    -5.777362     19.81944     48.24555         5     0.685     0.455  77.78   0
        20    459.6248    980.9233 300.0190949 +22.7963485      517.715     70.26711      0.996     1.98    -5.725915     19.81944     118.5164         7     0.707     0.582 -85.06   0
        21     65.7120    999.1238 299.8907311 +22.6832609     2483.219     70.37437     17.048    31.52      7.61404     19.81944     59.81878       210     8.600     3.208 -65.58  19
        22    936.4908    957.3085 300.1752911 +22.9326597     1311.859     70.41008      1.023     1.74    -5.777453     19.81944      235.163        16     0.970     0.773 -42.62   0
        23    586.5081    954.8881 300.0670561 +22.8269688      277.101     70.41008      0.952     2.22    -5.525196     19.81944     41.49224         6     0.733     0.500 -89.05   0
        24    135.3365    997.2697 299.9129602 +22.7036470     555.1027       70.285      3.009     3.98     17.85301     19.81944     36.55402         5     1.427     0.317  29.04   1
        25    931.9012   1010.0249 300.1566928 +22.9464107     341.8446     70.17761      1.004     2.43    -5.777453     19.81944     82.74432         7     0.800     0.547 -48.65   0
        26    724.8533    945.4459 300.1132064 +22.8657734      406.302       70.285      1.184     1.85    -5.322932     19.81944     63.73764         5     0.662     0.463 -22.51   0
        27    760.1707    940.4699 300.1258273 +22.8749414     610.1057     70.24922      0.953     1.90    -5.297126     19.81944     129.2413         9     0.734     0.644 -80.30   0
        28    782.3227    934.2805 300.1347434 +22.8798111     6470.273     70.35651      0.989     1.59    -5.240764     19.81944     1420.347        24     0.863     0.798  12.13   0
        29    827.9975    933.9593 300.1490789 +22.8934197     279.5551     70.24922      0.958     1.69    -5.406542     19.81944     91.84516         5     0.701     0.428  62.84   0
        30    973.6720    933.5194 300.1946292 +22.9369820     252.6072     70.37437      0.880     2.72    -5.777453     19.81944     48.85423         5     0.708     0.463 -20.54   0
        31    657.2442    993.6726 300.0764483 +22.8593192     4054.471     70.23133      1.112     1.99    -5.911109     19.81944     647.1581        24     1.006     0.892 -25.07   0
        32    833.9881    921.8384 300.1548919 +22.8917387     133.9566     70.24922      0.798     1.80    -5.383371     19.81944      69.2701         5     0.584     0.542 -87.67   0
        33    790.8531    916.4851 300.1431947 +22.8772643     801.4114       70.285      0.950     1.67    -5.178058     19.81944     173.9579        10     0.788     0.641  84.27   0
        34    973.9655    915.0734 300.2007263 +22.9317755     280.7653     70.23133      1.073     2.38    -5.643213     19.81944       61.832         5     0.743     0.497  27.26   0
        35    828.9978    909.8820 300.1572294 +22.8868111     571.2715      70.1597      1.271     1.75    -5.304547     19.81944     106.2471         7     0.757     0.504  42.27   0
        36    580.7714    903.1198 300.0821242 +22.8104011     6476.804     70.26711      1.985     5.83    -5.236962     19.81944     1000.053        20     2.313     0.414 -62.17   0
        37    877.4554    901.1041 300.1751883 +22.8988254     244.9613     70.32076      0.965     2.23    -5.425987     19.81944     76.05412         6     0.749     0.497  86.65   0
        38    728.7446    900.0792 300.1291880 +22.8539263     420.8631       70.285      1.057     2.33    -5.138686     19.81944     88.20625         9     0.885     0.610  88.47   0
        39    441.4232    896.6286 300.0408761 +22.7667183     2423.208     70.24922      1.049     1.90    -5.421943     19.81944     394.9993        18     0.926     0.804 -72.42   0
        40    740.3170    897.3487 300.1336814 +22.8566145     431.6105     70.26711      1.089     2.27    -5.155057     19.81944     93.56145         8     0.829     0.646  43.20   0
        41    219.4752    885.2656 299.9755657 +22.6968267     137.0947     70.30289      0.917     3.47    -4.359179     19.81944     41.65992         5     0.744     0.466  72.03   0
        42    103.1661    885.3134 299.9394138 +22.6619103     306.7752     70.21343      1.086     3.15    -4.662299     19.81944     37.98061         5     0.753     0.433  15.74   0
        43    166.4682    882.3430 299.9600458 +22.6800711     521.2009     70.26711      1.274     2.95    -3.932385     19.81944     66.44643        11     0.926     0.848 -59.31   0
        44    143.8435    879.4850 299.9539468 +22.6724575     911.5842     70.21343      1.118     1.98    -4.254881     19.81944     153.6565        13     0.837     0.777  80.18   0
        45    771.1175    875.9871 300.1502295 +22.8597246     71.44714     70.23133      1.110     3.85    -5.129635     19.81944      29.7436         5     0.835     0.509 -29.51   0
        46   1015.3737    868.1736 300.2289063 +22.9307275     1230.259     70.21343      1.056     1.64    -5.192551     19.81944     275.9049        13     0.805     0.726  41.91   0
        47    121.2141   1007.1636 299.9053515 +22.7022385     530.9451     70.24922      2.384     4.38     20.98188     19.81944      32.9725         5     1.408     0.388  84.36   0
        48    969.5894    866.5870 300.2151458 +22.9165455     1242.784      70.1597      0.977     1.82    -5.182962     19.81944     218.5818        14     0.826     0.747  13.72   0
        49    175.7174    861.0055 299.9698639 +22.6767342     406.2052     70.17761      1.145     2.20    -4.790198     19.81944     55.13504         7     0.692     0.645  71.93   0
        50    621.3784    854.6692 300.1105354 +22.8086886     2825.565     70.24922      1.061     1.91    -5.006338     19.81944     451.5324        19     0.867     0.794  43.23   0
        51    423.8291    851.8663 300.0499722 +22.7486030     273.4031     70.24922      1.081     2.32    -5.196511     19.81944     62.02694         6     0.836     0.444  26.07   0
        52    171.5685    848.7535 299.9725620 +22.6719773     885.3589       70.285      1.112     2.20    -4.842121     19.81944     130.8926         9     0.765     0.676  72.87   0
        53    641.9507    847.1068 300.1194016 +22.8126914     361.9882       70.285      0.966     1.99    -5.005069     19.81944     92.51077         7     0.689     0.620  18.04   0
        54   1014.1919    834.3502 300.2395467 +22.9206624     660.7964     70.24922      1.035     1.82     -5.16941     19.81944     150.8553        11     0.835     0.733  32.63   0
        55    797.3437    834.2997 300.1719683 +22.8556282     2568.085     70.33864      1.041     1.76    -5.116318     19.81944     479.4169        19     0.910     0.779  48.10   0
        56    206.0456    828.9852 299.9897080 +22.6766645     276.0747     70.26711      1.251     3.56    -4.928658     19.81944      53.4906         7     1.048     0.515  50.60   0
        57    514.1687    826.8235 300.0862282 +22.7685333     318.0417     70.23133      1.198     3.00    -5.026376     19.81944     53.88664         7     0.738     0.667 -17.45   0
        58    160.7641    824.9567 299.9769486 +22.6619131     629.8549     70.30289      1.188     2.35    -4.945965     19.81944     114.9627        11     1.010     0.728  73.48   0
        59    575.7564    820.3730 300.1074947 +22.7851628     299.1342     70.26711      1.088     1.67    -5.030432     19.81944     65.65378         5     0.661     0.444 -23.00   0
        60    310.4783    817.1251 300.0260280 +22.7046182     30685.84     70.35651      1.144     1.92    -5.138476     19.81944     4965.604        58     1.084     1.030  77.84   0
        61    568.2806    816.0414 300.1065774 +22.7816773     973.2256     70.21343      1.114     1.90     -5.03422     19.81944     192.9344        13     0.832     0.753  73.08   0
        62    238.1879    815.3207 300.0041435 +22.6823985     255.9829     70.23133      1.305     4.13    -5.021934     19.81944      48.8539         5     1.002     0.485 -60.45   0
        63    980.8369    815.0006 300.2354424 +22.9051080     526.0009     70.24922      1.132     1.81      -5.1586     19.81944     143.5779        11     0.873     0.715   4.25   0
        64    596.9903    812.1337 300.1167856 +22.7891700     523.9378     70.24922      1.048     2.02    -5.016011     19.81944     106.0722         8     0.791     0.622   5.15   0
        65    608.1227    810.4386 300.1208027 +22.7920236     280.1402     70.23133      0.983     1.60    -5.009616     19.81944     78.32051         5     0.643     0.438  29.71   0
        66    713.6685    806.6533 300.1548995 +22.8225986     349.9044     70.26711      1.088     2.47    -5.087132     19.81944     51.70164         6     0.792     0.496 -42.41   0
        67    751.4698    797.2343 300.1697388 +22.8312333     523.7576     70.24922      1.262     3.28    -5.115641     19.81944     87.95427        10     1.039     0.657  77.69   0
        68    360.1900    794.3803 300.0488859 +22.7130190     18603.54     70.23133      1.135     1.93    -5.135025     19.81944     3126.069        48     1.076     0.996  55.31   0
        69    374.3701    794.8079 300.0531565 +22.7173976     1198.714     70.24922      1.174     1.98    -5.138393     19.81944     198.7713        17     1.000     0.796  50.58   0
        70    883.0786    790.0999 300.2130690 +22.8686511     1691.331     70.37437      1.094     1.64    -5.038992     19.81944      397.059        15     0.900     0.799  -5.49   0
        71    371.4898    788.8663 300.0541939 +22.7148294     348.0144     70.37437      1.136     3.59     -5.11818     19.81944     51.83621         8     1.073     0.471  79.97   0
        72    641.2184    786.0931 300.1390282 +22.7949674     375.6549     70.17761      1.054     2.09     -5.01913     19.81944     105.1163         9     0.819     0.651 -11.59   0
        73    242.7312    786.0538 300.0150780 +22.6753731     491.7534       70.285      1.159     2.42    -5.050914     19.81944     91.61219        10     0.891     0.681  57.21   0
        74     47.4040    781.6336 299.9558322 +22.6154559     222.4505     70.24922      0.872     3.38    -5.229214     19.81944      43.9009         7     0.946     0.473  80.75   0
        75    488.4287    780.9958 300.0931305 +22.7476656      517.567     70.21343      1.281     2.18    -4.929604     19.81944     79.61891         8     0.707     0.696  67.74   0
        76    889.5595    777.5035 300.2191877 +22.8669782     226.4897     70.23133      0.993     2.42    -4.985544     19.81944     67.47533         7     0.854     0.517 -57.10   0
        77    347.0227    776.7689 300.0505212 +22.7040171     289.9287     70.24922      1.681     5.43    -5.078159     19.81944     36.91745         8     1.402     0.593  -8.91   0
        78    866.8314    772.7114 300.2136630 +22.8587882     181.9332     70.21343      1.020     2.47    -4.984489     19.81944     48.01844         5     0.858     0.350 -47.76   0
        79    240.3850    770.7062 300.0193418 +22.6702691     211.7145     70.17761      0.895     3.12    -5.018709     19.81944      49.4086         5     0.731     0.448 -70.82   0
        80    533.2997    758.9438 300.1142679 +22.7548034     400.2511     70.33864      1.125     1.85    -4.926671     19.81944     78.80222         7     0.682     0.607 -63.99   0
        81    949.4978    755.2906 300.2450999 +22.8785698     2769.943     70.42793      0.991     1.67    -4.910446     19.81944     506.7776        18     0.889     0.763  84.26   0
        82    555.1849    756.5795 300.1218483 +22.7606910     716.0508     70.23133      1.067     2.19    -4.935493     19.81944     131.8237        11     0.819     0.758  52.47   0
        83    636.8508    751.2670 300.1489988 +22.7836649     225.0881     70.23133      1.123     3.11    -5.002106     19.81944     37.66745         5     0.914     0.347  47.45   0
        84    937.9443    746.6494 300.2443092 +22.8726253     937.6649       70.285      0.996     1.64    -4.797327     19.81944     218.5685         9     0.722     0.628 -74.33   0
        85    301.1700    740.8041 300.0479643 +22.6799424     482.5347     70.21343      1.188     3.31    -4.965281     19.81944     93.38622        12     1.175     0.667 -73.73   0
        86    764.2935    738.0255 300.1929973 +22.8180863     1597.733     70.19553      1.184     1.89    -5.095733     19.81944     293.2592        14     0.886     0.775 -27.36   0
        87    969.1151    736.7242 300.2572567 +22.8791190     934.7348     70.35651      1.030     1.56    -4.976721     19.81944     214.2937         9     0.768     0.595  68.02   0
        88    983.7825    727.5144 300.2648264 +22.8808706     196.2292     70.21343      1.158     3.13    -5.019206     19.81944     47.69396         5     0.887     0.492   6.96   0
        89    847.0605    723.9059 300.2233794 +22.8388499     307.3214     70.33864      1.320     3.78    -4.854817     19.81944     52.43317         7     1.034     0.497  33.75   0
        90    149.8055    724.6163 300.0061869 +22.6298638     423.8188     70.17761      1.095     1.63    -4.990272     19.81944     70.65741         5     0.607     0.482  10.50   0
        91    882.7245    714.9713 300.2374010 +22.8469766     86316.56     70.26711      1.119     1.76    -4.734725     19.81944     17832.99       104     1.147     1.076  80.37   0
        92    735.3428    715.4576 300.1913202 +22.8029274     447.6381     70.32076      1.134     2.19    -4.890392     19.81944     81.39304         9     0.806     0.694 -18.64   0
        93    569.1761    703.9387 300.1433266 +22.7497855     975.7984     70.24922      1.220     2.05    -4.529473     19.81944     168.0986        14     0.930     0.791  61.94   0
        94    750.2930    701.1995 300.2006149 +22.8033180     5428.903     70.12386      1.140     1.90    -4.746793     19.81944     965.7596        27     0.967     0.918   7.75   0
        95    251.7795    696.4969 300.0470217 +22.6524138     2954.729     70.17761      1.149     1.92    -4.802341     19.81944     466.2712        23     0.993     0.928  69.29   0
        96    333.9142    694.6127 300.0731691 +22.6765241     605.1216     70.19553      1.274     2.76    -4.727913     19.81944     95.65102        11     0.885     0.816 -15.43   0
        97    209.3405    692.1231 300.0352541 +22.6384212     196.1231     70.30289      1.102     4.54    -4.832104     19.81944     43.47693         6     1.025     0.654  71.09   0
        98    542.2472    689.8706 300.1395206 +22.7376713     443.9008     70.23133      1.212     2.46    -4.365528     19.81944     76.89576         8     0.858     0.594  86.10   0
        99    533.7701    682.0692 300.1394196 +22.7328901     1882.589     70.23133      1.205     2.11    -4.295703     19.81944     320.3752        18     0.967     0.823  56.11   0
       100    524.0090    675.8370 300.1384087 +22.7281740     881.4485     70.24922      1.295     2.30    -4.256151     19.81944     122.0124        11     0.877     0.722  55.07   0
       101    917.4277    673.3213 300.2617656 +22.8454200     321.3023     70.26711      1.016     2.09    -4.565475     19.81944     69.67088         5     0.693     0.450  13.81   0
       102    187.1505    672.3176 300.0347992 +22.6260821     301.9727     70.26711      1.079     2.71    -4.771108     19.81944     59.52991         6     0.745     0.628  15.23   0
       103    201.3271    670.3801 300.0398346 +22.6297819     347.3405     70.24922      1.113     2.85    -4.762618     19.81944     52.72086         6     0.695     0.623  89.30   0
       104    227.3958    667.1058 300.0490010 +22.6366678     242.5036      70.1597      0.995     2.01    -4.749588     19.81944     57.29602         6     0.731     0.488 -87.27   0
       105    970.9220    666.6285 300.2806205 +22.8595309     249.7429     70.24922      0.986     1.89    -4.536334     19.81944     67.96339         6     0.755     0.481   4.11   0
       106    547.7632    665.8736 300.1490416 +22.7324406     111.9489     70.19553      1.038     3.30    -4.109568     19.81944     44.62327         6     0.751     0.572  41.41   0
       107    448.6259    665.6148 300.1182774 +22.7026268     1074.414     70.26711      1.227     2.27    -4.335011     19.81944     163.7095        15     0.940     0.860   9.72   0
       108   1023.9008    662.7189 300.2984134 +22.8742846     357.8611     53.41698      0.866     2.39    -4.517652     19.81944     90.32628         5     0.853     0.297 -87.50  24
       109    102.8056    660.6628 300.0123842 +22.5974211     11425.44     70.21343      1.190     1.98    -4.794827     19.81944      1905.23        40     1.050     1.024  66.61   0
       110     23.5362    662.0349 299.9873190 +22.5740146     426.9468     70.24922      1.167     2.21    -4.805095     19.81944     64.86626         8     0.744     0.678 -20.28   0
       111    533.7145    660.9161 300.1462814 +22.7268042     567.5167     70.35651      1.155     1.95    -4.095886     19.81944     108.6607         9     0.804     0.652 -44.60   0
       112    951.7288    646.7893 300.2810880 +22.8480810     579.2219     70.24922      0.949     1.79    -4.442923     19.81944     116.4677         8     0.780     0.608 -61.49   0
       113     48.8689    644.9142 300.0007526 +22.5767136     967.6324     70.33864      1.921     4.58    -4.762625     19.81944     105.7215        16     1.555     0.740 -77.30   0
       114    818.2304    645.1370 300.2400143 +22.8075924     224.7023     70.26711      1.089     2.43    -4.341525     19.81944      46.5461         6     0.725     0.554  36.91   0
       115    115.1319    645.0176 300.0213004 +22.5966365     203.2124     70.24922      1.108     3.96    -4.728402     19.81944     31.73875         6     0.927     0.485 -54.33   0
       116    497.5813    641.6936 300.1412878 +22.7104501     249.1784     70.17761      1.169     3.64    -4.074983     19.81944     48.15142         5     0.859     0.444  43.36   0
       117    892.0269    639.4977 300.2648473 +22.8280937      363.446     70.19553      1.013     2.52    -4.370094     19.81944     81.03194         6     0.851     0.496   5.20   0
       118    453.9800    633.8069 300.1302862 +22.6951079     360.5866     70.21343      1.194     2.57    -4.110992     19.81944     72.58981         8     0.785     0.671  33.07   0
       119    619.4546    630.6004 300.1828283 +22.7438201     299.6412     70.17761      0.950     2.47    -3.986458     19.81944     58.36061         5     0.675     0.493 -81.25   0
       120    497.9418    629.9294 300.1452252 +22.7071829     571.4637     70.26711      1.338     2.97    -3.991498     19.81944     69.25972         9     0.868     0.730  77.18   0
       121    931.7061    624.9695 300.2819408 +22.8358137     1833.979     70.17761      1.077     1.77    -4.340171     19.81944     382.4229        15     0.839     0.747 -68.78   0
       122    463.5861    625.1812 300.1360794 +22.6955149     1022.522     70.21343      1.241     2.43    -4.046031     19.81944     153.0587        14     0.903     0.845   1.06   0
       123    828.4934    622.5319 300.2505630 +22.8041784     154.7577     70.39223      1.038     3.52    -4.224773     19.81944     39.13509         5     0.947     0.490 -83.09   0
       124     25.5607    618.8562 300.0019864 +22.5622465      3102.99     70.24922      1.217     2.09    -4.697671     19.81944     458.5762        24     1.035     0.938  59.23   0
       125    326.9532    611.9357 300.0978888 +22.6507231     5376.768       70.285      1.245     2.04    -4.169641     19.81944     920.9669        30     1.073     0.966  62.10   0
       126    449.4032    608.9352 300.1369489 +22.6865992     5137.823     70.24922      1.252     2.24    -3.941433     19.81944     773.6482        30     1.080     0.970  76.93   0
       127    861.0084    602.7964 300.2671130 +22.8082573     1187.375     70.07006      1.196     1.83    -4.134475     19.81944     211.9407        14     0.881     0.778  63.13   0
       128    945.5963    600.0289 300.2943809 +22.8328131     7257.021     70.21343      1.070     1.83    -4.231818     19.81944      1327.72        28     0.954     0.876  49.86   0
       129    509.9334    598.5058 300.1591735 +22.7017631     6754.378     70.39223      1.280     2.23    -3.731658     19.81944     998.2558        33     1.110     1.008  51.63   0
       130    237.4097    594.0829 300.0758556 +22.6187332     823.6879     70.19553      1.287     2.50    -4.459422     19.81944     114.7154        13     0.944     0.807  53.48   0
       131    679.2892    594.0936 300.2133291 +22.7512835     232.5581     70.41008      1.050     2.81    -4.006365     19.81944     46.84594         5     0.772     0.492 -36.98   0
       132    483.6927    590.7780 300.1535204 +22.6916749      194.882      70.1597      1.231     3.37     -3.82319     19.81944     41.16325         5     0.951     0.705  -8.71   0
       133    441.6819    586.6764 300.1417832 +22.6778966       2563.1     70.35651      1.213     2.15    -3.815827     19.81944     407.8104        23     1.094     0.926  74.59   0
       134    784.6339    586.4852 300.2486166 +22.7806808      538.098     70.21343      1.153     3.78    -4.089328     19.81944     66.51428        10     1.093     0.658  40.19   0
       135    419.9392    585.0527 300.1355473 +22.6709086     764.3425     70.30289      1.267     2.39    -3.804913     19.81944     129.5677        11     0.944     0.661  48.39   0
       136    174.2133    584.3970 300.0593644 +22.5969898     450.6655       70.088      1.325     3.08     -4.37691     19.81944     62.54633         7     0.841     0.609  75.79   0
       137    861.4246    581.9882 300.2740079 +22.8024063     1042.227     70.24922      1.350     2.33    -4.098651     19.81944     149.9428        13     1.023     0.719 -43.75   0
       138    558.2616    574.2019 300.1821153 +22.7092826     119949.4     70.21343      1.258     2.25    -3.543535     19.81944     15706.44       133     1.288     1.259 -35.21   0
       139    741.7173    578.8611 300.2377253 +22.7656267     596.2558     70.33864      1.308     2.71    -4.041948     19.81944     91.86279         9     0.853     0.709  16.28   0
       140    244.3534    574.1992 300.0844775 +22.6151144     2134.204     70.24922      1.224     2.24    -4.303039     19.81944     272.4041        20     1.006     0.899  69.22   0
       141    809.9948    569.9677 300.2618884 +22.7835397      287.296     70.23133      0.941     1.56     -4.07818     19.81944     67.18643         5     0.559     0.541 -89.53   0
       142    293.3624    557.2996 300.1052057 +22.6249727     217.5773     70.26711      1.157     4.51    -3.998652     19.81944     43.01581         7     1.098     0.526  50.94   0
       143    448.9049    554.4869 300.1544940 +22.6708270     1411.357     70.42793      1.206     2.20    -3.627049     19.81944     228.3786        14     0.874     0.820  89.38   0
       144    845.7201    540.5017 300.2825997 +22.7857850     1057.698     70.37437      1.139     2.20    -4.022102     19.81944     166.8456        12     0.861     0.742  74.41   0
       145    716.9572    538.2471 300.2432150 +22.7465431     1530.926       70.285      1.253     2.23    -3.907825     19.81944       233.18        18     1.029     0.850  57.54   0
       146    504.6563    534.2275 300.1784258 +22.6817342      303.007     70.24922      1.195     4.43    -3.484564     19.81944      53.0979         9     1.086     0.660  -4.95   0
       147    974.2118    532.3852 300.3252935 +22.8219563     744.2788     70.17761      1.097     2.20    -3.857835     19.81944     128.6926        11     0.867     0.677 -81.88   0
       148    846.0288    530.5344 300.2859357 +22.7830149     1314.777     70.26711      1.443     2.88    -3.988525     19.81944     200.1603        20     1.567     0.789  76.55   0
       149    959.8076    531.1142 300.3212152 +22.8172755     377.2033     70.17761      1.112     2.00    -3.919037     19.81944     74.46497         7     0.673     0.640  68.76   0
       150    599.9754    528.9774 300.2098003 +22.7088103     419.9673     70.21343      1.468     3.28    -3.658646     19.81944     48.74584         7     0.902     0.581  78.97   2
       151    598.9843    525.2390 300.2107068 +22.7074400     391.9046     70.26711      1.366     2.92    -3.623943     19.81944     35.09173         5     0.626     0.621   2.48   2
       152    884.1062    525.6912 300.2993777 +22.7930346     2539.821     70.41008      1.146     2.00    -4.025884     19.81944      437.737        19     0.943     0.831  49.06   0
       153    116.3043    516.1732 300.0635464 +22.5600465     584.7732     70.19553      1.257     2.45    -4.211477     19.81944     89.06272         9     0.907     0.594  60.60   0
       154    976.0289    516.1474 300.3311379 +22.8178357     377.6406     70.26711      1.170     2.43    -3.774719     19.81944     78.29207         6     0.757     0.514  33.92   0
       155    108.5693    505.9920 300.0644520 +22.5548055     261.0732     70.24922      0.989     2.79    -4.161834     19.81944     39.09463         6     0.773     0.495 -88.40   0
       156    657.8337    496.2279 300.2384584 +22.7167549     476.6566     70.26711      1.321     3.27    -3.457797     19.81944     65.03089         7     0.901     0.626 -89.31   0
       157    972.0397    488.2874 300.3389485 +22.8086362     413.3372     70.23133      1.258     2.82    -3.673701     19.81944     64.69752         7     0.732     0.643 -89.71   0
       158    718.7963    488.5384 300.2599433 +22.7328210     501.3629     70.23133      1.191     2.02    -3.511251     19.81944     71.54446         6     0.704     0.498   2.79   0
       159    875.6298    484.5165 300.3101174 +22.7786673      598.603     70.26711      1.239     2.54    -3.967745     19.81944     86.85149         9     0.858     0.692  79.81   0
       160    859.9236    480.8056 300.3064280 +22.7728951     480.4326      70.1597      1.310     2.90    -3.925218     19.81944     74.81245        11     0.947     0.859  29.60   0
       161    604.1696    479.0435 300.2273338 +22.6957331     1882.556       70.285      1.304     2.60    -3.314274     19.81944     220.8466        19     0.998     0.931 -71.23   0
       162    964.6542    477.5947 300.3401205 +22.8033514     364.4627     70.24922      1.291     3.05    -3.684047     19.81944     53.72883         5     0.711     0.480  11.27   0
       163    444.4555    466.2822 300.1817749 +22.6441803     265.3073     70.30289      1.064     2.59    -3.555162     19.81944     41.23276         5     0.692     0.474  72.25   0
       164   1015.5587    457.9261 300.3623864 +22.8129487     745.9304     70.23133      1.101     2.00    -3.355786     19.81944     126.5996        11     0.832     0.696 -11.37   0
       165    973.8203    456.7074 300.3497660 +22.8000958     583.1237     70.17761      1.151     2.28    -3.563488     19.81944     90.19925         9     0.810     0.682 -55.26   0
       166    887.5108    457.3438 300.3226507 +22.7744213     378.0807       70.285      1.186     3.88    -3.759225     19.81944     46.54941         6     0.877     0.614  23.35   0
       167    714.8419    452.9136 300.2702877 +22.7214055     629.7279     70.23133      1.268     2.65     -3.39602     19.81944     93.88361        10     0.915     0.696  50.78   0
       168    218.6392    451.3070 300.1164218 +22.5721491     244.7543     70.24922      0.993     2.41    -3.665055     19.81944      57.9558         7     0.882     0.465  80.71   0
       169    281.1767    447.1937 300.1371976 +22.5897300      2114.97     70.23133      1.269     2.33    -3.620814     19.81944     271.8976        22     1.031     0.968  74.17   0
       170   1014.1296    445.2229 300.3660684 +22.8088702     2623.743     70.26711      1.187     1.96     -3.38563     19.81944     465.9968        18     0.892     0.862  31.61   0
       171    228.3464    441.9439 300.1224808 +22.5723753     4507.371     70.30289      1.300     2.25    -3.605558     19.81944     647.9328        26     1.090     0.969  83.37   0
       172    994.1143    436.2927 300.3627278 +22.8003087     1059.768     70.42793      1.092     2.08    -3.453169     19.81944     193.5682        12     0.875     0.703 -87.69   0
       173    369.1322    436.0690 300.1681613 +22.6129198     2737.722     70.30289      1.311     2.48    -3.549979     19.81944     355.4461        23     1.027     1.006  32.41   0
       174    613.3032    432.6851 300.2452401 +22.6851613     10555.18     70.41008      1.300     2.43    -3.318242     19.81944     1305.734        37     1.104     1.055  59.61   0
       175    630.8337    432.9871 300.2506002 +22.6905030     550.8602     70.23133      2.011     6.28    -3.321102     19.81944     48.73564        10     1.486     0.745 -48.59   0
       176    946.8570    414.9576 300.3549235 +22.7800222     337.7402     70.19553      1.186     2.02    -3.472184     19.81944     72.91197         8     0.744     0.634 -30.07   0
       177    167.9822    412.9809 300.1131299 +22.5459567     1282.667     70.24922      1.260     2.33     -3.87943     19.81944     194.4401        13     0.909     0.795  73.23   0
       178    553.9696    402.1219 300.2366985 +22.6585992     3913.885     70.23133      1.348     2.47    -3.225865     19.81944      483.065        31     1.119     1.082  58.31   0
       179    967.7166    402.1655 300.3655835 +22.7825946     616.7963     70.21343      1.112     2.44    -3.446438     19.81944     105.2549        10     0.902     0.653  80.13   0
       180    268.9922    401.7693 300.1481661 +22.5730419     456.9724     70.24922      1.535     3.39    -3.508974     19.81944     60.06366         8     0.926     0.762  69.31   0
       181    126.6332    394.7217 300.1062135 +22.5283132     337.5904     70.23133      1.419     3.92    -3.795543     19.81944     51.29419         6     1.164     0.429  -6.92   0
       182    758.2252    391.0988 300.3038843 +22.7166530     691.3909     70.21343      1.343     2.73    -3.348908     19.81944     88.04908        11     0.867     0.816  57.75   0
       183    667.3630    392.1318 300.2752473 +22.6897200     255.8058     70.23133      1.206     3.54    -3.304184     19.81944     36.45793         5     0.790     0.459  77.02   0
       184    460.6078    388.4560 300.2120837 +22.6266853     3435.542     70.23133      1.368     2.38    -3.388209     19.81944     457.8752        28     1.126     1.019  49.16   0
       185    949.7591    382.7548 300.3662897 +22.7716378     283.5353     70.32076      1.015     2.26    -3.435081     19.81944     75.25251         6     0.742     0.505  49.49   0
       186    852.4669    382.7770 300.3359534 +22.7424992     752.3999     70.23133      1.064     2.14    -3.379249     19.81944     119.8956        11     0.828     0.736 -47.18   0
       187    528.1658    374.8082 300.2375394 +22.6430216     222.7993     70.24922      1.488     4.32    -3.032106     19.81944     29.86376         5     0.841     0.633 -33.50   0
       188    348.2026    367.7068 300.1838585 +22.5870239     1543.406      70.1597      1.312     2.46    -3.462852     19.81944     193.6651        15     0.978     0.854  20.65   0
       189     66.5397    365.2341 300.0971232 +22.5018246     711.3736     70.26711      1.330     2.57     -3.52474     19.81944     83.58922         9     0.841     0.688  70.67   0
       190    317.5083    357.1343 300.1777473 +22.5747847     17452.43     70.37437      1.338     2.43    -3.448048     19.81944     2233.448        52     1.216     1.109  88.73   0
       191    852.0042    354.5775 300.3449688 +22.7342583      732.131     70.21343      1.238     2.43    -3.379249     19.81944     116.9863        12     0.921     0.773 -88.66   0
       192     13.8843    345.1180 300.0873029 +22.4802552      2833.05     70.37437      1.291     2.23    -3.477765     19.81944     408.7313        22     1.011     0.946 -88.01   0
       193    767.1806    343.2336 300.3222212 +22.7055864     274.1819     70.24922      1.260     3.85    -3.341269     19.81944     35.26925         6     0.770     0.553  37.23   0
       194    416.2615    342.7813 300.2131218 +22.6002775     249.9187     70.23133      1.265     4.09    -3.457829     19.81944     39.66923         6     0.746     0.642  -1.31   0
       195    191.5165    342.8500 300.1432209 +22.5328970     141.6606     70.24922      1.324     4.51    -3.413114     19.81944     29.06287         5     0.821     0.703  48.97   0
       196    727.8521    336.7704 300.3120684 +22.6919458     1130.356     70.26711      1.297     2.57    -3.320288     19.81944     161.2386        15     1.002     0.819 -74.44   0
       197    389.6466    321.5783 300.2117284 +22.5862110     1361.143       70.285      1.592     3.26    -3.286549     19.81944     151.6525        19     1.139     1.031  78.63   0
       198    828.6710    314.1062 300.3508406 +22.7156397     321.9898     70.35651      1.105     2.76    -3.372587     19.81944     69.85638        10     0.951     0.709 -46.67   0
       199    821.1650    314.9894 300.3482147 +22.7136450      89.4666     70.24922      1.143     3.95     -3.37027     19.81944     24.19013         6     0.945     0.472  53.46   0
       200    465.4391    300.8705 300.2420311 +22.6029888     758.7742     70.21343      1.570     3.32    -3.076656     19.81944     86.16828        16     1.081     0.971 -15.77   0
       201    710.1823    292.5343 300.3209293 +22.6739436     1356.815     70.23133      1.325     2.65      -3.3166     19.81944     162.4316        15     0.992     0.868  68.89   0
       202    971.5403    286.8855 300.4042171 +22.7506074     1863.329     70.35651      1.233     2.21    -3.093999     19.81944     271.5507        15     0.940     0.805  67.04   0
       203    419.1256    276.5423 300.2355212 +22.5821200     413.7383     70.30289      1.342     3.45    -3.074445     19.81944     47.95524         5     1.056     0.326  86.73   0
       204     93.7567    270.7617 300.1362525 +22.4828891     716.7082     70.33864      1.560     4.38    -3.346949     19.81944     73.90113        16     1.215     0.961 -59.50   0
       205    124.3894    270.9329 300.1457134 +22.4921269     467.1893     70.24922      1.253     3.37    -3.201562     19.81944     55.07133         6     0.811     0.465  77.27   0
       206    987.7083    266.8988 300.4157485 +22.7497035     178.8181     70.42793      1.045     2.72    -2.977358     19.81944     41.23444         5     0.685     0.672 -23.66   0
       207    177.4145    263.0362 300.1647530 +22.5057653     417.8037     70.24922      1.476     4.65    -2.997962     19.81944       46.876         8     1.160     0.625  72.73   0
       208    853.4099    255.7825 300.3774882 +22.7062896     186.9793     70.21343      1.287     4.26    -3.157208     19.81944     34.36742         5     0.931     0.557  39.30   0
       209    782.0551    253.6287 300.3559514 +22.6842976     332.8202     70.24922      1.172     3.00    -3.089372     19.81944      53.2159         7     0.959     0.497 -44.68   0
       210    880.0236    243.0496 300.3899172 +22.7106008     1169.529     70.24922      1.269     2.03    -3.091091     19.81944     199.2152        17     0.990     0.938   8.28   0
       211    376.6411    235.5149 300.2356250 +22.5576045     488.4884     70.21343      1.263     3.17    -3.022368     19.81944     59.67714        11     0.946     0.806 -54.24   0
       212    128.6212    236.1281 300.1583264 +22.4834095     251.8793     70.24922      1.123     4.18    -3.037674     19.81944     34.21377         5     0.913     0.546  43.21   0
       213    298.6138    240.5619 300.2097221 +22.5356600     1217.095     70.26711      1.365     2.76    -2.965504     19.81944     168.4972        17     1.087     0.868  82.60   0
       214    193.5007    227.9822 300.1811309 +22.5005298     407.3676      70.1597      1.358     2.67    -2.978495     19.81944     54.36623         6     0.762     0.498 -85.95   0
       215    731.0553    224.4408 300.3495380 +22.6606332     917.4598     70.23133      1.286     2.55    -2.909517     19.81944     126.5723        15     0.957     0.849  89.44   0
       216    796.1683    223.6846 300.3700697 +22.6799202     275.1797     70.23133      1.326     3.13    -2.862964     19.81944     51.91021         6     0.893     0.543  70.37   0
       217    214.7550    220.4780 300.1901723 +22.5047499     387.7254     70.23133      1.640     5.73    -2.976827     19.81944     38.69263         9     1.369     0.736 -88.93   0
       218   1002.4307    216.7209 300.4366299 +22.7396859     547.7176     70.24922      1.064     2.53    -2.953615     19.81944     82.89548         7     0.843     0.557 -13.69   0
       219    734.9849    215.6399 300.3536190 +22.6592815     481.4409     70.26711      1.401     3.69    -2.898171     19.81944     56.07909        10     1.092     0.681  26.16   0
       220    655.6550    215.2501 300.3290373 +22.6354038     740.1317       70.285      1.316     2.75    -2.962123     19.81944     86.33058        10     0.843     0.778  21.45   0
       221    582.0753    207.1158 300.3087679 +22.6110206     460.9416     70.35651      1.298     2.75    -2.942473     19.81944     68.03523        10     0.959     0.657 -80.89   0
       222    851.1209    206.6051 300.3927389 +22.6914700     731.5845      70.1597      1.201     2.43    -2.938345     19.81944     117.6948        12     0.882     0.774 -76.18   0
       223    862.9998    205.9875 300.3966418 +22.6948500     362.6928     70.07006      1.247     2.35    -2.964056     19.81944     72.46747         9     0.784     0.708  35.88   0
       224   1023.6779    196.4680 300.4498308 +22.7402236     830.8442     54.69591      1.020     2.57    -2.962311     19.81944     160.3483         8     0.921     0.466 -87.50  24
       225    979.8818    195.8913 300.4363589 +22.7269461     589.0583     70.37437      1.206     2.02    -2.979862     19.81944     110.6997         8     0.731     0.655 -53.22   0
       226      3.4232    192.7458 300.1335189 +22.4334083     266.5911     64.83351      1.226     3.12    -3.035937     19.81944     40.95845         7     0.889     0.554 -31.49  16
       227    214.3421    189.5583 300.2000791 +22.4957513     475.2837     70.24922      1.594     4.55    -2.976827     19.81944     40.24768         8     1.026     0.667  58.54   0
       228     75.9789    184.1437 300.1588444 +22.4527035     1249.866       70.285      1.335     2.44    -2.983387     19.81944     172.9002        18     1.105     0.876  70.95   0
       229    898.8950    180.6915 300.4160412 +22.6983276     409.4808     70.42793      1.353     3.00    -2.985299     19.81944     64.33067         7     0.866     0.579  74.97   0
       230     25.1014    180.8545 300.1441098 +22.4364993     312.3037     70.33864      1.372     3.14    -3.023787     19.81944     36.46897         5     0.773     0.514  54.70   0
       231    233.3045    177.4028 300.2099179 +22.4979479     3230.508      70.1597      1.337     2.50    -2.976227     19.81944     374.1192        25     1.137     0.976  78.50   0
       232    215.4837    178.9960 300.2038617 +22.4930619     264.3637     70.17761      1.563     4.68    -2.976827     19.81944     26.12402         5     1.078     0.576 -13.49   0
       233     17.5444    171.8882 300.1446726 +22.4316599     806.3412       70.285      1.347     3.14     -3.03198     19.81944     92.29724        11     1.010     0.727  73.09   0
       234    216.5259    168.2578 300.2076703 +22.4902921     413.9692       70.285      1.423     3.13    -2.976827     19.81944     53.32483         7     0.853     0.587  15.62   0
       235    877.3412    158.7554 300.4164415 +22.6855677     2066.335     70.26711      1.259     2.30    -2.974366     19.81944     302.7001        16     0.952     0.884  40.37   0
       236    980.9270    157.3333 300.4491990 +22.7161726     1685.625       70.285      1.222     2.27    -3.000206     19.81944     241.7204        19     1.059     0.904 -52.90   0
       237    426.9373    154.0605 300.2777066 +22.5492911     482.0916       70.285      1.571     3.20    -3.101157     19.81944     61.54841         8     0.940     0.689  69.60   0
       238    351.0198    146.1541 300.2566580 +22.5242662     439.2885       70.285      1.591     4.83    -2.956412     19.81944     48.15165         8     1.008     0.656  65.53   0
       239    117.1096    143.4527 300.1848257 +22.4533615     327.7704       70.285      1.322     4.90    -2.873508     19.81944     37.97938         8     0.962     0.786  30.96   0
       240    478.0852    141.3272 300.2977524 +22.5609622     1031.092     70.35651      1.375     2.75    -3.079563     19.81944     110.4884        16     1.040     0.871  85.33   0
       241    406.5524    141.6349 300.2753971 +22.5396130     268.9637       70.285      0.957     3.84    -3.057741     19.81944     41.62493         5     0.962     0.439  74.21   0
       242     14.7974    142.0000 300.1535176 +22.4222602     197.4541     70.03418      1.237     3.79    -2.961596     19.81944     24.78002         5     0.817     0.505 -30.52   0
       243    539.5527    140.5529 300.3171332 +22.5791583     259.8883     70.26712      1.216     4.24    -2.992471     19.81944     28.12401         5     1.201     0.426  34.70   0
       244    221.6001    136.7447 300.2194730 +22.4827673     195.5152      70.1597      1.013     3.42    -2.915221     19.81944     31.20285         5     0.740     0.456  72.13   0
       245    252.2125    121.3422 300.2339861 +22.4875230     3504.099     70.21343      1.357     2.52    -2.880478     19.81944     377.0683        27     1.161     1.031  64.34   0
       246    102.9297    120.8402 300.1877570 +22.4426194     531.5493     70.21343      2.053     5.02     -2.75996     19.81944     54.83117        12     1.141     1.070  34.60   0
       247     13.8205    111.8498 300.1629961 +22.4133157     246.9709     70.24922      1.152     2.88    -2.841932     19.81944     34.79485         6     0.746     0.555  49.57   0
       248    498.1758    106.5233 300.3152968 +22.5569849     3631.933     70.26711      1.411     2.64    -2.996002     19.81944     400.5174        29     1.192     1.062  67.33   0
       249    383.9097    106.3881 300.2797898 +22.5227044     280.2826     70.19553      1.299     3.45    -2.930826     19.81944     51.39025         8     0.975     0.572 -64.63   0
       250    750.9867     96.1086 300.3973938 +22.6297224     517.7725     70.19553      1.326     2.44    -2.684601     19.81944      60.6986         9     0.782     0.724  61.15   0
       251    843.2066     95.2303 300.4264149 +22.6570847     220.2598     70.24922      1.184     2.75    -2.781258     19.81944     43.53214         6     0.718     0.630 -61.12   0
       252    978.0804     92.0051 300.4695093 +22.6965349     599.2972     70.17761      0.481     1.92    -2.958227     19.81944     451.8202         5     0.390     0.298  -0.36   0
       253    191.0735     90.4477 300.2250053 +22.4603243     283.7296     70.24922      1.415     3.53    -2.773491     19.81944     51.20795         5     0.888     0.644 -36.82   0
       254    626.5784     86.5811 300.3617367 +22.5897230     3581.949     70.24922      1.414     2.58    -2.741652     19.81944     448.1555        29     1.160     1.056  85.43   0
       255    550.0151     88.3974 300.3373115 +22.5673092      259.041     70.10593      1.459     4.12    -2.846929     19.81944     35.05702         5     1.077     0.450 -64.14   0
       256    401.5479     85.6995 300.2919881 +22.5220485     884.0332     70.33864      1.313     2.74    -2.862661     19.81944     121.9352        15     1.006     0.886  89.89   0
       257    667.8171     83.8540 300.3754633 +22.6012915     494.4257     70.23133      1.226     3.00    -2.679265     19.81944     73.89327        10     0.960     0.705 -49.35   0
       258    683.5554     79.7640 300.3816917 +22.6048298     456.6992     70.30289      1.577     2.98    -2.659994     19.81944     45.59595         7     0.824     0.612  20.50   0
       259    150.1615     78.0630 300.2163091 +22.4445031     298.4119     70.24922      1.334     4.80    -2.730597     19.81944      42.5285         8     0.907     0.720   9.28   0
       260    953.7396     77.2273 300.4667133 +22.6849992     189.2492     70.26711      1.153     2.77    -2.832288     19.81944     46.13657         6     0.723     0.582 -37.45   0
       261    722.0400     75.4022 300.3950938 +22.6151020     312.5714     70.26711      1.491     2.79    -2.647614     19.81944     49.52752         5     0.810     0.488  52.09   0
       262    670.7571     71.4039 300.3804178 +22.5985940     1548.908     70.26711      1.327     2.43    -2.619475     19.81944      209.659        19     1.111     0.912 -86.85   0
       263    685.0635     69.6739 300.3854346 +22.6023816     416.3348       70.285      1.454     4.27    -2.616972     19.81944     37.70257         7     0.753     0.691   8.49   0
       264    757.3057     63.0523 300.4100863 +22.6221128     836.5778     70.32076      1.247     2.35    -2.548124     19.81944     123.2914        10     0.872     0.669  54.89   0
       265    695.0412     55.8390 300.3930301 +22.6013935      419.072     70.33864      1.405     3.26    -2.557691     19.81944     60.26926        10     0.919     0.807  50.32   0
       266    500.7246     55.6571 300.3325911 +22.5431356     603.2362       70.285      1.383     3.05    -2.603011     19.81944     80.80022        10     0.872     0.801 -68.33   0
       267     73.9319     55.8610 300.1998276 +22.4152738     354.1052     70.30289      1.331     3.63    -2.723708     19.81944     42.08512         5     0.983     0.385  58.87   0
       268    404.7142     53.8554 300.3033027 +22.5138508     370.2354     70.30289      1.213     3.25    -2.591167     19.81944     64.14106         9     0.989     0.647  16.79   0
       269    744.2476     44.1645 300.4121449 +22.6127732     509.8374     70.26711      1.519     3.45    -2.499876     19.81944     45.20982         9     0.954     0.719 -51.91   0
       270    176.0201     43.8523 300.2354411 +22.4424342     2343.689     70.23133      1.404     2.59    -2.746315     19.81944      291.134        23     1.127     0.978  67.18   0
       271    292.1261     36.0843 300.2740516 +22.4750061     624.9684     70.33864      1.269     2.66     -2.73203     19.81944     90.67244        11     0.873     0.789  52.48   0
       272    737.0447     36.0137 300.4125447 +22.6082733     499.8289     70.26711      1.332     2.38    -2.470674     19.81944     68.40493         9     0.772     0.710  43.40   0
       273    775.3043     30.8814 300.4261292 +22.6182540     413.0607     70.39223      1.308     3.67    -2.437671     19.81944     54.01596         9     1.136     0.515  69.32   0
       274    698.2941     31.0350 300.4020887 +22.5952382      245.109     70.23133      1.134     3.48    -2.447974     19.81944     40.95712         6     0.886     0.537  -1.19   0
       275    795.2236     27.2498 300.4335138 +22.6231739     1379.718     70.24922      1.333     2.71    -2.429331     19.81944     156.1671        17     1.055     0.893  29.78   0
       276    500.5674     25.5541 300.3423060 +22.5344396     332.6283       70.285      1.716     5.03    -2.330172     19.81944     37.55406         6     0.961     0.746 -11.30   0
       277    178.6196     22.9641 300.2430234 +22.4372163     648.3615     70.26711      1.409     3.33    -2.740548     19.81944     70.26434        13     1.160     0.751  72.33   0
       278    969.9568     20.3482 300.4902206 +22.6734951      414.097       70.285      1.153     2.37    -2.353723     19.81944     75.36851         8     0.803     0.644  43.19   0
       279    743.6794     19.9057 300.4198362 +22.6056295     555.9108     70.37437      1.386     3.06    -2.399873     19.81944     76.19724        10     0.880     0.797  81.71   0
       280     52.5408   1022.7350 299.8789523 +22.6860656     586.8712     59.64302      2.510     3.47     5.629575     19.81944     30.45372         5     0.760     0.457  70.96  25
