#   1 NUMBER                 Running object number                                     
#   2 X_IMAGE                Object position along x                                    [pixel]
#   3 Y_IMAGE                Object position along y                                    [pixel]
#   4 ALPHA_J2000            Right ascension of barycenter (J2000)                      [deg]
#   5 DELTA_J2000            Declination of barycenter (J2000)                          [deg]
#   6 FLUX_APER              Flux vector within fixed circular aperture(s)              [count]
#   7 FLUXERR_APER           RMS error vector for aperture flux(es)                     [count]
#   8 FLUX_RADIUS            Fraction-of-light radii                                    [pixel]
#   9 FWHM_IMAGE             FWHM assuming a gaussian core                              [pixel]
#  10 BACKGROUND             Background at centroid position                            [count]
#  11 THRESHOLD              Detection threshold above background                       [count]
#  12 FLUX_MAX               Peak flux above background                                 [count]
#  13 ISOAREA_IMAGE          Isophotal area above Analysis threshold                    [pixel**2]
#  14 A_IMAGE                Profile RMS along major axis                               [pixel]
#  15 B_IMAGE                Profile RMS along minor axis                               [pixel]
#  16 THETA_IMAGE            Position angle (CCW/x)                                     [deg]
#  17 FLAGS                  Extraction flags                                          
         1    740.9162     15.0780 300.4425787 +22.5805138      601.254     70.31538      2.052     4.39    -1.575657     19.80786     50.00074        12     1.104     1.025 -19.12   0
         2    644.3364     14.9493 300.4125406 +22.5515483      1527.15      70.2618      1.993     4.60    -1.447236     19.80786     99.63023        26     1.399     1.270 -66.66   0
         3    578.6013      5.1435 300.3952556 +22.5290377     663.4652     69.74166      1.662     4.25    -1.321882     19.80786     55.28882        12     1.187     0.694 -33.01  16
         4    766.2214   1013.8746 300.1257502 +22.8749018     480.4979     70.19028      1.275     3.06    -4.482861     19.80786     77.14404        12     1.005     0.808  40.80   0
         5    102.8465   1018.4885 299.9179104 +22.6770048     1229.742     70.19028      9.832    16.05   -0.8043926     19.80786     32.85042        24     2.973     2.407 -41.01  19
         6    100.9765   1022.5712 299.9159997 +22.6776121     731.7511     60.40325      4.730     6.77   -0.5957658     19.80786     43.76694         9     2.851     0.451  26.33  19
         7     83.8164   1023.0134 299.9105262 +22.6725818      1096.52     58.07183      6.018    15.31    -1.390865     19.80786     39.07572        36     3.756     1.735 -49.43  27
         8     89.9858   1022.3379 299.9126623 +22.6742424     855.3048     61.43374      5.409    10.25    -1.060645     19.80786     58.47631        20     2.765     1.059 -73.62  27
         9    788.5166   1007.6359 300.1347278 +22.8798032      6350.45     70.19028      1.276     2.30    -4.480016     19.80786     791.0985        35     1.102     1.065  55.37   0
        10    833.9133   1007.6467 300.1488680 +22.8934289     323.5501     70.17239      1.125     3.09    -4.472252     19.80786     57.21121         8     0.983     0.586  18.91   0
        11    979.3474   1007.1927 300.1943460 +22.9369316     309.0141     70.19028      1.272     3.41      -5.2999     19.80786     34.28288         5     0.741     0.455  76.08   0
        12    100.4270    999.9412 299.9232004 +22.6709655     429.2212     70.20817      1.559     3.92    -1.553838     19.80786     52.80642         8     1.097     0.604  51.75   0
        13    494.1658    996.2620 300.0467941 +22.7881838     195.7795     70.22604      1.076     4.99     -5.14977     19.80786     30.53132         7     0.998     0.705  16.21   0
        14    840.2639    995.2328 300.1548909 +22.8917732     216.5321     70.20817      0.935     3.50    -4.516619     19.80786     38.81388         5     0.926     0.416  -5.18   0
        15     93.0059   1022.8391 299.9134370 +22.6752935     1064.101     59.01545      7.833    11.16   -0.8398472     19.80786     47.98005        22     2.564     1.352 -48.36  27
        16    797.0993    989.6505 300.1432606 +22.8772196     734.2409     70.29752      1.176     2.67    -4.493863     19.80786     107.8669        11     0.898     0.794 -79.56   0
        17    979.6888    988.7448 300.2004623 +22.9317401     237.6185     70.24392      1.287     4.16    -5.295753     19.80786     32.58194         6     0.735     0.672 -32.02   0
        18    835.1729    982.9999 300.1572895 +22.8867362     502.1526      70.1545      1.290     1.71    -4.549844     19.80786     85.75712         7     0.659     0.626  60.18   0
        19    882.9484    974.4375 300.1749667 +22.8986137     411.4467     70.22604      1.243     4.13    -4.820534     19.80786     42.80967         6     0.986     0.493  -3.41   0
        20    734.8038    973.2239 300.1292066 +22.8538135     463.2227     70.17239      1.345     3.10    -4.615048     19.80786     51.96504         9     0.948     0.667   6.08   0
        21    746.2114    970.7367 300.1335697 +22.8565235     306.2393     70.17239      1.227     2.23    -4.587368     19.80786     46.18252         6     0.691     0.567 -46.16   0
        22    447.8539    969.8288 300.0409966 +22.7667004     2616.083     70.20817      1.581     6.89    -5.233496     19.80786     406.9069        24     1.329     1.002 -51.81   0
        23    109.4156    958.3846 299.9395266 +22.6617633     104.6689     70.17239      1.243     4.10    -3.301593     19.80786     29.56459         5     0.996     0.483  83.52   0
        24    173.1564    956.0087 299.9601010 +22.6802336     328.7833     70.22604      1.212     2.87    -3.464403     19.80786     59.43489         8     0.820     0.711 -65.06   0
        25     81.8658    954.8895 299.9321084 +22.6524841     110.8103     70.31538      0.916     2.95    -3.683517     19.80786     37.17735         5     0.766     0.513 -37.00   0
        26    149.8114    953.0154 299.9538232 +22.6723623     853.8102      70.1545      1.326     3.31    -3.498464     19.80786     122.3822        15     1.047     0.945  35.23   0
        27     24.6226    942.6691 299.9183126 +22.6317825     236.1543     70.22604      1.398     6.69    -4.586248     19.80786     47.35321         7     1.982     0.701  46.05   0
        28   1021.5834    941.5109 300.2289114 +22.9307496     1165.661     64.65984      1.210     2.31    -5.321352     19.80786      149.598        15     0.958     0.835 -87.02  16
        29    975.8484    940.0851 300.2151148 +22.9166234     1189.871     70.19028      1.245     2.31    -5.281558     19.80786     170.4656        14     0.903     0.815  21.15   0
        30    182.1951    934.5519 299.9698967 +22.6768016     366.5107     70.19028      1.481     3.39    -4.275203     19.80786      47.9763         5     0.989     0.487 -59.80   0
        31    759.8281    933.6795 300.1498806 +22.8499795     203.9556     70.22604      1.120     2.99    -4.637237     19.80786     49.95676         6     0.779     0.628  21.54   0
        32    627.5150    928.1860 300.1104671 +22.8086962     2753.252      70.1545      1.433     2.61    -5.187613     19.80786     328.7947        27     1.128     1.101  -8.80   0
        33    116.9481    929.1328 299.9513919 +22.6556469     206.8836     70.22604      1.402     3.85    -4.504601     19.80786     32.66631         5     0.849     0.500 -57.67   0
        34    429.9858    925.3090 300.0499375 +22.7485730      335.453      70.1366      1.220     2.26    -5.226278     19.80786     56.48568         7     0.706     0.645  20.22   0
        35    177.8951    922.0850 299.9726203 +22.6719379     768.0952     70.38676      1.374     2.90    -4.499515     19.80786     102.3175        13     0.934     0.908  31.56   0
        36    648.4393    920.8511 300.1193700 +22.8128726     493.8595     70.20817      1.566     5.33    -5.145633     19.80786     37.53959         8     1.305     0.616  51.68   0
        37    803.4807    907.7618 300.1719197 +22.8556414     2300.464     70.17239      1.373     2.48    -4.545198     19.80786     276.1753        25     1.212     0.974 -22.81   0
        38   1020.5664    907.7677 300.2395837 +22.9207588     677.6494     68.26788      1.347     3.26    -5.093083     19.80786     92.37613        10     0.958     0.753  27.29  16
        39    211.8483    902.1370 299.9896654 +22.6764213     274.1595     70.24392      1.545     4.40    -4.537542     19.80786       31.721         5     0.877     0.629 -41.63   0
        40    520.2996    900.8907 300.0859858 +22.7686864     386.8681     70.36893      1.581     5.31    -5.004412     19.80786     35.00331         9     0.967     0.822 -29.77   0
        41    166.9014    898.6339 299.9768403 +22.6619161     542.8246     70.19028      1.250     3.22    -4.541166     19.80786     73.02765        11     0.917     0.827  56.61   0
        42    582.2326    893.9434 300.1075221 +22.7852845     409.1452     70.22604      1.903     7.03    -4.965638     19.80786      37.1228        10     1.482     0.934  12.20   0
        43    316.7187    890.6465 300.0260020 +22.7046250     30777.82     70.19028      1.498     2.72    -4.493474     19.80786     3379.969        73     1.325     1.285  59.32   0
        44    574.3900    889.4003 300.1065603 +22.7816276     961.4558     70.02911      1.614     3.49    -4.945514     19.80786     87.50691        19     1.138     1.043   1.35   0
        45    245.3647    888.7759 300.0044314 +22.6826594     262.3473     70.22604      1.103     2.68    -4.528305     19.80786     40.69265         5     0.718     0.454 -73.15   0
        46    987.0923    888.1618 300.2355300 +22.9050924     507.6254     70.20817      1.186     2.14    -4.857625     19.80786     82.40534         9     0.735     0.719 -88.58   0
        47    603.3983    885.4830 300.1168650 +22.7892107     516.2614     70.11869      1.624     5.41    -4.877107     19.80786     40.67196        11     1.109     0.836  39.75   0
        48      2.8937    885.6393 299.9301350 +22.6089185     470.0497     62.50752      1.532     3.47    -4.745771     19.80786      54.9178         7     0.900     0.652  11.13  24
        49    934.2839    880.6028 300.2215273 +22.8870850     192.5078      70.1366      1.190     3.38    -4.769592     19.80786     33.75409         5     0.762     0.433 -21.23   0
        50    719.7111    880.0440 300.1548511 +22.8225551        224.1     70.22604      1.255     4.00    -4.684394     19.80786     36.47659         6     0.863     0.603   1.92   0
        51    757.3134    870.8710 300.1695497 +22.8312056     405.7477     70.31538      1.653     4.72    -4.586036     19.80786     42.05717        10     1.073     0.793 -70.23   0
        52    366.3709    867.7863 300.0488827 +22.7129818      18000.4     70.20817      1.515     2.78    -4.529107     19.80786     1930.532        56     1.325     1.246  47.06   0
        53    380.6444    868.3767 300.0531291 +22.7174368       1261.5     70.24392      1.553     3.11    -4.566718     19.80786     137.0802        18     1.080     0.990 -74.47   0
        54    889.2595    863.3681 300.2131047 +22.8686342     1665.609     70.24392      1.384     2.41    -4.544292     19.80786     185.6586        20     1.066     0.984  16.58   0
        55    646.8604    859.6793 300.1387964 +22.7948527     506.9622      70.2618      1.412     5.09    -4.693571     19.80786     54.84553        11     1.282     0.690 -35.49   0
        56    248.8015    859.6152 300.0149930 +22.6753343     449.8934     70.06496      1.511     4.75    -4.528515     19.80786     47.87836         8     0.953     0.671  -3.75   0
        57     53.5991    855.2422 299.9557741 +22.6154461     393.3607     70.20817      1.400     2.99    -4.709718     19.80786      45.3345         7     0.836     0.601 -20.71   0
        58    494.1801    854.1823 300.0930661 +22.7474520     390.5433     70.20817      1.279     4.02    -4.550403     19.80786     40.81065         8     0.816     0.692 -47.77   0
        59    440.1408    850.2592 300.0775318 +22.7301050     293.6306     70.27966      1.603     4.67    -4.474515     19.80786     35.96178         5     0.880     0.702 -73.54   0
        60     82.4755    849.5827 299.9665840 +22.6224999     334.5726     70.20817      1.433     3.82    -4.606211     19.80786     43.98248         6     0.971     0.431  73.18   0
        61    246.4565    844.1044 300.0193134 +22.6701846     246.2631     70.27966      1.201     4.34    -4.427576     19.80786     32.86121         7     0.880     0.614  14.74   0
        62    539.3414    832.9495 300.1140308 +22.7549182      409.383      70.2618      1.732     4.27    -4.541559     19.80786     42.10239         7     1.083     0.631  22.58   0
        63    955.6414    828.6699 300.2450938 +22.8785832      2501.73     70.17239      1.374     2.55    -4.306878     19.80786     263.3717        22     1.046     0.999   7.90   0
        64    561.3917    829.8895 300.1218892 +22.7606585     746.1812     70.11869      1.524     3.76    -4.528261     19.80786     68.88256        11     1.028     0.715  37.90   0
        65    944.0673    819.9153 300.2443354 +22.8725992     890.7858     70.31538      1.366     2.53    -4.261251     19.80786      130.281        13     1.064     0.748 -77.63   0
        66    307.1610    814.3863 300.0478559 +22.6798951     569.9769     70.22604      1.471     3.57    -4.231559     19.80786     62.72865         9     0.910     0.767  31.54   0
        67    770.5804    811.5349 300.1929992 +22.8181600     1582.303     70.19028      1.727     3.16    -4.251781     19.80786     138.4912        20     1.239     0.962   6.59   0
        68    975.1234    810.0949 300.2572146 +22.8790927     1018.128     70.33324      1.389     2.82    -4.083525     19.80786     105.7631        16     1.005     0.927 -39.50   0
        69    156.1333    798.4771 300.0060977 +22.6299811     364.7151     70.29752      1.605     3.58    -4.091496     19.80786     41.15719         7     0.874     0.604 -77.49   0
        70    888.8477    788.2866 300.2374181 +22.8469603     85085.64     70.19028      1.502     2.79    -4.118267     19.80786     8503.164       124     1.420     1.389  54.53   0
        71    741.3849    788.6121 300.1913662 +22.8028238     464.6827      70.1545      1.611     4.12    -4.108551     19.80786     37.88821         7     1.027     0.471   7.76   0
        72    922.1824    780.7314 300.2502675 +22.8547879     149.0904     70.20817      1.239     4.82    -4.089711     19.80786     37.35481         7     1.073     0.613 -17.93   0
        73    575.3228    777.3428 300.1433283 +22.7497667     952.8535     70.24392      1.615     3.93    -4.022989     19.80786     75.36063        18     1.158     1.038 -72.87   0
        74    756.3222    774.6038 300.2005781 +22.8032847     5286.657     70.11869      1.591     3.22    -4.092639     19.80786     444.9224        36     1.272     1.204  33.53   0
        75    258.0244    769.9033 300.0470589 +22.6523892     2729.034     70.11869      1.540     3.19    -4.126847     19.80786     250.7787        29     1.255     1.143  80.52   0
        76    340.1235    767.7203 300.0732917 +22.6764127     581.3635     70.31538      1.507     4.25    -4.132814     19.80786     57.73995        11     0.975     0.875  56.44   0
        77    548.0969    763.6102 300.1393239 +22.7376573     456.8358     70.11869      1.592     5.47    -3.823408     19.80786     44.29367        10     1.028     0.822  -7.52   0
        78    539.8573    755.4803 300.1394053 +22.7328526     1806.056     70.24392      1.664     3.67    -3.707861     19.80786     137.6251        26     1.298     1.124  32.62   0
        79    529.9571    749.3530 300.1383183 +22.7281240     788.6884     70.24392      1.674     3.61    -3.653829     19.80786     71.52493        14     1.096     0.910  -5.39   0
        80    193.8089    745.9382 300.0349006 +22.6262371      256.776      70.1545      1.307     3.10    -4.026727     19.80786     39.10898         6     0.882     0.465 -55.54   0
        81    233.6529    740.9396 300.0489089 +22.6367683     298.8362      70.2618      1.460     3.80    -4.087283     19.80786     37.68524         5     0.880     0.472 -84.95   0
        82    454.9328    738.9618 300.1183566 +22.7026281     1043.781     70.19028      1.692     4.00    -3.732891     19.80786     76.15491        20     1.256     1.046 -75.88   0
        83    109.0445    734.2653 300.0123646 +22.5974360     11193.63     70.20817      1.551     2.93    -3.934621     19.80786     991.8862        48     1.294     1.287  13.32   0
        84     30.3881    735.1079 299.9876628 +22.5740528     356.3356      70.1545      1.590     5.63    -4.394595     19.80786     43.48172         9     1.240     0.721 -65.81   0
        85    539.7875    734.0582 300.1463544 +22.7266864     607.7426     70.17239      1.648     4.71    -3.480407     19.80786     62.22969        12     1.124     0.886 -82.21   0
        86    263.0303    731.0195 300.0612673 +22.6427449     2412.133     70.20817      0.416    -3.92    -4.066873     19.80786     2295.051         5     0.357     0.328  59.87   0
        87    957.7434    720.1724 300.2810617 +22.8480635     602.4092     70.20817      1.608     5.49    -3.791206     19.80786     53.09204        11     1.135     0.877   4.93   0
        88     55.2102    718.3464 300.0008239 +22.5767053     699.4841     70.20817      1.762     6.46    -4.109157     19.80786      57.4252        15     1.463     0.826 -89.48   0
        89    502.9996    714.6783 300.1412125 +22.7100878     263.0752     70.08287      1.435     4.75    -3.506964     19.80786     25.83664         5     0.986     0.649 -89.99   0
        90    896.9037    712.5949 300.2645616 +22.8276466     534.2448     70.11869      2.576     8.02    -3.796407     19.80786     37.03853        12     1.761     1.021 -10.44   0
        91    459.8048    707.0383 300.1302591 +22.6949338     452.2256     70.22604      1.708     4.92    -3.587799     19.80786     36.38457         9     1.026     0.668  37.89   0
        92    607.6367    705.6200 300.1767256 +22.7388853     322.9594     70.22604      1.465     5.37    -3.507335     19.80786      31.7264         6     1.071     0.768 -38.75   0
        93    656.1706    704.5885 300.1921713 +22.7531494     239.9624     70.20817      1.399     3.54    -3.757251     19.80786     35.61311         5     0.981     0.368  85.12   0
        94    503.8947    702.9952 300.1452921 +22.7070049     590.6376     70.11869      1.874     5.63    -3.438576     19.80786      38.8153        12     1.055     0.910 -88.26   0
        95    937.7598    698.2349 300.2819696 +22.8357731     1850.015     70.24392      1.545     3.11    -3.649324     19.80786     174.2827        22     1.203     1.039  43.73   0
        96    469.5161    698.3517 300.1361065 +22.6953565     928.6099     70.19028      1.740     4.05     -3.52454     19.80786     74.78852        21     1.252     1.099  67.71   0
        97     31.7841    692.4626 300.0019699 +22.5622515     2852.437     70.17239      1.565     2.78    -4.038558     19.80786     307.1375        29     1.225     1.152  39.30   0
        98    977.5383    688.3398 300.2975910 +22.8448569     214.4305     70.24392      1.032     3.55    -3.528898     19.80786     44.26084         5     1.290     0.282  44.56   0
        99    333.0770    685.4446 300.0978704 +22.6507051     5062.435     70.19028      1.703     3.43    -3.738837     19.80786     402.0275        39     1.344     1.273  13.90   0
       100    455.4298    682.2952 300.1369478 +22.6865234       4985.5      70.1366      1.808     3.75    -3.490754     19.80786     350.6428        42     1.424     1.358  34.88   0
       101    866.9578    675.9191 300.2671609 +22.8081376     1121.121     70.17239      1.541     3.46    -3.684688     19.80786     89.68044        20     1.178     1.046 -34.31   0
       102    951.6714    673.3053 300.2944174 +22.8327851     6945.575     70.31538      1.549     2.99    -3.454173     19.80786     586.2201        42     1.265     1.233  19.11   0
       103    516.1030    671.9620 300.1591868 +22.7017653     6592.999     70.20817      1.756     3.56    -3.223362     19.80786     527.3132        44     1.401     1.373  65.01   0
       104    685.7586    667.8936 300.2133226 +22.7514939     309.9597     70.22604      1.560     5.86    -3.579232     19.80786     28.93877         8     1.407     0.687 -54.06   0
       105    243.7398    667.4555 300.0759503 +22.6187288     896.5208     70.27966      1.860     3.83    -3.604936     19.80786       75.261        14     1.180     0.838  63.16   0
       106    447.7065    660.1850 300.1417375 +22.6778633     2563.058      70.1366      1.825     3.82     -3.38362     19.80786     183.0857        31     1.347     1.294 -59.56   0
       107    790.4923    660.0739 300.2484888 +22.7806599     393.8211     70.35108      1.755     6.01    -3.627732     19.80786     34.73539        11     1.088     0.935 -30.61   0
       108    426.0256    658.7345 300.1354651 +22.6709411     669.2032     70.19028      1.669     3.94    -3.434296     19.80786     69.58957        15     1.085     1.048 -57.49   0
       109    180.7113    658.1824 300.0593797 +22.5971475     419.3601      70.1366      1.403     3.66    -3.604439     19.80786     39.54247         7     0.823     0.625  70.40   0
       110    867.1679    655.3586 300.2739150 +22.8022973      855.769      70.2618      1.557     3.46    -3.671751     19.80786     80.88248        15     1.052     0.964 -30.63   0
       111    564.3077    647.6550 300.1820953 +22.7092539     116832.2      70.2618      1.804     3.70    -3.016763     19.80786     8912.512       155     1.630     1.597 -10.05   0
       112    747.9086    652.3884 300.2377231 +22.7656834     503.9751      70.1545      1.634     5.17    -3.596492     19.80786     49.31549        10     1.003     0.787 -18.85   0
       113    250.5681    647.7548 300.0844806 +22.6151298     2049.227      70.2618      1.750     3.32    -3.542032     19.80786     190.1379        30     1.328     1.220  65.65   0
       114    816.2050    643.0872 300.2620257 +22.7834934     408.9106      70.1366      2.160     5.35    -3.588804     19.80786     31.32979         6     1.342     0.601  73.82   0
       115    455.0371    627.9887 300.1544902 +22.6708267     1556.268     70.19028      1.838     4.08    -3.150265     19.80786     105.1979        26     1.322     1.240 -76.27   0
       116    851.6939    613.8485 300.2825947 +22.7857389     1109.201     70.24392      1.824     4.32    -3.631698     19.80786     84.42429        20     1.184     1.156  80.92   0
       117    723.1285    611.6275 300.2432626 +22.7465513     1399.239     70.19028      1.695     4.05    -3.399682     19.80786     101.7894        24     1.274     1.204 -19.24   0
       118    511.2243    607.5818 300.1786089 +22.6818299     225.9565     70.20817      1.315     3.67    -2.915109     19.80786     31.23397         5     0.963     0.403  82.90   0
       119    980.0807    605.5063 300.3253292 +22.8218290     758.3266     70.35108      1.607     2.88    -3.035474     19.80786      77.1721        13     0.964     0.845  76.14   0
       120    852.0590    604.2585 300.2858275 +22.7830946     1278.605     70.27966      1.878     3.82    -3.592607     19.80786     88.63184        21     1.200     1.100  86.29   0
       121    965.9795    604.8959 300.3211309 +22.8174272      424.349     70.11869      1.944     4.10     -3.12735     19.80786     36.94223         6     1.014     0.496  81.03   0
       122    605.5836    602.1238 300.2097521 +22.7085696     427.8467     70.20817      2.009     3.43    -2.709967     19.80786     30.03588         5     0.757     0.450 -70.60   0
       123    890.2117    599.0380 300.2994162 +22.7930332     2399.938     70.20817      1.660     3.50    -3.503613     19.80786     170.2117        26     1.227     1.166  26.10   0
       124    981.8881    589.9308 300.3309583 +22.8178969     387.1059     70.36893      1.559     4.50    -3.013306     19.80786     40.81356         7     1.098     0.523  29.22   0
       125    122.6599    589.6227 300.0636408 +22.5600624     485.8449     70.19028      1.443     3.97    -3.332204     19.80786     61.94206        10     1.063     0.746  84.89   0
       126    664.1405    570.1945 300.2383666 +22.7169676     515.6314     70.17239      1.929     5.46     -3.07784     19.80786     35.22086        10     1.149     0.735  27.37   0
       127    724.4200    562.3258 300.2596978 +22.7327850      592.369     70.20817      2.071     6.20    -3.259717     19.80786     45.09374        10     1.239     0.873  87.68   0
       128    881.9482    558.0392 300.3101733 +22.7787816     608.8389     70.19028      1.799     5.07     -3.26448     19.80786     46.85025        12     1.055     0.989 -50.89   0
       129    610.2802    552.5297 300.2273413 +22.6957440       1761.1     70.31538      1.842     4.19    -2.505439     19.80786      129.486        28     1.374     1.278  60.14   0
       130    970.6910    550.9083 300.3401568 +22.8033318     324.2988     70.36893      1.317     4.58    -3.034576     19.80786     30.21743         5     1.353     0.440  56.35   0
       131   1021.4390    531.1161 300.3624173 +22.8128537     712.1903      65.2205      1.555     4.11    -2.635636     19.80786     69.34546        14     1.164     0.857  68.65  16
       132    979.8839    529.8334 300.3498757 +22.8000326     642.2358     70.17239      1.565     5.00    -2.865727     19.80786     46.01516        14     1.051     1.021  66.80   0
       133    893.2393    530.7467 300.3225668 +22.7743273     259.7046     70.20817      1.442     3.71    -3.175143     19.80786     35.17319         5     0.941     0.420  85.07   0
       134    720.7643    526.7184 300.2701367 +22.7214656     572.8201      70.1545      1.680     5.57    -3.008678     19.80786     45.20451        13     1.153     0.838  21.05   0
       135    225.7976    525.1031 300.1166644 +22.5725208     357.0561     70.11869      1.433     3.99    -3.271081     19.80786     35.77062         6     0.784     0.580 -39.67   0
       136    287.2734    520.7173 300.1371988 +22.5897123     2146.458     70.33324      1.845     3.82    -3.170158     19.80786     179.1126        29     1.362     1.279 -44.70   0
       137   1020.1552    518.5515 300.3661021 +22.8088591     2303.392     69.27201      1.564     3.08    -2.461085     19.80786     231.4866        27     1.200     1.124   5.65  16
       138    234.5863    515.4807 300.1225240 +22.5723986      4229.26     70.19028      1.778     3.48    -3.212825     19.80786     363.7274        37     1.399     1.292  62.24   0
       139    375.1152    510.4150 300.1678609 +22.6131147     3590.303     70.17239      2.312     9.15    -3.012016     19.80786     807.9806        36     1.889     1.237 -88.13   0
       140   1000.0176    509.6471 300.3627170 +22.8002666     1025.702     70.24392      1.468     3.45     -2.50918     19.80786     99.99358        19     1.112     1.040  88.28   0
       141    619.3342    506.0860 300.2452595 +22.6851275     10754.74     70.29752      1.938     4.23    -2.458214     19.80786     668.6606        57     1.542     1.494  86.41   0
       142    636.7536    506.6469 300.2505005 +22.6905122     342.6433     70.20817      1.771     4.90    -2.521624     19.80786     31.19667         5     1.043     0.652  63.91   0
       143    952.4372    488.4204 300.3547815 +22.7799103     484.3278     70.22604      1.555     3.58    -2.856931     19.80786     49.98611         8     0.824     0.793  79.61   0
       144    174.1849    486.6864 300.1131131 +22.5460120     1102.782      70.1545      1.762     4.37    -2.992967     19.80786     78.29677        18     1.160     1.054  35.25   0
       145    559.9316    475.5218 300.2367035 +22.6585394     3652.798     70.31538      1.929     4.18    -2.410264     19.80786     237.7646        40     1.488     1.409  11.88   0
       146    973.4431    475.6536 300.3654812 +22.7825369     572.0544     70.22604      1.557     4.39     -2.54288     19.80786     55.92841        12     0.986     0.863 -44.29   0
       147    275.8017    474.4139 300.1486836 +22.5729872     321.2629     70.04704      1.471     5.00    -2.965188     19.80786     32.12717         5     1.014     0.699 -76.43   0
       148    764.3525    464.9207 300.3038032 +22.7167879     630.6058     70.22604      1.856     5.74    -2.516983     19.80786     44.87438        10     1.062     0.875 -76.09   0
       149    466.6280    461.9956 300.2120652 +22.6266731     3352.056     70.17239      1.875     4.14    -2.501814     19.80786      229.359        34     1.420     1.339  67.38   0
       150    858.4354    456.3430 300.3359065 +22.7425243     756.1764     70.22604      1.767     4.99    -3.091353     19.80786     56.47416        17     1.245     1.086 -48.94   0
       151    956.0127    456.1326 300.3663917 +22.7717053      339.361     70.20817      1.535     5.02    -2.787426     19.80786     30.33207         8     1.065     0.670 -74.82   0
       152    354.3954    441.3502 300.1838654 +22.5870816     1367.776     70.19028      2.037     4.31    -2.821024     19.80786      102.829        25     1.444     1.137  79.53   0
       153     72.7722    439.1333 300.0970633 +22.5019354     493.9188     70.19028      1.640     4.71    -3.010622     19.80786     48.24997         8     1.091     0.577  29.58   0
       154    323.6242    430.7519 300.1777413 +22.5748090     16712.91     70.20817      1.915     3.91    -2.807797     19.80786     1153.315        69     1.586     1.537  40.00   0
       155    857.9700    427.7058 300.3450688 +22.7341585     832.6813     70.11869      1.884     5.43    -3.072286     19.80786     51.06857        20     1.282     1.161  83.79   0
       156     20.0713    418.7770 300.0873116 +22.4802786     2762.015     70.24392      1.662     3.22    -3.020476     19.80786     256.4486        33     1.370     1.236 -67.10   0
       157    733.9386    410.1617 300.3121256 +22.6919444     1022.477     70.22604      2.038     5.60    -2.351825     19.80786     56.30052        22     1.350     1.160  14.99   0
       158    395.7336    395.3117 300.2116818 +22.5862701      1144.02     70.31538      2.095     4.87    -2.552707     19.80786     78.50056        21     1.336     1.147  85.63   0
       159    834.5411    387.3759 300.3508731 +22.7155514     277.4973     70.20817      1.640     4.23    -2.640379     19.80786     25.38142         5     1.053     0.484  -0.84   0
       160    471.7779    374.8393 300.2419894 +22.6032009     557.3171     70.24392      1.716     4.94    -2.409714     19.80786     44.65269         9     0.925     0.748   5.08   0
       161    716.5005    366.2076 300.3209760 +22.6740932     1312.272     70.10078      1.983     4.89    -2.339373     19.80786     85.33208        27     1.434     1.326 -26.16   0
       162    977.4564    360.1349 300.4042741 +22.7505449     1799.302      70.2618      1.773     3.97    -2.321739     19.80786     136.0892        28     1.334     1.235  72.89   0
       163    424.9961    350.5127 300.2353387 +22.5821882     328.7211      70.1366      1.934     4.32     -2.39702     19.80786     21.81112         6     0.976     0.545 -74.02   0
       164    130.2717    344.6126 300.1456338 +22.4920817     409.7916     70.22604      1.896     7.05    -2.521001     19.80786     30.14394         9     1.373     1.013  64.88   0
       165    100.1413    344.5840 300.1362831 +22.4830320     832.7372     70.17239      1.926     5.56     -2.54829     19.80786     65.67646        17     1.390     1.073  20.06   0
       166    885.9597    316.2203 300.3900158 +22.7105138     1124.229     70.24392      1.791     5.08    -2.493356     19.80786     77.38229        27     1.533     1.198  87.38   0
       167    304.8627    314.2269 300.2097651 +22.5357422     1177.145     70.20817      1.977     4.37    -2.264876     19.80786     82.01685        22     1.273     1.178 -29.62   0
       168    383.2238    309.6880 300.2356068 +22.5579419     560.7113      70.1545      1.851     5.62    -2.178924     19.80786      36.2756        10     1.240     0.718 -78.92   0
       169    199.3690    301.9776 300.1809520 +22.5005814     323.7451     70.20817      1.603     4.91    -2.294038     19.80786     37.57515         7     0.985     0.693  79.50   0
       170    737.0642    298.1557 300.3494880 +22.6607084     953.4373     70.20817      2.037     4.96    -2.089085     19.80786       70.616        21     1.419     1.183 -23.73   0
       171    802.3100    298.2146 300.3697957 +22.6802769     385.7544      70.1545      1.830     4.63    -2.139106     19.80786      34.1555         6     1.006     0.606 -19.23   0
       172   1008.5560    289.6151 300.4368810 +22.7395915     511.5532     70.22604      1.797     5.30    -2.323022     19.80786     38.65387        10     1.000     0.795 -85.36   0
       173    740.2374    288.9179 300.3534769 +22.6590054     482.5882     70.17239      2.159     6.29    -2.050963     19.80786     38.33968         8     1.262     0.881   1.22   0
       174    662.0313    288.9821 300.3290989 +22.6355858     692.6663     70.19028      1.989     5.75    -2.019138     19.80786     49.24186        12     1.292     0.721  -3.60   0
       175    856.9614    279.8624 300.3927871 +22.6913780     833.1639     70.20817      1.895     5.12    -2.366878     19.80786     55.51498        20     1.306     1.096 -71.12   0
       176    588.8274    280.3078 300.3091243 +22.6111523     414.8257      70.1545      1.816     4.67    -1.991607     19.80786     41.81243         7     1.142     0.542  76.64   0
       177    868.8893    279.9455 300.3964777 +22.6949754     441.3886     70.24392      1.933     5.45    -2.409885     19.80786     37.82056         9     1.072     0.783  17.80   0
       178    985.5091    269.2065 300.4363224 +22.7268222     616.6857     70.11869      1.631     4.47     -2.28398     19.80786     62.25496        15     1.144     0.970  86.08   0
       179     81.9538    257.9694 300.1587639 +22.4527273     1246.249     70.22604      1.789     4.24    -2.179543     19.80786     101.0431        22     1.241     1.177  55.65   0
       180    905.1439    253.5696 300.4163444 +22.6982559     388.6557     70.22604      1.610     4.02    -2.258848     19.80786     36.06456         6     1.447     0.319  84.03   0
       181    239.3049    251.0752 300.2098944 +22.4979539     3173.102     70.35108      1.993     4.32     -2.18053     19.80786     218.5041        42     1.526     1.466  72.53   0
       182     23.7473    245.4344 300.1447567 +22.4316660     782.7018     70.22604      1.814     4.50    -2.119092     19.80786     67.97949        18     1.154     1.121 -21.60   0
       183    883.1342    232.2755 300.4163987 +22.6855427     1967.116     70.27966      1.866     3.96    -2.117954     19.80786     135.1439        29     1.330     1.286   1.17   0
       184    986.6769    230.7790 300.4491659 +22.7161253      1540.06     70.20817      1.710     3.73    -2.128543     19.80786     132.2956        25     1.357     1.129  46.75   0
       185    485.4756    215.0806 300.2981392 +22.5614382     584.6107     70.31538      1.539     4.08    -1.907728     19.80786     58.61005        10     1.058     0.719  83.63   3
       186    482.5243    214.9868 300.2972514 +22.5605265     522.3119     70.22604      1.575     6.57    -1.907783     19.80786     52.04189        11     1.587     0.798  69.88   3
       187    123.9094    216.2379 300.1853467 +22.4533412     192.0051     70.19028      1.182     4.27    -2.099163     19.80786     29.70701         5     0.741     0.701  14.55   0
       188    258.3190    195.0563 300.2339928 +22.4875781     3382.614     70.24392      1.974     4.04    -2.092978     19.80786     235.3923        39     1.475     1.429  56.85   0
       189    109.9099    194.8032 300.1879563 +22.4429908     326.6389     70.11869      1.611     4.95    -2.068768     19.80786     35.62676         7     1.137     0.610 -22.97   0
       190    504.2584    180.2824 300.3152814 +22.5570748     3489.477     70.27966      2.008     4.45    -2.001387     19.80786     228.8391        41     1.517     1.432  78.38   0
       191    389.8398    180.3533 300.2796615 +22.5227946     297.5583      70.2618      1.422     5.00    -2.041158     19.80786     34.70643         6     1.166     0.608 -21.43   0
       192    756.2615    169.5541 300.3972277 +22.6295098     497.4492     70.22604      1.980     4.29    -1.728988     19.80786     48.59937         7     1.329     0.394  81.16   0
       193    632.5145    160.2800 300.3616977 +22.5897676     3484.334     70.36893      1.969     4.22    -1.720642     19.80786     239.2712        38     1.465     1.431  31.32   0
       194    407.4682    159.4380 300.2919342 +22.5220739     843.0118     70.17239      2.020     5.32    -2.052495     19.80786     65.02919        23     1.472     1.220 -86.11   0
       195    673.6191    157.6804 300.3753412 +22.6013374     530.6072     70.20817      1.930     5.47    -1.708824     19.80786      42.4269        10     1.051     0.804 -37.33   0
       196    156.7533    151.7271 300.2164925 +22.4446801     324.2831     70.20817      1.723     5.86    -2.025156     19.80786     31.76848         7     1.463     0.661  80.45   0
       197    676.7651    144.9926 300.3804394 +22.5986344     1450.218     70.20817      1.962     4.92     -1.67145     19.80786     95.91468        26     1.332     1.276  75.70   0
       198    763.2158    136.5586 300.4101048 +22.6221106     812.5063     70.22604      1.801     5.33    -1.694144     19.80786     66.12587        16     1.157     1.005  -6.37   0
       199    701.4456    130.4610 300.3928426 +22.6018532     335.4723     70.22604      1.540     3.74    -1.636932     19.80786     31.67315         6     0.945     0.425  72.19   0
       200    506.9525    129.5660 300.3325824 +22.5433152     652.8914     70.24392      2.167     7.55    -1.891595     19.80786     47.94027        15     1.439     1.109  17.21   0
       201    411.4982    127.7780 300.3034639 +22.5141901     549.1553      70.1366      2.155     5.11    -2.093806     19.80786     38.22676         7     1.168     0.632 -13.84   0
       202    182.1798    117.6254 300.2354613 +22.4425178     2006.851     70.20817      1.879     3.98    -1.694332     19.80786     154.5366        32     1.476     1.375 -44.62   0
       203    743.0878    110.3909 300.4123276 +22.6085604     393.4783      70.1366      1.479     5.52    -1.617429     19.80786     35.64316         9     1.123     0.766 -18.83   0
       204    298.3367    109.5952 300.2741730 +22.4750434     612.1292     70.17239      1.780     6.57    -1.700958     19.80786     45.22301        13     1.267     0.955 -28.89   0
       205    781.4371    104.7397 300.4261090 +22.6184235      448.232     70.22604      2.236     4.52    -1.682021     19.80786     30.25933         5     1.177     0.492 -86.73   0
       206    801.0907    100.9128 300.4334747 +22.6232103     1220.684     70.36893      1.780     4.43    -1.719454     19.80786     86.21547        22     1.317     1.181 -89.29   0
       207    184.5680     96.8129 300.2429575 +22.4372597     411.6551     70.19028      1.645     5.71    -1.500001     19.80786     49.66161        12     1.228     0.863  -5.89   0
       208    976.1619     94.4314 300.4901498 +22.6737739     393.6647     70.20817      1.712     4.12     -2.03004     19.80786     37.60495         6     0.765     0.635 -46.91   0
       209    749.5955     93.9896 300.4196777 +22.6057959     490.0468     70.06496      1.960     4.18    -1.605111     19.80786      42.1657         8     1.046     0.752 -42.94   0
       210    602.4445     78.6258 300.3788370 +22.5572966     409.5243     70.22604      1.874     5.02    -1.465723     19.80786     37.38131         7     1.256     0.568 -53.91   0
       211    765.6212     73.3726 300.4313608 +22.6046702     375.2941     70.20817      1.772     5.19    -1.617607     19.80786     30.80526         9     1.138     0.669  45.48   0
       212    574.0610     71.6250 300.3722727 +22.5467805     1126.698     70.20817      1.918     4.76    -1.645211     19.80786     71.43778        22     1.356     1.132  10.79   0
       213    296.1405     69.1612 300.2866109 +22.4627748     418.7552     70.20817      1.712     4.52    -1.491553     19.80786     32.55177         6     0.960     0.605 -29.58   0
       214     11.0253     67.6789 300.1985009 +22.3768481     476.5495     70.20817      1.808     6.55    -1.872022     19.80786     41.44753         9     1.424     0.845  53.29   0
       215    531.0422     65.5494 300.3608541 +22.5321444     853.1784     70.22604      1.932     5.71    -1.727956     19.80786     55.52047        19     1.310     1.124 -65.89   0
       216    636.7404     62.5215 300.3947407 +22.5629443     777.7561     70.24392      1.742     5.62    -1.454693     19.80786     59.11055        15     1.273     0.994 -34.83   0
       217    232.3990     61.7819 300.2691900 +22.4415453     344.7823      70.1366      1.571     2.74    -1.401807     19.80786     33.25463         5     0.720     0.451 -70.23   0
       218    279.7923     59.4376 300.2846832 +22.4550815     331.4465     70.22604      1.825     4.46      -1.4286     19.80786     33.56721         5     1.184     0.478   7.04   0
       219    456.7678     55.7984 300.3409053 +22.5070848      1349.69     70.17239      2.086     5.11    -1.775781     19.80786     81.41964        28     1.528     1.259  40.57   0
       220    104.2481     53.6573 300.2320043 +22.4007845     831.0494      70.2618      1.727     4.76    -1.580946     19.80786     64.86734        18     1.168     1.128 -45.04   0
       221    165.3920     36.0765 300.2567052 +22.4140735      616.344     70.17239      1.519     4.32    -1.417902     19.80786     58.90967        12     1.094     0.830 -24.50   0
       222    731.6527   1019.9055 300.1130182 +22.8662567     403.2385     69.79565      1.751     5.67    -4.538718     19.80786     44.00768         9     1.188     0.765  61.90  16
       223    106.2273   1015.6902 299.9198720 +22.6772193     970.4421     70.19028      6.758     7.36   -0.8881491     19.80786     44.73918         8     1.761     0.862  30.74  19
