#   1 NUMBER                 Running object number                                     
#   2 X_IMAGE                Object position along x                                    [pixel]
#   3 Y_IMAGE                Object position along y                                    [pixel]
#   4 ALPHA_J2000            Right ascension of barycenter (J2000)                      [deg]
#   5 DELTA_J2000            Declination of barycenter (J2000)                          [deg]
#   6 FLUX_APER              Flux vector within fixed circular aperture(s)              [count]
#   7 FLUXERR_APER           RMS error vector for aperture flux(es)                     [count]
#   8 FLUX_RADIUS            Fraction-of-light radii                                    [pixel]
#   9 FWHM_IMAGE             FWHM assuming a gaussian core                              [pixel]
#  10 BACKGROUND             Background at centroid position                            [count]
#  11 THRESHOLD              Detection threshold above background                       [count]
#  12 FLUX_MAX               Peak flux above background                                 [count]
#  13 ISOAREA_IMAGE          Isophotal area above Analysis threshold                    [pixel**2]
#  14 A_IMAGE                Profile RMS along major axis                               [pixel]
#  15 B_IMAGE                Profile RMS along minor axis                               [pixel]
#  16 THETA_IMAGE            Position angle (CCW/x)                                     [deg]
#  17 FLAGS                  Extraction flags                                          
         1      6.0460     14.0294 300.1986843 +22.3768157     695.2423     69.99484      1.946     5.01    -3.528289     19.73762     53.59662        13     1.288     0.774 -69.12  16
         2    526.0239     12.1102 300.3609579 +22.5321246     743.4601      69.8879      1.386     3.07    -1.979198     19.73762      83.1853        13     0.952     0.883 -67.21   0
         3    631.1041      8.7514 300.3947591 +22.5626367     696.1475     69.99484      1.424     3.23    -1.634545     19.73762     89.66679        12     0.952     0.886  65.57   0
         4    226.5693      7.9486 300.2691682 +22.4411894     158.1471     69.99484      1.174     3.63    -2.012394     19.73762     36.04486         6     0.796     0.487 -81.83   0
         5    275.4391      5.0281 300.2853070 +22.4549994     312.0313     69.42258      1.496     4.24    -2.550116     19.73762     42.88428         5     1.123     0.457  79.08  16
         6    451.6711      2.6684 300.3408828 +22.5071348     1258.902     61.29731      1.446     3.15     -2.83042     19.73762     139.1174        16     1.012     0.943 -10.23  24
         7     98.9995      1.3333 300.2316723 +22.4010446     514.0565     54.28671      0.995     1.68    -3.004569     19.73762     118.5773         6     0.681     0.470  -4.90  24
         8    537.5158   1008.2981 300.0407615 +22.8215229     360.5934     70.11941      1.274     4.58    -6.212381     19.73762     54.21225         7     0.927     0.643 -87.25   0
         9    238.6302   1011.3452 299.9468205 +22.7326414     1221.074     69.97704      9.489    17.10     1.325594     19.73762     64.14121        40     3.678     2.210  35.19  19
        10    159.7092   1023.1766 299.9184446 +22.7123220     455.1914     57.06323      5.413     5.13     12.92164     19.73762     36.44437         5     1.071     0.695  27.93  25
        11    149.6722   1015.7640 299.9177406 +22.7071829      1466.16     69.92357      8.427    14.58     11.93114     19.73762     43.99247        32     3.479     1.700  55.98  18
        12    110.5914   1000.1117 299.9106983 +22.6909573      1493.36      69.8879     23.722    34.27     9.454682     19.73762     59.42471       151     7.043     4.628 -10.73  19
        13    460.2950   1000.9990 300.0191125 +22.7962463     573.7172     69.85222      1.109     1.97      -5.2739     19.73762     125.8509         8     0.740     0.610  52.07   0
        14    969.6406    992.5633 300.1804869 +22.9466772     855.0178     70.03046      0.788     1.11    -5.779587     19.73762     307.6916         5     0.563     0.453 -61.56   0
        15     80.7277    983.5850 299.9068047 +22.6772502     2139.607     69.95921     20.305    42.04     3.767316     19.73762      55.1701       308    11.886     4.127 -32.99  19
        16     97.7822    987.1682 299.9109347 +22.6834008     1192.011     69.94139      5.070     4.12     7.027228     19.73762     62.89143        15     1.152     1.041 -51.14   1
        17    937.2578    977.7885 300.1752032 +22.9327241     1434.772     69.92357      1.117     1.82    -5.116843     19.73762     274.5821        15     0.952     0.781  82.15   0
        18    726.3844    967.0464 300.1129944 +22.8663788     442.6821     69.97704      1.455     4.37    -4.939847     19.73762     79.68291        10     1.277     0.543  52.88   0
        19     79.9308    972.6237 299.9101264 +22.6738709     2157.535     69.95921     13.647    25.22     2.037608     19.73762     45.66986       152     5.648     3.128 -42.36   3
        20    761.0681    960.8638 300.1258109 +22.8750121     539.5925     70.01265      1.135     2.19    -4.910998     19.73762     123.6802         9     0.855     0.636 -31.21   0
        21    538.2559    961.7021 300.0561662 +22.8083843     230.2222     70.04826      0.947     1.85    -5.350495     19.73762      53.3667         5     0.679     0.441 -13.75   0
        22    783.1716    954.5773 300.1347435 +22.8798403     6396.434     69.95921      1.032     1.67     -4.90307     19.73762     1275.293        27     0.912     0.878  89.02   0
        23    828.8292    954.4029 300.1490254 +22.8934880     188.1403     69.90574      1.048     2.12    -4.922423     19.73762     54.38315         5     0.677     0.468 -17.49   0
        24    973.9152    953.7225 300.1944690 +22.9368114     120.9744     70.06605      0.988     1.89    -5.002426     19.73762     61.79475         5     0.725     0.396  20.07   0
        25     86.6529   1011.2709 299.8996292 +22.6869611     3341.391     69.94139     19.284    60.81     9.150885     19.73762     76.05258       947    12.559     8.169  42.77  27
        26    834.7032    942.2438 300.1548151 +22.8917612     208.3662     69.97704      1.047     3.96    -4.898947     19.73762       34.422         6     0.726     0.661  20.66   0
        27    488.0285    942.3895 300.0468258 +22.7877690     214.1101     69.95921      1.204     2.48    -4.815761     19.73762      48.7182         5     0.794     0.485  56.03   0
        28    791.7209    936.6196 300.1432544 +22.8772528     961.0435     69.95921      1.140     2.07    -4.879287     19.73762     144.5051        12     0.859     0.721  55.90   0
        29    643.8583    933.9498 300.0980732 +22.8321204     294.5392     70.01265      1.092     2.34    -4.863522     19.73762     51.20671         6     0.862     0.434 -55.73   0
        30    829.6691    930.3081 300.1571328 +22.8868261     545.4529     70.08384      1.320     2.60    -4.870894     19.73762     85.14516        10     0.832     0.795  41.80   0
        31    938.5014    926.8162 300.1921895 +22.9184677     207.6733     69.87006      0.962     1.76    -4.481788     19.73762     60.45803         5     0.655     0.468 -67.37   0
        32    878.1034    921.1295 300.1752149 +22.8987205     243.3759     70.08384      0.963     1.68    -4.696777     19.73762     83.44123         6     0.654     0.536  35.56   0
        33    729.8672    920.6038 300.1292015 +22.8541002     533.7365     69.94139      1.208     1.94    -4.799132     19.73762     85.33173         7     0.667     0.626  40.46   0
        34    740.8971    917.5846 300.1336200 +22.8565433     313.6646     69.87006      1.049     1.91    -4.773886     19.73762     76.32818         6     0.679     0.563 -50.34   0
        35    442.2477    916.9208 300.0408756 +22.7667229     2373.227     69.95921      1.120     1.86    -4.593188     19.73762     461.4029        19     0.931     0.824  79.38   0
        36    220.5145    905.8078 299.9755536 +22.6969573     372.3495      69.8879      1.364     2.72    -4.042721     19.73762     43.38104         5     0.725     0.446  66.70   0
        37    103.6928    905.5557 299.9393413 +22.6617956     236.1219     69.95921      1.245     4.32    -3.971005     19.73762     34.74875         7     0.934     0.572  59.85   0
        38    167.3660    902.8378 299.9600058 +22.6801431      592.463     69.99484      1.264     2.22    -2.919616     19.73762     77.17951         7     0.712     0.609 -75.46   0
        39    144.6162    899.6616 299.9539719 +22.6723996     904.6483     69.90574      1.104     2.23    -3.206201     19.73762     173.0239        13     0.876     0.791  42.58   0
        40   1016.1418    888.4081 300.2289025 +22.9307246     1152.809     69.94139      1.044     1.71    -4.290675     19.73762     240.8101        14     0.883     0.772 -71.97   0
        41    970.5232    886.8532 300.2151838 +22.9165994     1198.425     69.99484      0.985     1.67    -4.208301     19.73762     258.6538        13     0.813     0.721  22.47   0
        42    754.2726    881.0886 300.1496677 +22.8500846     301.3942     70.11941      1.016     2.07    -4.407417     19.73762      78.8832         5     0.700     0.428  77.31   0
        43    622.1808    874.9498 300.1105321 +22.8086912     2806.155     69.94139      1.167     1.87    -4.415466     19.73762     534.6232        21     0.937     0.874  82.61   0
        44    424.4330    871.9665 300.0499682 +22.7484851     103.6534     70.03046      0.941     1.97     -4.39406     19.73762     62.80912         5     0.703     0.503  -4.54   0
        45    172.2333    869.0403 299.9725190 +22.6719196      668.187     70.01266      1.095     2.27    -3.975101     19.73762     125.9349         9     0.753     0.707 -46.90   0
        46    642.6335    867.3549 300.1193718 +22.8126496     415.2136     69.99484      1.262     3.13    -4.353063     19.73762     70.98209         9     0.934     0.768  60.99   0
        47    191.6417    865.8631 299.9795835 +22.6768380      308.474     69.94139      1.173     2.38    -4.144308     19.73762     47.36289         6     0.699     0.621 -25.69   0
        48    798.1284    854.6691 300.1719298 +22.8556587     2451.303     70.03046      1.107     1.87    -4.005571     19.73762     436.3911        19     0.925     0.825  28.56   0
        49   1015.0554    854.7328 300.2395261 +22.9207304     627.9877     70.01266      1.004     1.74    -4.215925     19.73762     138.7179         9     0.762     0.648   2.28   0
        50    206.7977    849.0260 299.9897728 +22.6765639     302.6102     69.90574      1.081     2.07    -4.232482     19.73762     67.97881         7     0.732     0.593 -82.22   0
        51    515.2701    847.5923 300.0861616 +22.7687604     298.6564     69.94139      1.107     4.00    -4.297251     19.73762     53.32376         8     0.919     0.778 -67.56   0
        52    161.6294    845.2220 299.9769763 +22.6619088      736.806     69.94139      1.279     2.49    -4.101761     19.73762     99.82212         9     0.882     0.658  61.12   0
        53    576.8719    840.4883 300.1076449 +22.7852095     360.2149     70.11941      1.127     2.89    -4.260285     19.73762     58.18555         5     0.708     0.597  60.06   0
        54    311.2622    837.4275 300.0260171 +22.7046068     31133.72     69.95921      1.175     2.07    -4.216957     19.73762       4490.8        64     1.120     1.075  89.17   0
        55    569.0870    836.4210 300.1065456 +22.7817066     851.9547      69.8879      1.102     2.30    -4.247937     19.73762     144.2304        11     0.867     0.691  71.05   0
        56    981.9977    835.4059 300.2355085 +22.9052698        521.6     69.78079      1.054     1.93    -4.095519     19.73762     109.3569         8     0.764     0.596  82.43   0
        57    598.0223    832.3175 300.1168877 +22.7892121     516.5842     69.92357      1.088     2.23    -4.235588     19.73762      93.3207         7     0.718     0.616  -1.23   0
        58    609.1191    830.7924 300.1208384 +22.7921043     378.1653      69.8879      1.239     3.88    -4.232501     19.73762     53.66292         8     0.928     0.687  32.16   0
        59    714.2545    826.7671 300.1548845 +22.8224921     301.4556     69.97704      1.086     2.28    -4.144801     19.73762     55.55676         6     0.742     0.508 -44.04   0
        60    752.0062    817.1737 300.1697652 +22.8310636     402.2623     69.95921      1.097     2.06    -4.047237     19.73762     94.72709         7     0.700     0.627 -85.50   0
        61    360.9844    814.6158 300.0489006 +22.7129936     18355.69     69.92357      1.214     2.03    -4.189614     19.73762     2983.584        56     1.129     1.085  49.73   0
        62    375.1979    815.1498 300.0531468 +22.7174135     1281.963     69.94139      1.255     2.20    -4.149318     19.73762     201.2788        16     0.994     0.829  59.08   0
        63    884.0213    810.1526 300.2131842 +22.8686417     1706.866     69.99484      1.207     1.87    -3.839563     19.73762     336.1444        22     1.145     0.894 -66.68   0
        64    372.0314    808.7751 300.0542365 +22.7146350     464.4847     69.95921      1.614     2.64     -4.13009     19.73762     58.57645         8     0.892     0.700  56.65   0
        65    478.3189    807.2956 300.0877786 +22.7461129     331.4721     70.10162      1.304     3.96    -4.169746     19.73762     37.31036         6     0.966     0.464  87.34   0
        66    641.8524    806.3367 300.1389878 +22.7949091     565.5156     70.01266      1.158     2.32    -4.085641     19.73762     89.64342        10     0.846     0.710  46.55   0
        67    243.4942    806.5750 300.0149917 +22.6754148     437.5558      69.8879      1.012     2.03    -4.200499     19.73762     76.43464         7     0.719     0.600 -20.50   0
        68     48.1529    802.1342 299.9557505 +22.6154784     432.9675     69.97704      1.317     1.92    -4.280306     19.73762     59.35617         6     0.683     0.550  48.88   0
        69    489.1075    801.3085 300.0930835 +22.7476335     512.9354     70.11941      1.125     1.90     -4.15754     19.73762     83.72843         7     0.687     0.597   5.71   0
        70    889.8727    797.9883 300.2189666 +22.8669042     327.3798     69.97704      1.315     3.37    -3.794827     19.73762     57.63348         6     0.942     0.644 -84.33   0
        71    643.2885    795.7578 300.1428774 +22.7923045      243.496     69.95921      1.644     3.93    -4.021482     19.73762     37.78615         5     0.980     0.451 -44.18   0
        72    435.1367    796.1425 300.0779742 +22.7299540     257.3533     70.01265      1.390     3.98      -3.9702     19.73762     30.06803         6     0.805     0.562  45.87   0
        73     76.4212    795.8463 299.9665753 +22.6221672     254.0759     69.99484      0.875     2.06    -4.269727     19.73762     57.60663         5     0.697     0.434 -64.51   0
        74    240.9061    790.8013 300.0193198 +22.6701158     381.0496     69.87006      1.348     3.03    -4.092323     19.73762     60.04568         6     0.972     0.473  24.98   0
        75    564.4024    781.1474 300.1230747 +22.7644445     250.9095     69.94139      1.016     2.23    -4.009681     19.73762     57.01761         6     0.712     0.574 -34.71   0
        76    533.5847    779.1339 300.1141388 +22.7546197     373.2188     69.94139      1.245     2.64    -4.015153     19.73762     61.04996         7     0.788     0.683 -14.40   0
        77    555.7801    776.8182 300.1217998 +22.7606154     821.0766     69.95921      1.244     2.38    -3.991089     19.73762     133.5326        14     0.937     0.836  85.04   0
        78    950.3071    775.5286 300.2451142 +22.8785762       2483.9     70.08384      1.040     1.76    -3.857226     19.73762     447.7463        17     0.858     0.794  86.89   0
        79    938.7508    767.0023 300.2442858 +22.8726633     910.8432     69.95921      1.102     1.82    -3.713112     19.73762     195.3129        10     0.771     0.680   2.95   0
        80    301.9032    761.1406 300.0479305 +22.6799244     509.3073     70.03046      1.273     2.45    -3.652475     19.73762     71.48136         8     0.779     0.645  55.90   0
        81    765.0352    758.2766 300.1929892 +22.8180676     1353.673     69.92357      1.157     2.03    -3.635896     19.73762     236.0701        13     0.879     0.763 -85.29   0
        82    969.8020    757.0371 300.2572093 +22.8791110     945.4943     69.97704      1.105     1.83    -4.064397     19.73762     196.9531        12     0.901     0.671  64.55   0
        83    150.1406    744.4435 300.0061975 +22.6295732      247.888     69.95921      1.299     5.01    -3.744221     19.73762     50.73067         7     1.328     0.536  63.19   0
        84    847.7282    744.2047 300.2233325 +22.8388264     398.4988     69.90574      1.440     4.56    -3.476027     19.73762     53.49006         8     1.163     0.590  30.03   0
        85    883.5220    735.2275 300.2374085 +22.8469814     85858.16     69.97704      1.144     1.97    -3.423667     19.73762     13066.95       102     1.167     1.124  70.03   0
        86    736.0098    735.5681 300.1913360 +22.8028445     402.6607     69.95921      1.083     2.95    -3.498716     19.73762     58.42686         6     0.747     0.594  52.41   0
        87    608.7939    731.4427 300.1530641 +22.7635016     961.3444     69.97704      0.699     1.11    -3.597751     19.73762     448.3462         5     0.539     0.410 -53.18   0
        88    569.9058    724.1983 300.1433157 +22.7497564      978.765     69.87006      1.312     2.47    -3.677029     19.73762     136.9412        14     0.915     0.884 -66.53   0
        89    751.0416    721.4298 300.2006177 +22.8032944     5588.355     69.99484      1.232     2.17    -3.519264     19.73762     799.9032        30     1.039     0.979  88.80   0
        90    252.6595    716.7510 300.0470632 +22.6524136     2834.664     70.01266      1.228     2.21    -3.480037     19.73762     418.4518        22     1.000     0.946  88.40   0
        91    334.6136    714.7642 300.0731870 +22.6764441     664.8548     69.95921      1.170     2.22    -3.498271     19.73762      122.149        11     0.823     0.757 -74.37   0
        92    210.1403    712.2585 300.0353099 +22.6383609     323.0206     70.03046      1.241     4.19    -3.544237     19.73762     41.88621         8     0.969     0.647 -62.58   0
        93    542.7922    710.2562 300.1394123 +22.7376216     452.4514     69.94139      1.353     2.83    -3.703201     19.73762     81.29275        14     1.049     0.853 -26.52   0
        94    534.5012    702.2983 300.1394206 +22.7328508     1925.693     70.19048      1.222     2.34    -3.682456     19.73762      244.742        17     0.980     0.857  88.27   0
        95    524.7939    696.1910 300.1383862 +22.7281861      874.261     69.81651      1.247     2.47     -3.66616     19.73762     137.2315        11     0.853     0.769 -16.28   0
        96    918.4874    693.9035 300.2617505 +22.8455981     284.0947     70.13718      1.371     4.16    -3.600277     19.73762     41.01607         6     1.000     0.494  85.09   0
        97    188.0469    692.5010 300.0348706 +22.6260633     386.2807     69.99484      1.261     2.90    -3.559372     19.73762     61.27858         8     0.834     0.653  42.74   0
        98    201.9623    691.2990 300.0395856 +22.6298963     199.8136     69.95921      1.142     4.04    -3.549741     19.73762     46.17104         7     0.886     0.706 -11.86   0
        99    228.2301    687.6481 300.0489363 +22.6367351     345.1448     69.97704      1.044     3.10    -3.526411     19.73762     61.39477         7     0.984     0.498 -28.81   0
       100    971.8726    686.9476 300.2806569 +22.8596032     494.2162     69.95921      1.320     2.16    -4.190825     19.73762     72.26361         7     0.770     0.615  35.42   0
       101    449.6400    685.9341 300.1183389 +22.7026943     1083.878     69.92357      1.341     2.51    -3.617226     19.73762     135.0229        15     0.944     0.873  37.66   0
       102    259.1935    687.5734 300.0585843 +22.6460084     287.2536     69.95921      1.233     3.35    -3.448839     19.73762     36.79712         5     0.747     0.436 -22.61   0
       103    548.9333    686.2134 300.1491439 +22.7325653      247.441     69.94139      1.077     3.70    -3.634453     19.73762     40.23753         5     0.825     0.477 -52.56   0
       104     24.4907    682.8303 299.9872117 +22.5741812     390.7513     69.92357      1.069     3.49    -3.822836     19.73762     61.50785         7     1.049     0.496 -85.99   0
       105    103.6254    681.0294 300.0123738 +22.5974279     11225.03     69.95921      1.259     2.16    -3.704263     19.73762     1716.223        42     1.122     1.062  66.22   0
       106    534.4108    681.1871 300.1462591 +22.7267663     549.4487     69.87006      1.319     2.55    -3.629521     19.73762     74.28963         9     0.841     0.674 -27.63   0
       107    952.1851    667.3432 300.2808951 +22.8480715     645.8057     69.94139      1.193     2.01    -3.937572     19.73762     105.7274         9     0.827     0.592 -71.67   0
       108     49.5873    664.4424 300.0009846 +22.5764470     893.0126     69.95921      1.798     3.09    -3.716701     19.73762     82.47224        11     0.983     0.808  36.25   2
       109    116.1160    665.7641 300.0212180 +22.5968020     251.5235     69.94139      1.287     4.22    -3.629197     19.73762      37.7627         6     0.792     0.642  73.91   0
       110    819.0305    664.8835 300.2401927 +22.8074479     232.2765     69.97704      1.323     3.69    -3.594139     19.73762     38.67312         5     0.817     0.488 -60.84   0
       111    498.1162    661.5988 300.1413356 +22.7102570     301.3364     69.85222      1.203     3.44    -3.511215     19.73762     35.53341         5     0.809     0.422 -21.18   0
       112    290.6703    661.0981 300.0769792 +22.6478637     279.5395     70.08384      1.303     3.48     -3.34569     19.73762     36.77765         5     0.828     0.423 -73.17   0
       113    892.6450    659.9746 300.2647309 +22.8281078     528.9123     69.97704      1.419     2.54    -3.618655     19.73762     73.75554         9     0.878     0.648  43.29   0
       114    454.2758    653.7642 300.1302434 +22.6948559     613.8708     69.92357      1.757     3.88    -3.480283     19.73762     58.45424        11     1.063     0.783  14.72   0
       115    602.2603    652.7988 300.1766102 +22.7389730     413.7562     69.92357      1.714     4.40    -3.338604     19.73762     32.02015         7     0.875     0.630  56.13   0
       116    649.3852    651.1417 300.1918207 +22.7526316     389.9707     69.94139      1.554     2.95     -3.33303     19.73762     49.56746         7     0.820     0.626 -56.09   0
       117    498.3170    650.0892 300.1451410 +22.7070148     511.9599     70.06605      1.503     4.00    -3.411586     19.73762     62.99156        11     1.020     0.870   2.57   0
       118    620.1865    650.6725 300.1828824 +22.7437395     362.9612     69.97704      1.399     3.21    -3.318838     19.73762     52.08744         6     0.966     0.397  16.50   0
       119    932.4746    645.1840 300.2819571 +22.8357992     1922.909     69.95921      1.171     2.21    -3.608598     19.73762     287.5693        17     0.936     0.860  82.03   0
       120    464.2705    645.3507 300.1360889 +22.6954407      944.228     69.95921      1.250     2.63    -3.405428     19.73762     117.9723        13     0.966     0.769  80.92   0
       121     26.4546    639.2771 300.0019843 +22.5622872     3053.006     69.99484      1.194     2.13    -3.750173     19.73762     416.0373        23     0.988     0.967 -68.96   0
       122    327.7369    632.2809 300.0978742 +22.6507228     5134.479     70.06605      1.290     2.32    -3.347727     19.73762     705.8297        29     1.106     0.992  79.81   0
       123    450.1307    629.1902 300.1369450 +22.6865617     5116.734     69.94139      1.343     2.43    -3.335287     19.73762     595.0421        32     1.137     1.063  67.35   0
       124    861.7427    622.9825 300.2671296 +22.8082209     1138.642     69.94139      1.289     2.29    -3.594139     19.73762     171.3754        19     1.041     0.999  -9.50   0
       125    946.3519    620.3074 300.2943733 +22.8328135     7217.475     69.97704      1.155     2.07    -3.579499     19.73762     1090.949        34     1.050     0.986 -80.61   0
       126    510.6750    618.7510 300.1591770 +22.7017296     6707.691     69.95921      1.361     2.49     -3.14609     19.73762     883.1134        32     1.142     1.047  69.90   0
       127    680.0502    614.6356 300.2132406 +22.7513488      387.357     69.97704      1.487     4.21    -3.170509     19.73762     45.06499         7     0.736     0.701 -29.68   0
       128    238.1944    614.3010 300.0758845 +22.6186925     833.3262     69.85222      1.358     2.61    -3.440817     19.73762     101.0945        12     0.917     0.784 -68.21   0
       129    785.2167    606.7231 300.2485709 +22.7806103     494.3923     69.95921      1.299     3.03    -3.582676     19.73762     66.66519         9     0.945     0.675  81.01   0
       130    442.3689    606.9546 300.1417604 +22.6778531     2538.426     70.01266      1.374     2.55    -3.237482     19.73762     343.7409        22     1.085     0.959  48.52   0
       131    420.7725    605.4270 300.1355390 +22.6709355     737.9578     69.92357      1.385     2.53    -3.319848     19.73762     89.07714        11     0.888     0.773 -54.15   0
       132    175.2434    604.8776 300.0593854 +22.5970949     324.5744     69.94139      1.096     2.31    -3.547493     19.73762     69.61386         7     0.809     0.541  71.44   0
       133    862.2238    602.4060 300.2739704 +22.8024558     886.4243     69.94139      1.335     2.96    -3.564343     19.73762      108.127        14     1.087     0.761 -44.84   0
       134    558.9703    594.4598 300.1821052 +22.7092450     119491.2     69.99484      1.385     2.60    -2.894535     19.73762     13903.59       145     1.357     1.339 -12.23   0
       135    742.9312    599.4095 300.2377759 +22.7658324     623.7337     69.94139      1.570     3.10     -3.49812     19.73762     67.76909         9     0.973     0.652  -0.60   0
       136    245.1467    594.6183 300.0844446 +22.6151340     2066.316     69.94139      1.309     2.52    -3.373474     19.73762     255.3954        21     1.023     0.972  77.47   0
       137    449.5809    575.0408 300.1543797 +22.6708594      1690.48     69.97704      1.497     2.69    -3.001363     19.73762     198.9452        20     1.320     0.881  85.59   0
       138    861.0296    570.6558 300.2839213 +22.7929790     256.6839     69.95921      1.396     3.97    -3.432389     19.73762     38.78014         5     1.027     0.439  64.06   0
       139    846.5226    560.7631 300.2826165 +22.7857894      1040.55     69.92357      1.306     2.53    -3.389823     19.73762     118.9545        15     0.992     0.839  71.33   0
       140    717.6470    558.4744 300.2432091 +22.7464980     1427.609     69.95921      1.306     2.64    -2.913164     19.73762     175.6631        16     0.985     0.882  68.57   0
       141    962.1566    555.3732 300.3204138 +22.8188969      221.246     69.97704      1.010     2.90    -3.410152     19.73762     46.52496         6     0.717     0.630 -48.11   0
       142    623.0261    555.1744 300.2148170 +22.7171790     216.4021     69.92357      1.319     3.87    -2.474346     19.73762     34.01219         5     0.834     0.515 -66.03   0
       143    505.1659    554.5309 300.1783416 +22.6816471     437.4257     69.95921      1.323     3.18    -2.607851     19.73762      65.4417         9     0.988     0.674  74.89   0
       144    974.9727    552.4017 300.3253760 +22.8218837     810.4728     69.90574      1.243     2.41    -3.426181     19.73762     108.2258        11     0.874     0.727 -67.43   0
       145    846.7137    551.1284 300.2858082 +22.7830795     1290.759     70.06605      1.489     2.72    -3.347258     19.73762      151.197        17     1.322     0.855  77.41   0
       146    960.6860    551.5854 300.3211867 +22.8173681     298.9362     69.90574      0.997     2.26    -3.397562     19.73762      67.4192         6     0.756     0.514 -43.08   0
       147    439.0286    547.8835 300.1599252 +22.6599008     186.4504     69.95921      1.093     2.52    -2.920005     19.73762     45.20975         5     0.629     0.569  87.31   0
       148    884.8986    545.9652 300.2993876 +22.7930412     2426.735     69.94139      1.269     2.19     -3.32511     19.73762     364.3766        21     0.986     0.928  60.78   0
       149    117.1594    536.8132 300.0634652 +22.5601416     642.2502     69.97704      1.432     3.02    -3.513712     19.73762     77.39297        10     0.993     0.652  80.22   0
       150    976.7610    536.4419 300.3311219 +22.8178342     406.6809     70.04826      1.084     2.75    -3.376559     19.73762     63.46326         8     0.841     0.634 -60.20   0
       151    658.5401    516.3030 300.2385100 +22.7166679     348.1434     70.03046      1.444     4.30    -2.292917     19.73762     44.82296         9     1.026     0.717  57.44   0
       152    972.9344    508.6203 300.3389722 +22.8086940     457.0475     69.94139      1.313     2.57    -3.301044     19.73762     52.10067         8     0.772     0.674 -84.41   0
       153    719.1447    508.8760 300.2597978 +22.7327049       461.67     69.99484      1.264     2.60    -2.502928     19.73762     59.63793         8     0.774     0.673  25.04   0
       154    876.2637    504.8109 300.3100735 +22.7786315     706.8372     69.90574      1.402     2.64    -3.206656     19.73762     84.99991        10     0.906     0.698  37.75   0
       155    860.5797    500.9592 300.3064371 +22.7728247     324.2686     69.99484      1.165     2.95    -3.195149     19.73762     56.16628         8     0.848     0.677 -42.61   0
       156    604.9561    499.3911 300.2273232 +22.6957458     1925.988     69.97704      1.430     2.89    -2.351806     19.73762     200.1015        22     1.152     0.965  56.68   0
       157    965.4106    497.7807 300.3401493 +22.8033252     439.0182     69.92357      1.358     1.85    -3.257292     19.73762     57.15207         5     0.688     0.424 -62.67   0
       158   1016.2385    478.1778 300.3623705 +22.8129206     770.3503     69.97704      1.218     2.31    -3.327236     19.73762     113.9482        12     0.961     0.750 -52.19   0
       159    974.8528    476.9618 300.3498597 +22.8001722     558.3807     69.97704      1.261     3.29    -3.243136     19.73762     78.81233        11     0.926     0.822 -39.97   0
       160    888.1506    477.9044 300.3225233 +22.7744640     308.1502     70.01265      1.327     2.63    -3.140553     19.73762     45.94425         5     0.752     0.501  30.30   0
       161    824.9711    475.9451 300.3034697 +22.7549675     472.7195     69.95921      0.491    -6.69      -3.1394     19.73762     304.2538         6     0.485     0.378  33.24   0
       162    715.6051    473.1344 300.2703113 +22.7213796     614.0863     69.95921      1.339     3.31    -2.277088     19.73762     69.97106        13     1.064     0.826  79.48   0
       163    490.7949    473.4137 300.2002342 +22.6540543     1004.386     69.83437      0.664     0.81    -2.491294     19.73762     568.6293         5     0.613     0.349 -54.12   0
       164    219.7785    471.7424 300.1164978 +22.5722749     303.8363     69.97704      1.237     2.11    -3.034253     19.73762     61.90438         6     0.680     0.608 -60.24   0
       165    281.9071    467.3761 300.1372282 +22.5896634     2062.571      69.8879      1.355     2.67    -2.894125     19.73762     243.5756        22     1.133     0.981 -84.15   0
       166   1014.8027    465.4204 300.3660687 +22.8088243     2613.613     69.90574      1.165     2.09    -3.357697     19.73762     394.4883        20     0.944     0.880  60.42   0
       167    229.2051    462.2581 300.1225093 +22.5723825     4279.188     69.92357      1.330     2.52    -3.021734     19.73762     468.9656        27     1.100     1.023  81.72   0
       168    994.8127    456.6718 300.3626777 +22.8003215     1159.855     69.97704      1.254     2.34    -3.333544     19.73762     144.2575        13     0.944     0.748  79.19   0
       169    369.9121    456.4426 300.1681448 +22.6129268     2613.881     69.95921      1.442     2.80    -2.617307     19.73762     305.6624        26     1.125     1.072  87.51   0
       170    631.2045    453.2647 300.2504849 +22.6903718     419.0018     69.95921      1.734     6.68    -2.227081     19.73762     40.05741        12     1.620     0.772 -44.66   0
       171    614.0438    452.9834 300.2452335 +22.6851461        10515     69.97704      1.432     2.82    -2.260614     19.73762     1088.243        42     1.210     1.155  58.71   0
       172    811.0226    443.1459 300.3097817 +22.7413653     153.9733     69.97704      1.257     4.54    -3.151163     19.73762     28.63001         7     0.865     0.676 -63.60   0
       173    947.3796    435.2387 300.3548520 +22.7799519     505.8233     69.99484      1.585     3.58    -3.275312     19.73762     51.29501         8     0.975     0.652  56.35   0
       174    168.9220    433.2407 300.1132034 +22.5459696     1204.498     69.94139      1.360     2.96    -3.074189     19.73762     163.1487        13     1.013     0.804  81.71   0
       175    554.6823    422.4828 300.2366651 +22.6585906      3929.31     70.08384      1.521     2.83    -2.346279     19.73762     430.9737        30     1.187     1.133 -60.85   0
       176    968.2847    422.5312 300.3654991 +22.7825631     828.2347     70.04826      1.224     2.44    -3.351283     19.73762      106.661        11     0.857     0.775  79.04   0
       177    269.5787    422.1839 300.1480790 +22.5729977     366.4571     69.92357      1.562     3.44    -3.019584     19.73762     56.44428         8     0.887     0.795  80.47   0
       178    127.5854    415.1047 300.1062521 +22.5283631     194.9281      69.8879      1.060     2.29    -3.095567     19.73762     50.50523         5     0.715     0.430 -65.10   0
       179    668.2520    412.5933 300.2752354 +22.6897982     319.7238     69.95921      1.281     4.56    -2.159655     19.73762     41.06152         6     0.987     0.599  64.72   0
       180    758.7745    411.3534 300.3038329 +22.7165741     720.0731     69.97704      1.482     3.17    -2.685795     19.73762     73.31203        12     0.940     0.841 -89.28   0
       181    461.3125    408.8209 300.2120481 +22.6266710     3405.249      69.8879      1.458     2.78    -2.433401     19.73762     405.9941        27     1.131     1.092  66.12   0
       182    853.1220    402.8774 300.3359846 +22.7424120     778.3269     70.06605      1.273     2.66    -3.155256     19.73762      94.0517        10     0.857     0.732  74.84   0
       183    950.6146    403.0901 300.3663060 +22.7716825     424.0798     69.90574      1.152     3.11    -3.293439     19.73762     56.70012         7     0.838     0.596  60.71   0
       184    348.9120    388.1369 300.1838054 +22.5870243     1504.159     70.06605      1.484     2.84    -2.660422     19.73762     163.2475        20     1.108     0.974  68.76   0
       185     67.5253    385.6812 300.0971535 +22.5018998     553.4208     70.06605      1.280     2.73     -3.12652     19.73762     75.14607        10     0.967     0.671 -77.71   0
       186    318.2715    377.5242 300.1777250 +22.5747882      17418.5     70.04826      1.459     2.62    -2.664704     19.73762     2029.834        51     1.263     1.187  87.80   0
       187    853.0781    374.6128 300.3451530 +22.7342776     836.5536     69.95921      1.460     2.93    -3.144906     19.73762      93.2714        14     1.011     0.839 -45.89   0
       188     14.7391    365.5150 300.0873105 +22.4802742      2762.49     70.06605      1.307     2.32    -3.112717     19.73762     371.4065        23     1.091     0.961  56.35   0
       189    768.8829    364.4224 300.3222280 +22.7061214     281.2049     69.92357      1.709     4.50    -2.994315     19.73762     23.31317         7     1.256     0.459   8.98   0
       190    192.3291    363.6867 300.1430708 +22.5330376     396.2044     70.06605      1.503     3.71    -3.099691     19.73762     41.30455         7     0.976     0.645 -13.92   0
       191    417.3644    363.1211 300.2132211 +22.6003729     259.5973     69.90574      1.215     3.29    -2.426332     19.73762     37.70826         5     0.740     0.448  72.51   0
       192    728.5248    356.9564 300.3120809 +22.6918823     1123.957     69.94139      1.437     2.94    -2.840778     19.73762     111.8522        19     1.045     1.016 -32.27   0
       193    943.5480    349.9805 300.3813555 +22.7543022     342.7292     69.94139      1.254     3.10    -3.159174     19.73762     47.68497         6     0.792     0.498  88.82   0
       194    390.5467    341.9876 300.2117434 +22.5862641     1096.778     69.97704      1.521     3.58    -2.430227     19.73762     120.0338        20     1.272     0.955  73.23   0
       195    829.4418    333.9785 300.3509856 +22.7155198     367.3814     69.99484      1.333     3.91    -3.069658     19.73762     45.63569         7     0.943     0.593  32.93   0
       196    466.3249    321.1364 300.2420885 +22.6029997     583.6559     70.01266      1.450     3.19    -2.500078     19.73762     61.59165        13     0.967     0.884  69.81   0
       197    710.9796    312.8600 300.3209377 +22.6739563     1277.907     69.90574      1.459     3.42    -2.702833     19.73762     125.4404        17     1.097     0.972 -58.54   0
       198    972.0865    307.0298 300.4042037 +22.7505047     1843.509     69.95921      1.343     2.53    -2.785769     19.73762     236.1627        22     1.070     0.972  40.37   0
       199    419.3686    297.1206 300.2352789 +22.5820255     324.7997     69.95921      1.381     3.49    -2.500602     19.73762     48.50046         8     0.990     0.589  65.76   0
       200     94.5841    290.9940 300.1363081 +22.4828555     853.5119      69.8879      1.628     3.40    -3.084144     19.73762     95.43028        17     1.161     0.960 -60.12   0
       201    125.1769    291.2548 300.1457272 +22.4921085     349.6282     69.97704      1.244     2.81    -2.940881     19.73762     48.53925         6     0.742     0.541  35.38   0
       202    988.2523    287.4649 300.4155983 +22.7497219     281.3541     69.99484      1.040     2.34    -2.419201     19.73762     49.32724         5     0.684     0.483  15.06   0
       203    782.8242    274.2035 300.3558714 +22.6843764     341.6411     69.92357      1.251     3.97    -2.724384     19.73762     48.71494         8     0.831     0.696  45.05   0
       204    880.6249    263.1912 300.3899250 +22.7105093     1215.794     69.95921      1.410     2.66    -2.974222     19.73762     149.5664        17     1.043     0.898  68.58   0
       205    299.5608    260.9114 300.2097762 +22.5357050     1228.406     69.94139      1.457     2.77    -2.235022     19.73762     152.6961        17     1.117     0.878 -85.69   0
       206    377.5385    256.0826 300.2355923 +22.5577008     615.7163     70.04826      1.553     3.65     -2.50458     19.73762     70.64809        12     1.120     0.794  87.68   0
       207    779.3120    254.8105 300.3610738 +22.6777513     282.1219     69.90574      1.440     1.95    -2.689697     19.73762     48.84774         5     0.693     0.440 -74.35   0
       208    194.4072    248.4167 300.1811465 +22.5005822     461.2511     69.90574      1.430     3.31    -2.656031     19.73762     50.58671         8     0.895     0.678 -51.38   0
       209    796.7676    244.2813 300.3699311 +22.6799548     391.6375     69.95921      1.569     5.41    -2.669615     19.73762     36.10579         9     1.033     0.947  15.26   0
       210    731.8607    244.7499 300.3495576 +22.6606439     162.4262     70.01266      1.478     2.96    -2.668588     19.73762     111.1237        14     1.003     0.875  24.77   0
       211    215.8112    241.2854 300.1901136 +22.5049550     274.5957     69.90574      1.299     6.04      -2.5723     19.73762     43.55411         9     1.387     0.739  -8.52   0
       212   1003.0140    237.1180 300.4365493 +22.7396677      449.941     69.94139      1.192     2.56    -2.288381     19.73762     66.27118         6     0.713     0.567 -35.40   0
       213    735.7853    236.3406 300.3535103 +22.6594033     382.4277     69.92357      1.235     3.13    -2.654696     19.73762     52.33538         8     0.888     0.627   9.68   0
       214    656.2129    235.5886 300.3289715 +22.6353452      786.026     69.87006      1.586     3.75    -2.601905     19.73762     87.50018        15     1.093     0.967  75.05   0
       215    582.8640    227.1162 300.3088849 +22.6109306     605.3855     70.04826      1.599     4.36     -2.52332     19.73762       55.995        11     1.030     0.913 -49.59   0
       216    863.6757    225.6910 300.3968172 +22.6946537     438.4525     70.10162      1.476     5.23    -2.749944     19.73762     56.42234        11     1.299     0.728 -67.33   0
       217    851.8610    226.8586 300.3927559 +22.6914505     925.3554     70.01265      1.445     2.82    -2.733546     19.73762     96.54798        13     0.950     0.833  33.09   0
       218   1023.7158    216.6465 300.4496518 +22.7399801     422.5077     54.14875      0.970     2.32    -2.196426     19.73762     108.4446         8     0.970     0.450  88.01  24
       219    980.3784    216.2799 300.4362554 +22.7268983     542.3184     69.92357      1.201     2.69    -2.427279     19.73762      86.5427        10     0.846     0.766 -60.53   0
       220      4.4826    213.4698 300.1334918 +22.4335805     423.1122     68.15398      1.643     3.74    -2.679879     19.73762     43.31969         6     0.911     0.440  17.18  16
       221    214.9770    209.7678 300.2000852 +22.4956582     480.3741     69.95921      1.453     3.06    -2.369074     19.73762     52.23306         7     0.822     0.710  -3.75   0
       222     76.7700    204.5896 300.1588240 +22.4527187     1182.424     69.95921      1.364     2.48    -2.662569     19.73762      169.695        15     0.981     0.879  35.49   0
       223     26.3716    201.2949 300.1442406 +22.4366543     311.7582     69.87006      1.376     3.79    -2.486067     19.73762      48.6863         7     1.001     0.453 -79.07   0
       224    899.5604    200.8047 300.4160813 +22.6982474     342.4836     69.97704      1.148     2.67    -2.563469     19.73762     59.94217         7     0.883     0.516  35.78   0
       225    234.0816    197.8404 300.2098945 +22.4979637     3083.914     69.92357      1.415     2.82    -2.195124     19.73762     354.1938        26     1.154     1.048 -80.40   0
       226     18.3431    192.4040 300.1446330 +22.4316947     702.1633     69.92357      1.322     2.89    -2.294292     19.73762     97.55579        14     1.004     0.880 -16.34   0
       227    877.8783    178.9916 300.4164031 +22.6854831     2100.164     69.92357      1.394     2.64    -2.341747     19.73762      258.678        23     1.134     1.002 -47.35   0
       228    981.5634    177.7454 300.4491334 +22.7161731     1632.202     69.97704      1.252     2.42    -2.377548     19.73762     221.8024        17     1.009     0.856  52.78   0
       229    427.9594    174.8010 300.2776604 +22.5494759     376.5973     69.97704      1.792     4.64     -2.52031     19.73762     27.25791         5     0.934     0.654  27.70   0
       230    118.0235    163.5540 300.1849569 +22.4533161     330.0916     69.97704      1.313     3.26    -2.309065     19.73762     47.18962         8     0.796     0.704  65.91   0
       231    407.4176    162.7823 300.2751708 +22.5398667     274.0879     69.95921      1.459     3.53    -2.507946     19.73762     34.39621         5     0.826     0.434 -70.54   0
       232    478.8219    161.6206 300.2977626 +22.5609353     998.0767     69.95921      1.543     3.11    -2.499454     19.73762     112.6923        17     1.065     0.986  -8.70   0
       233    695.3868    154.7749 300.3674026 +22.6238610      193.817     69.95921      1.170     4.24    -2.393662     19.73762     24.99035         5     0.919     0.558  38.73   0
       234    767.4186    150.9843 300.3910709 +22.6443490     233.7759     69.94139      1.467     3.40    -2.173195     19.73762      29.3616         5     0.765     0.590  -2.21   0
       235    253.0017    141.7706 300.2339722 +22.4875401     3404.357     69.92357      1.468     2.90    -1.915049     19.73762     392.6536        28     1.156     1.097 -86.58   0
       236    103.8656    141.1226 300.1878376 +22.4426317     437.2115     70.04826      1.448     3.98    -2.278069     19.73762     43.98054         8     0.935     0.676  32.35   0
       237     14.4434    132.1434 300.1629772 +22.4132331     212.2493     69.95921      1.418     4.11    -1.737127     19.73762     34.43898         5     0.899     0.536 -40.92   0
       238    498.9807    126.8777 300.3153100 +22.5569966     3669.672     69.95921      1.470     2.86    -2.420236     19.73762      390.173        30     1.161     1.142 -68.33   0
       239    384.6548    126.7572 300.2797808 +22.5226972     394.7924     69.95921      1.402     4.35    -2.518329     19.73762      42.5702         7     0.835     0.695 -22.10   0
       240    751.3862    116.2678 300.3973420 +22.6295681     546.8139     69.97704      1.822     5.23    -2.105443     19.73762     48.67352        11     1.097     0.806 -77.94   0
       241    844.3208    115.2444 300.4266320 +22.6571069     204.0082     69.94139      1.465     3.90    -2.119361     19.73762     33.40844         6     1.135     0.549 -24.75   0
       242    192.1810    110.7888 300.2251208 +22.4604087     208.6326     69.92357      1.281     4.57    -1.927888     19.73762        34.31         6     1.332     0.445 -66.77   0
       243    627.2722    106.9902 300.3616973 +22.5897229     3573.235     69.95921      1.459     2.85    -2.034415     19.73762     364.4683        28     1.151     1.121 -43.91   0
       244    402.3634    106.1130 300.2919874 +22.5220757     889.4423     69.94139      1.456     3.15     -2.54379     19.73762     95.60723        15     1.037     0.938  -6.29   0
       245    668.2556    104.5035 300.3752661 +22.6012858      455.583     70.04826      1.517     2.84    -2.104634     19.73762     63.73009         7     0.783     0.684 -75.64   0
       246    683.9263    100.4833 300.3814508 +22.6048247     478.2643     70.06605      1.797     4.62    -2.076278     19.73762     37.07326         8     0.925     0.653 -50.51   0
       247    151.0123     98.6303 300.2162724 +22.4445734     298.7895     69.95921      1.383     3.37    -1.910165     19.73762     40.46015         5     0.785     0.561 -88.53   0
       248    954.2552     97.3275 300.4667157 +22.6848719     368.0905     69.95921      1.345     3.25    -2.728291     19.73762      45.2798         6     0.760     0.551  49.19   0
       249    671.4712     91.6993 300.3804219 +22.5985691     1509.093     70.10162      1.434     3.09    -2.027957     19.73762     168.8824        19     1.058     1.004  76.01   0
       250    686.3437     90.4021 300.3854746 +22.6026513     486.1134     69.92357      1.635     4.57    -2.025231     19.73762     55.30388         9     1.094     0.685  32.25   0
       251    757.7981     83.4655 300.4099827 +22.6220593     847.9825     69.97704      1.441     3.23    -2.018447     19.73762     97.02671        15     1.029     0.916 -85.28   0
       252    695.8379     76.6626 300.3928892 +22.6015461     465.8582     69.97704      1.491     3.50    -1.973409     19.73762     53.09229        12     1.021     0.794  54.04   0
       253    501.7675     75.8889 300.3327207 +22.5431830     625.8449     69.92357      1.395     2.61     -2.35077     19.73762     95.64595        12     0.888     0.864 -84.78   0
       254     74.4946     75.7506 300.1999232 +22.4150595     406.0003     70.01266      1.853     5.18    -2.223719     19.73762     40.38003         7     1.051     0.721  86.26   0
       255    405.2069     74.3986 300.3031612 +22.5138183     611.8011     69.78079      1.939     3.31    -2.613945     19.73762     56.90957         9     0.943     0.798  88.92   0
       256    744.7717     64.9086 300.4119449 +22.6128235     304.3223     69.94139      1.338     4.58    -1.966974     19.73762     39.60798         6     1.056     0.649  -6.20   0
       257    176.8276     64.2069 300.2354615 +22.4424314     2206.052     69.95921      1.420     2.84    -1.955007     19.73762      239.959        22     1.109     1.005  40.95   0
       258    738.2972     56.6163 300.4126180 +22.6085007     543.1156     69.87006      1.362     3.29    -1.942927     19.73762     62.59912        10     0.896     0.787  55.23   0
       259    292.7510     56.3992 300.2740274 +22.4749423     768.3618     69.94139      1.423     2.87    -2.348932     19.73762     93.40459        13     0.976     0.845 -43.76   0
       260    699.3112     51.4396 300.4021536 +22.5953363     356.6174     69.94139      1.275     3.46    -1.869699     19.73762     38.32325         5     0.767     0.451  19.47   0
       261    795.8688     47.6535 300.4334623 +22.6231649     1303.127     69.97704      1.380     2.56    -1.934051     19.73762     179.7551        20     1.100     0.981  23.38   0
       262    179.2306     43.4116 300.2429536 +22.4371811     609.0189     69.95921      1.416     3.61    -1.979671     19.73762     71.36041        10     0.930     0.856 -67.99   0
       263    970.5001     41.0035 300.4900543 +22.6735359     443.7911     69.83437      1.247     2.34    -2.728291     19.73762     58.13412         8     0.752     0.676 -11.21   0
       264    744.2831     40.3109 300.4197721 +22.6056059     524.0376     70.06605      1.523     3.77    -1.896634     19.73762      58.5757        14     1.150     0.882  -0.91   0
       265    329.3561     30.1560 300.2939217 +22.4783769     215.0511     69.99484      1.201     3.42    -2.625216     19.73762     33.17106         5     0.753     0.448  73.85   0
       266    596.7429     25.3915 300.3786636 +22.5571269     409.1194     69.94139      1.356     3.06     -1.68777     19.73762     55.17022        10     0.846     0.817  23.66   0
       267    206.1328     22.7621 300.2580119 +22.4393170     205.9095     69.94139      1.198     4.41    -1.995267     19.73762     42.57639         6     0.849     0.651   6.35   0
       268    759.5524     20.1758 300.4310602 +22.6043898     363.6035     69.97704      1.427     3.46    -1.847749     19.73762     49.67125         6     0.731     0.658 -61.78   0
       269    568.5261     18.3654 300.3721584 +22.5466549     930.5563     69.94139      1.415     3.12    -1.658166     19.73762     114.1906        18     1.095     1.009 -54.72   0
       270    291.4102     15.6743 300.2868198 +22.4628441     369.3188     69.95921      1.407     3.27    -2.628744     19.73762     53.87669         7     0.846     0.672  65.77   0
       271     68.5278   1019.7283 299.8912461 +22.6839371     2847.231     69.81651     10.657    21.11     5.727966     19.73762     62.85575       142     3.923     3.254  -1.27  27
       272    566.6604   1004.7846 300.0509759 +22.8292646     936.5479     69.92357      1.082     2.00    -5.913198     19.73762     154.8604        13     0.906     0.754  37.69   0
       273    391.0927    999.2980 299.9981420 +22.7749794      3682.03     70.13718      1.099     1.81    -5.273833     19.73762     731.8386        23     0.941     0.879  77.53   0
       274    658.1143   1013.9229 300.0764684 +22.8593362     3945.824     70.06605      1.187     1.95    -5.292916     19.73762     731.4196        22     0.933     0.880  47.27   0
       275    941.8477   1000.3649 300.1692812 +22.9405799     524.8275     69.99484      0.669     0.51    -5.473921     19.73762     263.4598         5     0.578     0.358 -86.77   0
       276    241.0758   1021.6802 299.9442147 +22.7363373     2437.394     64.15911      9.594    23.29     1.770383     19.73762     74.05061       131     5.977     2.519   1.35  26
