#   1 NUMBER                 Running object number                                     
#   2 X_IMAGE                Object position along x                                    [pixel]
#   3 Y_IMAGE                Object position along y                                    [pixel]
#   4 ALPHA_J2000            Right ascension of barycenter (J2000)                      [deg]
#   5 DELTA_J2000            Declination of barycenter (J2000)                          [deg]
#   6 FLUX_APER              Flux vector within fixed circular aperture(s)              [count]
#   7 FLUXERR_APER           RMS error vector for aperture flux(es)                     [count]
#   8 FLUX_RADIUS            Fraction-of-light radii                                    [pixel]
#   9 FWHM_IMAGE             FWHM assuming a gaussian core                              [pixel]
#  10 BACKGROUND             Background at centroid position                            [count]
#  11 THRESHOLD              Detection threshold above background                       [count]
#  12 FLUX_MAX               Peak flux above background                                 [count]
#  13 ISOAREA_IMAGE          Isophotal area above Analysis threshold                    [pixel**2]
#  14 A_IMAGE                Profile RMS along major axis                               [pixel]
#  15 B_IMAGE                Profile RMS along minor axis                               [pixel]
#  16 THETA_IMAGE            Position angle (CCW/x)                                     [deg]
#  17 FLAGS                  Extraction flags                                          
         1    581.1210     12.0388 300.3951424 +22.5288939     822.2255     70.07616      2.095     5.99    -1.741353     19.77565     52.87342        16     1.333     1.069 -46.23   0
         2    370.8111      3.2918 300.3325399 +22.4633375     4485.179     64.06823      1.960     4.32    -2.215575     19.77565     300.3533        42     1.607     1.350  -5.67  24
         3    118.3730   1021.8361 299.9230427 +22.6797649     645.2918     63.53865      2.122     3.77   -0.7753105     19.77565     26.23921         5     1.530     0.267 -49.07  16
         4    104.4706   1022.9363 299.9183664 +22.6759008     670.5773     58.51455      4.176     6.33     -1.00342     19.77565     34.59282         8     1.237     0.911 -83.20  25
         5    791.3797   1014.6465 300.1347347 +22.8798802     6586.737     70.14756      1.374     2.43    -3.904206     19.77565     761.0936        39     1.206     1.124  69.02   0
         6    837.1357   1014.8058 300.1489385 +22.8936613     199.4474      70.0583      1.335     4.01    -4.452634     19.77565     34.95111         6     0.781     0.590 -52.99   0
         7    982.0096   1013.9905 300.1943599 +22.9369082     247.6106     69.98682      1.160     2.18    -4.852216     19.77565     60.07627         5     0.883     0.357  27.81   0
         8    103.0175   1006.6852 299.9232077 +22.6708085       472.59      70.0583      1.575     4.59    -1.538343     19.77565     45.91778         8     1.050     0.569  58.56   0
         9    496.7123   1003.4453 300.0466450 +22.7881824     308.6395     70.07616      1.439     3.90     -4.02324     19.77565     39.66302         5     0.979     0.445 -14.69   0
        10    843.6021   1002.2684 300.1550371 +22.8920049      184.358      70.0583      0.994     3.66    -4.514148     19.77565     46.88849         5     0.852     0.478 -42.50   0
        11    799.9896    996.6461 300.1432800 +22.8773003     859.3881     70.11187      1.354     2.70    -3.924817     19.77565     103.0089        14     0.951     0.872 -32.23   0
        12    983.0174    995.5281 300.2006878 +22.9319113     367.9438     70.09402      1.564     3.60    -4.847618     19.77565     39.53991         6     0.995     0.652 -52.64   0
        13    838.0266    990.2418 300.1572169 +22.8868804     338.7247     70.12972      1.226     3.66    -4.397193     19.77565      43.8824         7     0.757     0.649  11.35   0
        14    946.4770    987.1898 300.1920115 +22.9185530     99.07259     70.07616      1.366     3.60     -4.84048     19.77565     32.69677         5     0.983     0.379  -6.36   0
        15    886.5173    981.2916 300.1752430 +22.8988660     198.6993     70.21889      1.005     3.19    -4.734311     19.77565     46.30545         5     0.725     0.475 -73.54   0
        16    737.6945    980.5717 300.1291104 +22.8539876     434.8178     70.00469      1.353     3.10    -3.943138     19.77565     54.43611        10     0.867     0.811 -85.28   0
        17    749.0540    977.8916 300.1335213 +22.8566289     258.2618     70.14756      1.344     3.06    -3.946573     19.77565     39.65272         7     0.835     0.653 -60.80   0
        18    450.6345    977.0126 300.0409188 +22.7667627     2312.137     70.07616      1.472     2.74    -4.003956     19.77565     269.1962        27     1.146     1.123  28.53   0
        19    153.0941    960.0323 299.9539544 +22.6724941     972.3536     70.04044      1.383     3.77    -2.765031     19.77565     111.3202        17     1.254     0.906  76.17   0
        20   1023.6972    948.3190 300.2287477 +22.9305651     693.5404      54.4603      0.976     2.34    -4.878845     19.77565     154.8465         9     1.103     0.458 -88.27  24
        21    978.3842    946.8643 300.2150920 +22.9165522     1216.399     70.07616      1.341     2.60    -4.831147     19.77565     171.8129        17     1.031     0.928  60.96   0
        22    762.0706    941.2634 300.1495037 +22.8500271     375.1424     70.12972      1.469     3.90     -3.98894     19.77565     41.14323         6     0.999     0.609  45.60   0
        23    185.1124    941.3519 299.9699841 +22.6767637     219.9094     70.09402      1.380     3.47    -3.559559     19.77565     33.84855         5     0.787     0.442  16.21   0
        24    630.2865    935.1170 300.1104671 +22.8087004     2808.328     70.20107      1.559     3.04    -4.324057     19.77565     301.9626        30     1.258     1.114  -1.87   0
        25    120.0007    936.4776 299.9513436 +22.6557984     269.7966     69.98682      1.354     3.75    -3.814566     19.77565     38.81687         6     0.808     0.499  -2.40   0
        26    432.9301    932.1007 300.0500361 +22.7485673     358.3894     70.20107      1.497     3.76    -3.998805     19.77565     45.01132         7     0.965     0.645  25.75   0
        27    180.7724    929.4539 299.9725094 +22.6720498     889.0956     70.12972      1.554     3.26    -4.090608     19.77565     94.36909        15     1.161     0.823 -60.19   0
        28    651.1717    927.3735 300.1194905 +22.8127497     503.0944     70.07616      1.829     4.95    -4.142117     19.77565     41.27046         8     1.043     0.745  52.20   0
        29    200.2926    926.5926 299.9795061 +22.6770958     193.2038     70.00469      1.395     5.32    -4.095188     19.77565     34.66955         7     1.083     0.738  84.79   0
        30    806.4072    914.6450 300.1719828 +22.8556964     2429.241     70.11187      1.520     2.82    -4.073753     19.77565     218.5029        25     1.166     1.107 -80.77   0
        31   1023.0677    914.5273 300.2395550 +22.9206745     546.6447     57.82612      1.143     2.54    -4.753095     19.77565     97.07256        10     0.892     0.685 -59.89  24
        32    215.4975    909.2625 299.9898727 +22.6766979     394.4243     70.18324      1.914     4.45    -4.138266     19.77565     35.02612         6     0.921     0.612  21.56   0
        33    523.5975    907.7059 300.0861857 +22.7688021     385.8623     70.00469      1.506     3.43    -4.037473     19.77565     37.46009         5     0.742     0.457  72.42   0
        34    169.8886    905.9459 299.9767810 +22.6620420     513.4028     70.12972      1.278     3.20    -4.139018     19.77565     73.35219         9     0.942     0.640 -40.05   0
        35    319.5216    897.6081 300.0259993 +22.7046110     30564.84     70.04044      1.638     2.99    -4.093748     19.77565     2916.412        82     1.435     1.400  52.18   0
        36    577.2641    896.3715 300.1065771 +22.7816660     865.2048     70.09402      1.589     3.79    -4.177944     19.77565     71.13587        16     1.128     0.931  -3.01   0
        37    989.9299    895.2416 300.2355009 +22.9051960      458.713      70.0583      1.469     2.43    -4.526854     19.77565     50.34583         8     0.810     0.613  45.00   0
        38    606.3707    892.4589 300.1169107 +22.7892828     539.3311     70.09402      1.813     3.96    -4.261804     19.77565     44.03629         9     0.994     0.663 -85.28   0
        39      5.4671    892.3008 299.9301580 +22.6087150     478.1186     70.18324      1.410     2.96    -4.107028     19.77565     57.06508         8     0.884     0.663  48.24  16
        40    616.5118    890.5993 300.1206729 +22.7917941     522.1439     70.00469      1.876     4.07    -4.245772     19.77565     38.88127         9     0.940     0.758  24.43   0
        41    721.8309    887.1580 300.1545863 +22.8224233     200.6437     70.12972      1.458     4.15    -4.147853     19.77565     31.62984         6     1.156     0.425  28.59   0
        42    369.2195    874.8001 300.0488762 +22.7130006     17750.03     70.02257      1.646     3.17     -4.06048     19.77565     1619.267        62     1.447     1.337  27.01   0
        43    759.9229    876.9411 300.1697769 +22.8309248     486.3082     70.12972      1.555     3.54    -4.194576     19.77565     56.16692        10     0.959     0.855 -31.59   0
        44    383.4968    875.2174 300.0531802 +22.7174087     1147.722     70.00469      1.672     3.63    -4.048282     19.77565     99.40834        19     1.238     0.952  66.12   0
        45    892.0559    870.1926 300.2131444 +22.8686399     1738.979     70.07616      1.540     3.04    -4.131101     19.77565     159.5844        22     1.122     1.052 -31.61   0
        46    380.2803    869.4789 300.0540478 +22.7147971     466.0925     70.21889      2.047     4.54    -4.055437     19.77565     39.33699         9     0.987     0.778  44.95   0
        47    650.3323    866.4434 300.1390654 +22.7950172     537.0015     70.07616      1.480     3.05    -4.169617     19.77565     48.16477         9     0.945     0.646  79.81   0
        48    486.6193    866.4906 300.0880971 +22.7458766     350.7631     70.02257      1.205     4.01    -4.002085     19.77565     36.32692         6     1.052     0.437  55.35   0
        49    251.8911    865.9768 300.0152731 +22.6752252     550.7639     70.02257      1.912     5.36     -4.23383     19.77565     64.30823        11     1.391     0.865  86.67   0
        50    496.9345    861.6368 300.0928864 +22.7475821     492.5974     70.09402      1.460     5.12    -4.021258     19.77565     53.06985        11     1.328     0.841 -20.05   0
        51    898.2767    857.9313 300.2190747 +22.8669866     431.5026     70.18324      1.938     5.64    -4.083488     19.77565       35.228         8     1.158     0.774 -52.49   0
        52    564.1569    837.0742 300.1217996 +22.7607203      760.539     70.07616      1.565     5.35    -4.119981     19.77565     63.92372        21     1.322     1.268 -44.81   0
        53    958.3976    835.5391 300.2451047 +22.8785948     2663.346     70.07616      1.585     3.01    -4.127921     19.77565     233.7419        29     1.214     1.145  17.48   0
        54    947.0442    826.9127 300.2443730 +22.8727121     965.6674     70.07616      1.528     3.62    -4.050304     19.77565     90.53951        18     1.177     0.984  54.73   0
        55    310.2291    821.2233 300.0479724 +22.6799194     546.4156     70.09402      1.676     6.04    -4.083958     19.77565     44.23526        11     1.211     0.847  81.17   0
        56    773.1008    818.2863 300.1929739 +22.8180457     1433.152     70.25452      1.640     3.62    -4.264084     19.77565      111.331        21     1.166     1.115  76.32   0
        57    978.0899    817.0948 300.2572477 +22.8792059     879.4498     70.27233      1.539     3.80    -4.156427     19.77565     95.04691        16     1.131     0.976 -23.39   0
        58    991.7930    807.3843 300.2646808 +22.8805278     148.8479     70.02257      1.030     4.45    -4.221076     19.77565     24.04684         5     1.152     0.488 -57.23   0
        59    159.3193    805.0382 300.0063395 +22.6299442     287.3652      70.0583      1.519     4.42    -4.203186     19.77565     40.20315         7     0.898     0.620  63.79   0
        60    891.6203    795.2432 300.2374036 +22.8469922     83862.49     70.12972      1.609     3.11    -3.802328     19.77565     6956.608       121     1.464     1.443 -40.05   0
        61    744.2452    795.4989 300.1914014 +22.8028459     470.0597     70.11187      1.773     4.70    -4.290814     19.77565     42.67975         9     0.911     0.799  15.99   0
        62    924.1307    788.4465 300.2497489 +22.8547935     314.2144     70.07616      1.337     4.45    -3.794017     19.77565     43.35989         6     0.936     0.644 -79.82   0
        63    577.9664    784.5219 300.1432001 +22.7497886     926.4646     70.07616      1.733     6.09    -4.078707     19.77565     55.15611        17     1.180     1.074 -29.91   0
        64    759.1833    781.4578 300.2006237 +22.8032983     5393.415     70.07616      1.696     3.48    -4.188099     19.77565      368.984        40     1.381     1.272   6.70   0
        65    260.8690    776.9581 300.0470327 +22.6524007     2734.787     70.07616      1.698     3.46    -3.985567     19.77565     213.7828        29     1.324     1.176  41.30   0
        66    343.2360    775.1647 300.0732221 +22.6766252     638.8626      70.1654      1.570     3.07    -3.840598     19.77565     69.67137        10     0.951     0.752  50.65   0
        67    542.6603    762.5317 300.1393671 +22.7328806     1808.495     70.12972      1.803     3.77    -3.957141     19.77565     122.4833        28     1.364     1.217 -77.49   0
        68    532.8136    755.8837 300.1384658 +22.7280172      773.069      70.0583      2.001     7.37    -3.879028     19.77565     53.57837        18     1.383     1.100  66.90   0
        69    926.9230    753.0262 300.2621452 +22.8454601     314.5875     70.11187      1.263     3.87    -3.752466     19.77565     38.93745         5     0.828     0.519  25.92   0
        70    457.9035    746.0279 300.1183648 +22.7027003     951.2451     70.04044      1.712     3.58    -3.514372     19.77565     78.67551        16     1.093     0.972 -29.46   0
        71    236.6236    747.1617 300.0491913 +22.6365745     287.9821     70.11187      1.456     3.00     -3.82189     19.77565     49.96709         6     1.006     0.431 -29.34   0
        72    111.9102    741.2123 300.0123780 +22.5974044     11371.29     70.04044      1.646     3.20    -3.798723     19.77565     929.5834        53     1.447     1.286  71.07   0
        73     32.6230    743.2029 299.9871067 +22.5741521     310.9714     70.04044      1.421     3.37    -3.760867     19.77565      42.7881         6     0.709     0.657   9.51   0
        74    542.7168    741.2106 300.1463215 +22.7267800     780.8059      70.0583      2.420     6.14    -3.873458     19.77565     46.31549        11     1.053     1.007  79.79   0
        75    960.4335    727.2142 300.2809905 +22.8480984     489.9062     70.07616      1.601     4.71    -3.612679     19.77565     52.69374        13     1.114     0.880  86.41   0
        76     58.3836    725.1474 300.0009795 +22.5767174     789.3643     70.09402      2.055     5.59     -3.71861     19.77565     73.45106        13     1.525     0.688 -87.18   0
        77    900.1207    720.0050 300.2645342 +22.8279382     588.3567     70.00469      2.184     6.58    -3.625823     19.77565     31.79923        10     1.288     0.944 -12.61   0
        78    463.2352    714.5620 300.1302599 +22.6952739     432.0638      70.1654      1.749     3.83    -3.374352     19.77565     31.19755         5     1.030     0.410  83.32   0
        79    506.7460    709.6184 300.1454055 +22.7069174     469.4818     70.07616      1.809     5.58     -3.45023     19.77565     35.03751         8     1.277     0.688 -55.20   0
        80    940.5023    705.2905 300.2819090 +22.8358241     1797.919     70.27233      1.653     3.42     -3.51842     19.77565     141.0386        23     1.197     1.105  35.11   0
        81    472.6441    705.3555 300.1361818 +22.6954571     1009.386     70.12972      1.921     5.19      -3.3394     19.77565     65.61024        19     1.367     1.047  53.55   0
        82     34.7644    699.5363 300.0019754 +22.5622796     2827.629     70.09402      1.709     3.27    -3.672082     19.77565     237.3419        31     1.332     1.157  82.99   0
        83    335.9392    692.3420 300.0978968 +22.6506797     5162.053      70.1654      1.867     3.89    -3.643474     19.77565     357.5846        43     1.464     1.374  71.18   0
        84    458.3005    689.3946 300.1369112 +22.6865717     4955.979     69.98682      1.907     3.96    -3.320184     19.77565      353.967        39     1.444     1.396 -39.74   0
        85    869.6749    682.8317 300.2671377 +22.8081309     984.2116     70.09402      1.672     4.29    -3.390094     19.77565     80.74551        19     1.212     1.078  52.20   0
        86    954.3879    680.2384 300.2943874 +22.8327932     7246.509     70.09402      1.657     3.37    -3.367964     19.77565     528.7004        45     1.327     1.309 -20.31   0
        87    518.9033    678.8881 300.1591843 +22.7017488     6524.658     70.27233      1.898     4.03    -3.276997     19.77565     427.8995        44     1.459     1.425  35.94   0
        88    246.7630    674.5519 300.0759610 +22.6187980     771.1002     70.11187      1.774     4.85    -3.653465     19.77565     74.64501        16     1.264     1.002 -83.83   0
        89    450.4559    667.1704 300.1416992 +22.6778403     2478.146     70.09402      1.908     4.40    -3.278358     19.77565     146.2926        32     1.456     1.329  32.94   0
        90    793.0952    667.4208 300.2482878 +22.7807343     422.9823     70.00469      1.692     6.51    -3.358218     19.77565     35.09102        11     1.170     1.016 -71.83   0
        91    429.2024    665.6804 300.1355725 +22.6710325     577.9963     70.00469      1.734     5.26    -3.315771     19.77565     45.79481        12     1.234     0.924  28.84   0
        92    182.7249    664.9935 300.0591689 +22.5968241     409.5894     70.02257      1.899     6.11    -3.590958     19.77565     40.07048         7     1.457     0.721  11.41   0
        93    870.3741    662.3093 300.2740309 +22.8024469      843.817     70.02257      1.827     5.16    -3.273475     19.77565     54.35035        20     1.309     1.100 -32.66   0
        94    567.1322    654.6140 300.1820885 +22.7092578     115711.9     70.11187      1.956     4.26    -3.307408     19.77565     7363.587       173     1.751     1.712 -25.24   0
        95    750.2168    659.6750 300.2374495 +22.7656469     388.5943     70.09402      1.812     6.14    -3.359546     19.77565     42.70997         8     1.426     0.743  28.07   0
        96    253.3713    654.8153 300.0844336 +22.6151221     1960.486     70.11187      1.931     4.01    -3.641437     19.77565     150.4358        28     1.415     1.191  84.11   0
        97    457.8542    635.0662 300.1544414 +22.6708493     1595.953     70.14756      2.066     4.84    -3.144014     19.77565     96.51702        29     1.505     1.278 -68.82   0
        98    854.6277    620.7554 300.2826378 +22.7857900     1063.961     70.11187      1.874     5.40    -3.103185     19.77565     69.18411        22     1.382     1.225 -80.52   0
        99    725.8976    618.5261 300.2432568 +22.7465364     1409.769     70.21889      1.898     4.89     -3.36871     19.77565     83.79841        23     1.317     1.201 -89.52   0
       100    513.2220    614.7304 300.1782811 +22.6816318     404.3652     70.09402      1.747     4.81    -3.061891     19.77565     39.12883         7     1.040     0.629  66.83   0
       101    982.8975    612.2449 300.3253904 +22.8218103     736.4134     70.11187      1.780     5.79    -3.326124     19.77565     48.63419        15     1.323     0.903 -74.33   0
       102    969.0500    611.9282 300.3211757 +22.8175673     527.4965     70.09402      2.207     6.07    -3.320904     19.77565     38.00002         8     1.083     0.956  50.16   0
       103    854.9214    611.2426 300.2858228 +22.7831459     1217.691     70.07616      1.986     4.49     -3.05934     19.77565     76.05832        24     1.357     1.165  72.99   0
       104    892.8215    606.0005 300.2993395 +22.7930064     2292.137     70.02257      1.813     4.11    -3.116694     19.77565     143.7719        28     1.355     1.212  -6.03   0
       105    125.5786    597.2339 300.0634475 +22.5602297     489.9402     70.11187      1.564     2.97    -3.060008     19.77565     63.76166        10     1.084     0.618 -37.33   0
       106    984.7567    596.4284 300.3311132 +22.8178237     427.3904     70.11187      1.559     4.98    -3.164761     19.77565     39.24459         9     1.039     0.675 -79.87   0
       107    667.2830    577.4132 300.2383707 +22.7171477     301.8313     70.07616      1.614     3.46    -3.017124     19.77565     29.87352         5     1.061     0.326 -21.44   0
       108    981.4194    569.3671 300.3388716 +22.8090481     354.5333     70.09402      1.702     4.76    -2.839726     19.77565     35.58555         6     1.059     0.606 -31.98   0
       109    727.5521    569.6229 300.2596729 +22.7329905     423.3257     70.11187      1.725     3.47    -3.058207     19.77565     30.01825         5     1.114     0.312 -20.31   0
       110    884.4875    564.7582 300.3101518 +22.7786604     537.6052     70.09402      1.876     6.01    -2.933343     19.77565     42.53198        14     1.245     0.961  50.92   0
       111    867.9916    561.2889 300.3061384 +22.7727172     297.4154     70.02257      1.617     4.98    -2.917935     19.77565     30.74822         5     1.210     0.580 -80.91   0
       112    613.0976    559.4938 300.2273259 +22.6957464     1767.791     70.27233      1.925     4.71    -2.784043     19.77565      117.059        25     1.395     1.186 -75.67   0
       113   1023.4296    538.1343 300.3621263 +22.8126675     459.1177     55.84443      1.534     5.40    -2.343663     19.77565     44.04263        10     1.364     0.603  84.05  24
       114    982.9672    537.0419 300.3498634 +22.8002241     563.6166     70.14756      1.680     5.31    -2.524259     19.77565     43.73238        11     1.081     0.738 -88.36   0
       115    721.7025    532.7321 300.2698439 +22.7206419     510.0103     70.18324      2.089     4.86    -2.810031     19.77565     45.90247         6     1.335     0.502 -39.68   0
       116    290.1950    527.8196 300.1371687 +22.5897484     2042.426     70.07616      2.001     4.06     -3.07048     19.77565     142.2372        33     1.499     1.353 -68.95   0
       117   1022.6688    525.5364 300.3659843 +22.8088192     2054.513     59.86767      1.594     3.64    -2.336334     19.77565     168.6791        24     1.349     1.008 -87.75  24
       118    237.3888    522.4614 300.1224960 +22.5723580     4352.007     70.04044      1.967     4.16    -2.946264     19.77565     283.6963        45     1.558     1.462  51.57   0
       119    378.0446    516.6355 300.1681195 +22.6129089     2697.944     70.14756      2.115     4.34    -2.499174     19.77565     175.0987        38     1.526     1.480   0.20   0
       120   1002.9512    516.5751 300.3627483 +22.8003335     1069.955     70.09402      1.844     4.88    -2.409225     19.77565     77.23296        19     1.212     1.149  -3.02   0
       121    622.1328    513.0342 300.2452411 +22.6851179     10432.94     70.09402      2.073     4.53    -2.639686     19.77565     556.5419        61     1.621     1.592  17.35   0
       122    177.3209    493.6801 300.1131830 +22.5460668      1220.93     70.21889      1.878     4.13    -2.928992     19.77565      95.4641        28     1.415     1.275 -36.09   0
       123    562.8826    482.5483 300.2367055 +22.6585896     3593.945     70.11187      2.110     4.87    -2.468777     19.77565     184.9324        43     1.681     1.533  64.76   0
       124    976.4801    482.3393 300.3656217 +22.7825602     710.3625     70.14756      1.828     5.08    -2.443434     19.77565     49.85024        16     1.263     1.030 -63.80   0
       125    766.4736    471.5818 300.3036653 +22.7165060     692.4441     70.09402      1.990     6.78    -2.635574     19.77565     43.27911        17     1.191     1.083 -80.33   0
       126    469.5314    468.8929 300.2120935 +22.6266609     3302.464     70.21889      2.059     4.82    -2.072161     19.77565      198.976        40     1.567     1.496 -80.49   0
       127    958.4225    463.6469 300.3660663 +22.7717756     428.3054     70.11187      1.913     6.41    -2.482985     19.77565     32.48381        10     1.280     0.903 -78.59   0
       128    861.4132    463.1307 300.3359941 +22.7425454      756.924     70.11187      2.138     4.76    -2.628596     19.77565     54.49982        13     1.074     0.925  62.14   0
       129    357.2201    448.2867 300.1838552 +22.5870434     1418.172     70.02257      1.981     4.88    -2.220599     19.77565     92.84507        26     1.428     1.246 -60.20   0
       130     75.8679    446.0852 300.0971317 +22.5019521     636.7337     70.18324      2.074     6.57    -3.216926     19.77565     49.01461        14     1.149     1.055   9.83   0
       131    326.4173    437.7098 300.1777137 +22.5747634     16535.33     70.02257      2.070     4.36    -2.368356     19.77565     1034.793        75     1.704     1.628 -89.26   0
       132    861.0542    435.2999 300.3449261 +22.7344413     628.2421     70.18324      1.810     7.02    -2.616838     19.77565     48.70836        14     1.475     0.990 -22.37   0
       133     22.8702    425.8422 300.0872499 +22.4802316     2740.179      70.0583      1.825     3.59    -3.329778     19.77565     215.0669        33     1.474     1.235  82.95   0
       134    736.5352    417.0630 300.3120550 +22.6918674     1037.317     70.12972      2.108     5.80    -2.609279     19.77565     59.95919        24     1.378     1.268 -67.24   0
       135    398.5030    402.1240 300.2116926 +22.5861814     1231.716     70.23671      2.148     7.00    -2.116767     19.77565     53.91739        24     1.551     1.223  47.57   0
       136    474.2279    380.9806 300.2421179 +22.6028308     684.3437     70.09402      2.163     8.23     -2.16821     19.77565     41.88157        15     1.459     1.297  55.79   0
       137    719.0482    373.1029 300.3208899 +22.6739952     1178.918     70.12972      2.123     6.23    -2.588103     19.77565     63.51152        25     1.467     1.317 -14.94   0
       138    980.1910    367.0128 300.4042520 +22.7505262     1843.675     69.98682      1.971     4.34    -2.494543     19.77565      139.309        28     1.421     1.248 -81.48   0
       139    102.6664    351.6591 300.1361295 +22.4829098     965.3124     70.12972      2.147     4.36    -3.197854     19.77565     83.89798        21     1.408     1.167  76.83   0
       140    133.0652    351.7265 300.1455511 +22.4920546     460.8549     70.12972      2.020     5.44    -3.214023     19.77565     29.46376         6     1.190     0.701 -65.95   0
       141    187.1451    343.5195 300.1650198 +22.5059323     424.9474     70.12972      2.103     6.09    -2.976383     19.77565     39.83013         8     1.635     0.639  53.81   0
       142    543.6506    342.2242 300.2763100 +22.6125259     3635.322     70.11187      0.850     3.42    -2.466284     19.77565     1259.229        11     0.917     0.413  46.54   0
       143    888.7137    323.2762 300.3899396 +22.7105393     1047.942     70.21889      2.036     6.56    -2.562048     19.77565      59.2298        23     1.450     1.192  14.48   0
       144    307.4532    321.3073 300.2096289 +22.5356618     1149.529     70.14756      2.076     5.09    -2.530603     19.77565     75.33363        26     1.458     1.339  27.23   0
       145    386.1103    316.3423 300.2357010 +22.5578363     514.7708      70.1654      1.798     5.31    -2.460036     19.77565     49.27029        13     1.237     0.959 -48.50   0
       146    202.5459    309.4989 300.1808541 +22.5007912     421.2878     70.18324      1.513     3.70    -2.693821     19.77565     31.84982         6     1.026     0.384 -19.66   0
       147    804.2831    305.9041 300.3692693 +22.6802401      343.605     70.27233      1.608     3.91    -2.673698     19.77565     33.31663         5     0.874     0.500 -38.84   0
       148    739.7264    305.2250 300.3493777 +22.6606927     873.2871     70.12972      1.950     5.84    -2.585971     19.77565     50.04106        19     1.417     1.012   5.39   0
       149   1011.3040    297.0782 300.4366696 +22.7397440     494.8306     70.21889      1.877     6.56    -2.523317     19.77565     39.80274        10     1.267     0.952 -39.64   0
       150    664.5574    296.0222 300.3289551 +22.6355122     855.3506     70.12972      2.642     7.35    -2.308242     19.77565     43.73696        15     1.590     0.950 -66.89   2
       151    860.1812    286.9843 300.3928328 +22.6915566     840.2218     70.07616      2.060     5.64    -2.552549     19.77565      71.3688        16     1.420     1.056 -32.39   0
       152    871.7823    286.3344 300.3966595 +22.6948467     427.1536     70.07616      1.854     7.46    -2.541004     19.77565     36.78678        12     1.446     1.079  20.69   0
       153    988.2018    276.7020 300.4360822 +22.7269637     576.9564     70.00469      1.811     7.22    -2.522779     19.77565     37.73788        16     1.447     1.008   3.42   0
       154    223.4247    270.2210 300.2000967 +22.4957833     375.9697     70.07616      1.835     6.51    -2.397272     19.77565     35.96777        10     1.324     0.899 -46.66   0
       155     85.0994    264.6931 300.1589128 +22.4526832     1319.134     70.27233      2.094     8.20    -2.625892     19.77565     87.88206        24     1.659     1.134 -45.86   0
       156    242.2403    258.1940 300.2098497 +22.4979769     3104.831     70.12972      2.120     4.46    -2.278564     19.77565     199.8333        39     1.562     1.440 -79.83   0
       157     26.5947    252.7330 300.1446256 +22.4316902     802.9131     70.07616      1.832     4.34    -2.568387     19.77565     72.17368        17     1.240     1.065 -65.49   0
       158    886.0312    239.2690 300.4163832 +22.6855876     1995.778     70.07616      2.078     4.55    -2.614013     19.77565     124.4806        31     1.441     1.334  13.51   0
       159    989.6832    237.7242 300.4492003 +22.7162003     1510.498     70.18324      1.813     4.11    -2.519054     19.77565     101.2319        25     1.306     1.218  83.22   0
       160    486.9396    222.1465 300.2976526 +22.5610295     937.0791     70.14756      2.232     5.85    -2.247943     19.77565     66.22027        20     1.317     1.248   1.64   0
       161    921.2032    204.2517 300.4387155 +22.6860590     161.9058     70.09402      2.127     7.14     -2.44485     19.77565     25.50059         6     1.369     1.042  68.23   0
       162    261.0878    202.0758 300.2339258 +22.4875213      3224.57     70.21889      2.111     4.76    -1.939293     19.77565     190.4229        41     1.610     1.465  50.89   0
       163    507.0297    187.2526 300.3152309 +22.5570306     3425.522     70.09402      2.201     4.90    -2.113817     19.77565     195.5068        44     1.644     1.528 -84.16   0
       164    758.1831    177.2840 300.3966658 +22.6294563     499.6905      70.0583      2.378     5.15    -2.431324     19.77565     36.04522         7     1.231     0.610  16.63   0
       165    851.8070    175.8327 300.4263095 +22.6570953     288.0802     70.09402      1.835     2.81    -2.534804     19.77565     36.83912         5     0.710     0.687 -53.75   0
       166    635.2819    167.2192 300.3616553 +22.5897261     3504.172     70.07616      2.145     4.74    -1.973081     19.77565     185.9012        43     1.582     1.564 -50.94   0
       167    410.2253    166.5533 300.2918309 +22.5220552     728.1339     70.11187      1.948     5.24    -1.899749     19.77565     59.73872        15     1.284     1.076   1.74   0
       168    159.7783    159.2818 300.2163291 +22.4448399     258.2473      70.0583      1.439     5.34    -2.052443     19.77565     30.97401         6     1.017     0.790   1.98   0
       169    679.6855    152.1495 300.3803733 +22.5987053     1400.458     70.07616      2.025     4.69    -1.949713     19.77565     82.54207        28     1.455     1.272 -57.62   0
       170    766.2796    143.5794 300.4101273 +22.6221943     904.5082     70.09402      1.974     6.69     -2.32351     19.77565     48.56569        19     1.323     1.152 -29.53   0
       171    704.3397    137.2708 300.3928803 +22.6018183     400.3811     70.12972      1.638     4.23    -2.046623     19.77565     36.76849         5     1.063     0.579 -61.79   0
       172    509.3275    137.4170 300.3321202 +22.5434025     560.6826     70.09402      2.571     5.43    -2.028229     19.77565     39.24007         9     1.043     0.797 -34.99   0
       173    413.7501    135.3067 300.3030678 +22.5141372     311.3436     70.14756      1.798     3.62    -1.910302     19.77565     40.51398         6     1.006     0.504 -33.00   0
       174    184.9530    124.6080 300.2354037 +22.4424385      2233.14     70.11187      2.060     4.20    -2.038138     19.77565     143.8575        36     1.537     1.410  34.31   0
       175    300.6738    116.7772 300.2739148 +22.4749028     678.4712     70.12972      2.169     6.95    -1.885736     19.77565     41.90711        14     1.393     0.973  48.38   0
       176    746.3544    116.9530 300.4125608 +22.6085692     392.7025     70.11187      1.485     4.38    -2.196614     19.77565     42.90865         5     1.109     0.493 -39.39   0
       177    783.5882    112.1157 300.4257304 +22.6183359     474.1761     70.04044      1.963     5.71    -2.203841     19.77565      29.4479         8     1.303     0.705  52.58   0
       178    804.0266    107.5180 300.4335905 +22.6231381     1293.109     70.07616      2.165     6.16    -2.192582     19.77565     63.18979        30     1.608     1.367 -48.50   0
       179    187.5461    104.0349 300.2428848 +22.4373096     621.0162     70.11187      2.126     3.30    -2.070635     19.77565     57.49389        10     1.091     0.893 -10.19   0
       180    978.7117    101.2147 300.4900875 +22.6736561     476.7622     70.04044      2.189     6.22    -2.115479     19.77565      29.2289         8     1.212     0.896  22.29   0
       181    752.1166    100.0132 300.4198526 +22.6054262     576.6102     70.07616      2.302     7.42      -2.1419     19.77565     33.27557        11     1.383     1.114 -80.59   0
       182    337.0820     90.9443 300.2936173 +22.4784029     366.7265     70.12972      1.886     3.75     -1.92298     19.77565     26.91442         5     1.022     0.395 -31.31   0
       183    605.4516     85.4806 300.3788924 +22.5572944     454.5772     70.09402      2.058     4.92     -1.87345     19.77565     35.44383         6     1.367     0.502 -39.34   0
       184    768.7112     81.0978 300.4311598 +22.6049606     411.0835     70.27233      2.138     5.23    -2.022775     19.77565     28.20764         7     1.552     0.498 -33.04   0
       185    576.6642     78.6687 300.3721407 +22.5467080     1022.877     70.14756      1.997     6.38    -1.905122     19.77565     76.76497        18     1.419     1.071  -9.77   0
       186    299.8919     76.5529 300.2867225 +22.4631160     491.3431     70.11187      2.018     4.19    -2.021298     19.77565     34.11594         6     1.042     0.480   8.12   0
       187     14.6150     75.8054 300.1983229 +22.3773203     398.4112     69.96893      1.622     3.32    -1.837262     19.77565     34.08199         5     1.161     0.275 -34.01   0
       188    534.1425     73.0266 300.3607359 +22.5323404     698.1259     70.09402      2.083     4.65    -2.006848     19.77565      55.2247        11     1.100     0.766 -47.10   0
       189    639.3078     69.3110 300.3946797 +22.5627943     705.3928     70.25452      2.014     5.80    -1.705861     19.77565      47.0208        15     1.402     1.153 -33.21   0
       190    459.8014     63.1687 300.3408003 +22.5072213      1332.23      70.0583      2.240     4.80      -2.0583     19.77565     76.01171        24     1.438     1.267   0.39   0
       191    106.9460     60.9605 300.2318159 +22.4007623     902.8334     70.09402      1.937     5.51    -1.813573     19.77565     60.24061        18     1.341     1.116 -83.47   0
       192    168.1817     42.9364 300.2566883 +22.4139571     714.8825      70.0583      1.881     3.14    -2.190242     19.77565     65.98017        10     0.957     0.694 -58.09   0
       193    647.3322     21.9483 300.4125426 +22.5515849     1560.278     70.09402      2.045     4.90    -1.478811     19.77565     90.69957        28     1.501     1.274 -16.32   0
       194    743.6269     21.6396 300.4426340 +22.5803497     605.2498     70.14756      1.956     6.04    -1.445102     19.77565     45.27817        11     1.091     0.940 -22.63   0
       195    769.2160   1021.0121 300.1257569 +22.8750527     524.6599     66.59669      1.468     3.91    -3.897336     19.77565     53.52066        13     1.183     0.734 -88.25  16
