#   1 NUMBER                 Running object number                                     
#   2 X_IMAGE                Object position along x                                    [pixel]
#   3 Y_IMAGE                Object position along y                                    [pixel]
#   4 ALPHA_J2000            Right ascension of barycenter (J2000)                      [deg]
#   5 DELTA_J2000            Declination of barycenter (J2000)                          [deg]
#   6 FLUX_APER              Flux vector within fixed circular aperture(s)              [count]
#   7 FLUXERR_APER           RMS error vector for aperture flux(es)                     [count]
#   8 FLUX_RADIUS            Fraction-of-light radii                                    [pixel]
#   9 FWHM_IMAGE             FWHM assuming a gaussian core                              [pixel]
#  10 BACKGROUND             Background at centroid position                            [count]
#  11 THRESHOLD              Detection threshold above background                       [count]
#  12 FLUX_MAX               Peak flux above background                                 [count]
#  13 ISOAREA_IMAGE          Isophotal area above Analysis threshold                    [pixel**2]
#  14 A_IMAGE                Profile RMS along major axis                               [pixel]
#  15 B_IMAGE                Profile RMS along minor axis                               [pixel]
#  16 THETA_IMAGE            Position angle (CCW/x)                                     [deg]
#  17 FLAGS                  Extraction flags                                          
         1    644.3408      2.8645 300.4125532 +22.5515135     1431.987     62.26873      1.749     4.18    -2.307348     19.76397     97.68893        26     1.401     1.171   8.86  24
         2    740.6949      2.5286 300.4426731 +22.5802838     555.6494     60.76512      1.703     5.82    -2.364738     19.76397     47.22103        13     1.170     0.881  49.79  24
         3     88.0885   1014.3879 299.9108234 +22.6748081     1664.256     69.99905      6.106    14.56   0.08939376     19.76397     52.57764        45     3.962     1.488  77.65  19
         4     98.9239   1017.1420 299.9132919 +22.6788538     1419.423     70.08827      7.267    12.04     1.128793     19.76397     44.13837        35     2.418     1.670  45.89  19
         5     88.5183   1021.6859 299.9085802 +22.6770275     1926.977     64.24475     10.519    27.17    0.6290283     19.76397     699.4539       163     7.297     2.809  13.68  27
         6     93.6788   1010.3129 299.9138867 +22.6753213     2051.951      70.1952     12.175    23.45    0.4092921     19.76397     51.80059       105     5.242     2.914 -14.79  27
         7    731.4938   1007.5262 300.1131706 +22.8661156      473.769      70.1952      1.791     5.36    -5.382268     19.76397     49.70022         8     1.276     0.635  80.48   0
         8    942.5859   1018.7637 300.1752880 +22.9326955     1198.797      70.0526      1.082     1.95    -5.307889     19.76397     201.8568        13     0.815     0.766 -40.97  16
         9    766.3067   1002.0047 300.1258126 +22.8749821       571.53     69.94546      1.224     2.68    -5.385785     19.76397     87.33905        10     0.876     0.717 -43.45   0
        10    788.4881    995.7001 300.1347760 +22.8798317     6675.747     70.21301      1.135     2.09    -5.389707     19.76397     897.7198        30     1.035     0.963 -46.73   0
        11    979.5466    994.7525 300.1946322 +22.9368954     370.8622     70.08827      1.447     4.36    -5.297569     19.76397     47.31873         7     1.104     0.491 -85.10   0
        12    834.3030    995.2032 300.1492125 +22.8934400     343.6873     69.96333      1.229     3.77    -5.394085     19.76397     46.93537         8     1.045     0.535 -35.34   0
        13     99.8073    987.8407 299.9231080 +22.6707267     295.9893     70.08827      0.960     2.15   -0.7389384     19.76397     63.86607         6     0.707     0.551  44.52   0
        14    797.0233    977.7185 300.1432913 +22.8772350     721.8696      70.0169      1.136     2.21    -5.391312     19.76397      134.135        10     0.816     0.697 -87.91   0
        15    979.8322    976.5956 300.2006346 +22.9317703     281.7383     70.03475      1.340     3.32    -5.295673     19.76397      45.1874         5     0.944     0.365 -84.84   0
        16    649.1889    974.4148 300.0983237 +22.8319102     280.2688     69.96333      1.389     4.47    -5.021462     19.76397     40.48984         6     1.045     0.643  75.78   0
        17    835.1753    970.9975 300.1573674 +22.8867571     511.4243     69.99905      1.408     3.17    -5.368678     19.76397     80.82246         9     0.896     0.870  35.21   0
        18    943.7213    968.3065 300.1920754 +22.9185569     154.8909     70.17739      1.084     3.81    -5.287435     19.76397     38.36468         5     0.952     0.437  83.09   0
        19    883.5977    962.1474 300.1753398 +22.8987490     300.3726     70.03475      0.983     2.97    -5.315607     19.76397     54.66995         7     0.829     0.588  63.49   0
        20    734.9313    961.3877 300.1292669 +22.8539133     442.0227     70.07043      1.012     1.63    -5.374588     19.76397     80.48998         7     0.635     0.607  34.73   0
        21    447.6014    958.1432 300.0408853 +22.7667116     2342.815     69.99905      1.311     2.40    -5.391287     19.76397     337.2951        21     1.094     0.939 -85.53   0
        22    746.2167    958.4582 300.1337360 +22.8564604     440.3897      70.0169      1.409     2.39    -5.382219     19.76397     59.90318         7     0.794     0.586 -76.83   0
        23    225.8326    947.4971 299.9753981 +22.6970408     143.2136     70.03475      1.099     2.83    -3.625884     19.76397     44.95183         5     1.009     0.593  66.80   0
        24    172.8999    943.8446 299.9601391 +22.6800892     403.5293     70.07043      1.217     3.19    -3.570805     19.76397     56.55344        10     0.914     0.711  86.72   0
        25    150.1149    941.0707 299.9539633 +22.6724476     938.4743     70.15958      1.328     2.54     -3.72729     19.76397     141.6768        16     1.059     0.878 -22.26   0
        26     25.0047    931.5142 299.9182172 +22.6321097     382.3972     69.98119      1.922     5.99    -4.669556     19.76397     33.12502         8     1.493     0.675 -86.78   0
        27   1021.4342    929.4517 300.2289594 +22.9307192       1210.2     65.13359      1.108     2.08    -5.311875     19.76397     174.9866        14     0.842     0.808 -53.49  16
        28    975.7816    928.1441 300.2151492 +22.9166489     1212.249     70.03475      1.253     2.21    -5.278571     19.76397     202.4692        17     1.121     0.812 -78.93   0
        29    759.4567    921.8796 300.1497705 +22.8499407     264.0717     70.08827      1.322     3.74    -5.293784     19.76397       43.825         8     0.926     0.735   9.15   0
        30    627.4725    916.1639 300.1105294 +22.8086841     2714.458      70.0169      1.313     2.40    -4.722455     19.76397      360.164        24     1.064     0.992  84.68   0
        31    429.8777    913.4142 300.0499349 +22.7485655     392.6985     70.07043      1.347     2.76    -5.154469     19.76397     48.71996         7     0.841     0.572 -72.17   0
        32    178.0080    910.1807 299.9726855 +22.6719784      776.012      70.0169      1.221     2.17    -4.542568     19.76397     135.6821        10     0.831     0.709  64.71   0
        33    648.0218    908.6586 300.1193706 +22.8127002     329.5185      70.0526      1.185     2.96    -4.786872     19.76397      59.4861         7     0.743     0.640  21.99   0
        34    803.3808    895.7989 300.1719454 +22.8556394     2299.996     69.98119      1.270     2.38    -4.971402     19.76397     287.2148        24     1.068     0.992  55.32   0
        35   1020.4062    895.8477 300.2395798 +22.9207644     496.6916     68.46439      1.012     2.14    -4.970482     19.76397     108.5708         9     0.766     0.671  23.72  16
        36    212.2895    890.2001 299.9898419 +22.6765528     335.2402     69.96333      1.531     2.84    -4.587919     19.76397      44.0471         6     0.713     0.638 -21.55   0
        37    520.7529    888.4595 300.0863315 +22.7686987      321.124     70.10611      1.323     3.38    -4.798703     19.76397     34.77194         5     0.752     0.439 -22.79   0
        38    167.0924    886.6110 299.9769661 +22.6619449      468.582     69.99905      1.203     2.74    -4.624043     19.76397     77.59332        10     0.911     0.672  72.99   0
        39    316.6274    878.6477 300.0260336 +22.7045849     30760.75     70.07043      1.387     2.46    -4.628195     19.76397     3950.322        70     1.281     1.179  85.68   0
        40    574.3574    877.5579 300.1065628 +22.7816659     880.1605     70.15958      1.316     3.04    -4.649243     19.76397      107.931        14     0.968     0.883  -2.08   0
        41    987.0856    876.2560 300.2355671 +22.9051456     377.1956     70.14175      1.194     2.84    -4.760951     19.76397     70.21589         9     0.892     0.655 -21.43   0
        42    603.5922    873.6011 300.1169509 +22.7893073     536.3416     69.87394      1.521     2.94    -4.606178     19.76397      64.7008        10     0.904     0.791 -15.25   0
        43      2.7931    873.2399 299.9302892 +22.6087416     569.0656     61.94672      1.611     2.62    -4.621731     19.76397     66.69131         9     0.880     0.717 -48.65  24
        44    720.0145    868.2330 300.1549493 +22.8227120     334.1737     70.03475      1.248     3.97    -4.576075     19.76397     42.36668         8     0.970     0.619  62.83   0
        45    186.5868    866.9576 299.9894200 +22.6621701     224.9281     70.07043      1.345     4.13     -4.67391     19.76397     28.83301         5     1.119     0.436  25.14   0
        46    757.4500    858.4464 300.1697953 +22.8311384     474.6179     70.08827      1.457     2.99    -4.545049     19.76397     51.09102         9     0.858     0.759  18.35   0
        47    366.2986    855.9008 300.0488819 +22.7129825     17905.49     70.28418      1.420     2.66    -4.500949     19.76397     2103.056        54     1.233     1.181  84.20   0
        48    380.6111    856.5394 300.0531250 +22.7174639     1127.968     69.99905      1.446     2.74    -4.504168     19.76397     138.1085        17     1.030     0.949  70.23   0
        49    889.2296    851.3292 300.2131741 +22.8686357     1615.651      70.0526      1.260     2.34    -4.535347     19.76397     217.0413        17     0.988     0.901  48.23   0
        50    377.4975    850.0107 300.0542815 +22.7146571     238.6746     69.94546      1.199     4.02    -4.488091     19.76397     53.00797         6     0.981     0.472  -9.64   0
        51    647.1487    847.5203 300.1390002 +22.7949003     365.2704      70.0526      1.173     3.03    -4.550326     19.76397     57.58802         8     0.794     0.696 -31.68   0
        52    483.7777    847.6480 300.0881101 +22.7458934     260.5125     70.07043      1.179     4.67    -4.542834     19.76397     35.89798         7     0.890     0.696 -65.42   0
        53    248.8290    847.6735 300.0150391 +22.6753415     468.0312     70.07043      1.203     2.64    -4.601581     19.76397     74.57328         8     0.971     0.487  55.30   0
        54     53.8185    843.1844 299.9559144 +22.6154656     349.1743     70.03475      1.492     5.33    -4.592018     19.76397     32.01393         8     1.122     0.715  73.26   0
        55    494.0745    842.5635 300.0929687 +22.7475268     553.1211     69.99905      1.458     4.80    -4.532772     19.76397     59.75794         9     0.969     0.785  14.37   0
        56    895.2599    838.8706 300.2191088 +22.8668688     215.0938     70.08827      1.125     2.43    -4.504394     19.76397     46.56341         6     0.712     0.576 -36.67   0
        57     82.4624    838.0093 299.9664943 +22.6225900     357.3007     69.99905      2.046     5.50     -4.58793     19.76397     45.21307         7     1.176     0.727  36.44   0
        58    246.3758    832.2148 300.0193074 +22.6701737     355.1718     70.07043      1.227     2.40    -4.561425     19.76397     62.88591         7     0.815     0.595 -61.43   0
        59    569.8627    821.8603 300.1232918 +22.7643411     271.8842     70.08827      1.428     4.48    -4.531991     19.76397     45.90915         6     1.213     0.470 -67.14   0
        60    539.3525    820.2833 300.1143092 +22.7547299     465.7744      70.0526      1.685     5.23    -4.515299     19.76397     43.85689        11     1.147     0.933  68.80   0
        61    955.5371    816.6125 300.2451437 +22.8785604     2664.243     70.03475      1.323     2.30    -4.573744     19.76397     307.2644        27     1.120     1.040 -59.72   0
        62    561.1611    818.0525 300.1218226 +22.7606367     750.4749     70.03475      1.390     3.49    -4.523355     19.76397     89.77498        11     0.900     0.841  71.23   0
        63    943.9996    807.9746 300.2443578 +22.8726200     895.4622     69.99905      1.225     2.20    -4.529925     19.76397     139.0715        13     0.956     0.750  80.36   0
        64    307.1059    802.4200 300.0478810 +22.6798730     445.9538     69.98119      1.292     3.65    -4.453025     19.76397      56.1409         9     0.881     0.785  80.39   0
        65    770.2076    799.4985 300.1929545 +22.8180508     1499.329     69.92758      1.514     2.82    -4.433205     19.76397     139.4561        18     1.043     0.950  64.85   0
        66    975.0787    798.2686 300.2572065 +22.8791549     1020.956     70.15958      1.353     2.92    -4.595123     19.76397     120.1461        15     1.046     0.853 -74.45   0
        67    852.8609    785.2640 300.2233401 +22.8387624     209.3025     70.08827      1.286     4.16    -4.233336     19.76397     40.35961         5     1.018     0.486  61.39   0
        68    156.0960    786.0401 300.0062778 +22.6298198     373.7653     70.03475      1.449     2.62    -4.634098     19.76397     45.84663         8     0.836     0.683 -89.17   0
        69    888.7878    776.3424 300.2374403 +22.8469783     85233.12      70.0169      1.374     2.53    -4.234606     19.76397     9945.502       106     1.291     1.244 -72.55   0
        70    741.3944    776.4807 300.1914689 +22.8027999     408.3373     69.98119      1.431     3.46    -4.286643     19.76397     44.48635         9     0.957     0.684 -52.44   0
        71    921.8007    769.1807 300.2500612 +22.8548243     223.8126     69.98119      1.216     3.07    -4.253859     19.76397     41.41312         5     0.918     0.343  44.57   0
        72    575.1002    765.5067 300.1432593 +22.7497473     968.9911     70.21301      1.459     3.70    -4.384633     19.76397     100.1084        18     1.105     1.045 -11.43   0
        73    756.2911    762.5595 300.2006388 +22.8032742     5347.237      70.0526      1.446     2.87    -4.166003     19.76397     528.4614        34     1.212     1.092 -62.23   0
        74    258.0092    758.1004 300.0470384 +22.6524220     2943.417     69.96333      1.437     2.75    -4.535896     19.76397     304.6371        27     1.182     1.053 -65.79   0
        75    339.8883    756.0418 300.0731633 +22.6764201     584.1703      70.0526      1.400     3.82     -4.21393     19.76397     58.80522        15     1.088     0.968   1.92   0
        76    216.1813    753.9601 300.0353850 +22.6386726      268.787     70.07043      1.199     3.85    -4.607581     19.76397     33.63711         6     0.917     0.465 -56.03   0
        77    548.4056    751.4544 300.1395225 +22.7377038     424.4139      70.0526      1.371     3.54    -4.270272     19.76397     39.95526         8     0.899     0.685  40.56   0
        78    539.7962    743.5050 300.1394293 +22.7328391     1942.806     69.96333      1.605     3.37    -4.220726     19.76397     166.2141        22     1.133     1.071  63.72   0
        79    530.1652    737.3192 300.1384444 +22.7281739     747.8507     69.99905      1.585     3.41    -4.166383     19.76397     81.55377        13     1.142     0.747  71.59   0
        80    923.3405    735.2031 300.2615962 +22.8455308     199.9339      70.0169      1.205     4.84    -4.056777     19.76397      34.0407         6     1.282     0.517 -50.17   0
        81    193.8140    733.9100 300.0349566 +22.6262069     376.9825     69.99905      1.162     2.28    -4.616944     19.76397     62.46636         7     0.815     0.556 -69.36   0
        82    976.7728    728.2373 300.2805214 +22.8595544     537.9012     70.07043      1.666     4.50    -4.466451     19.76397     46.19407         8     0.976     0.591  73.10   0
        83    234.0002    729.0281 300.0490334 +22.6368767     396.6614      70.0169      1.317     4.13    -4.547699     19.76397     43.10231         7     0.883     0.550 -51.16   0
        84    454.9729    727.1315 300.1183621 +22.7026810     1039.355     70.03475      1.555     3.45    -4.037853     19.76397     98.98565        19     1.106     1.073 -52.43   0
        85    109.0058    722.3986 300.0123521 +22.5974335     11316.44     69.87394      1.433     2.73    -4.363286     19.76397     1183.171        49     1.290     1.165 -84.02   0
        86    539.7191    722.7125 300.1461693 +22.7268510     677.4011     70.17739      1.669     4.34    -4.050272     19.76397     60.01305        13     1.205     0.829 -38.83   0
        87     29.8636    724.0170 299.9872461 +22.5741219     423.4769     70.03475      1.331     3.36    -4.194254     19.76397     48.17454         9     0.831     0.722  57.33   0
        88    957.6481    708.1734 300.2810854 +22.8480579     526.7463     70.07043      1.274     3.01    -4.266495     19.76397      82.7493        10     0.906     0.740   8.70   0
        89     54.8974    706.7184 300.0006465 +22.5766851     971.1648      70.1952      1.925     5.39    -4.220726     19.76397     71.18216        22     1.426     1.176 -77.39   0
        90    824.6497    706.1759 300.2402798 +22.8075967     160.0606      70.0526      1.317     4.15    -3.952373     19.76397     33.23543         6     0.783     0.629  46.52   0
        91    503.5048    703.1609 300.1412594 +22.7103725     211.3311     70.03475      1.145     4.21    -3.939825     19.76397     32.46912         6     1.044     0.484  34.21   0
        92    897.7161    701.1807 300.2646764 +22.8280772     457.7379     69.98119      1.441     4.38    -4.053704     19.76397     43.40332        11     1.093     0.726  60.63   0
        93    460.4829    695.5231 300.1303578 +22.6952682     416.2257     70.14175      1.542     3.96    -3.982666     19.76397     32.33363         5     1.071     0.419  16.06   0
        94    625.3125    692.7993 300.1825428 +22.7439546     453.6729     69.94546      1.861     4.40    -3.987338     19.76397     33.09663         6     1.200     0.459 -43.91   0
        95    503.8945    691.2452 300.1452564 +22.7070711     386.0535     70.07043      1.694     4.78    -3.880131     19.76397     36.92801         8     0.918     0.705   4.64   0
        96    937.6000    686.3278 300.2819410 +22.8357728     1915.996     69.92758      1.428     2.89    -4.137645     19.76397     183.2341        21     1.098     0.991 -70.87   0
        97    469.7045    686.7847 300.1360690 +22.6955294     989.6841     69.98119      1.620     3.68    -3.966216     19.76397      91.3401        17     1.200     0.941  57.22   0
        98     31.8050    680.5802 300.0019761 +22.5622568      2851.14     70.03475      1.433     2.58    -4.201667     19.76397     330.9883        27     1.135     1.070 -75.77   0
        99    333.0993    673.4390 300.0979208 +22.6506938     5192.242     70.07043      1.609     3.27    -3.969001     19.76397     487.9195        34     1.338     1.176 -85.08   0
       100    455.4822    670.4182 300.1369671 +22.6865655     5102.527      70.0169      1.669     3.32    -3.928939     19.76397     473.7202        40     1.366     1.253 -88.14   0
       101    866.9035    664.0609 300.2671462 +22.8081781     988.4037     70.14175      1.485     3.43    -3.954829     19.76397     105.3854        18     1.194     0.982 -78.41   0
       102    951.6034    661.3767 300.2944223 +22.8328065     7211.426      70.0169      1.449     2.70    -4.103213     19.76397     706.8116        40     1.242     1.120 -49.64   0
       103    515.9919    660.0436 300.1591686 +22.7017499     6596.284     70.07043      1.635     3.34    -3.664876     19.76397     524.7115        40     1.304     1.282 -12.11   0
       104    243.7579    655.7598 300.0758957 +22.6187993     783.5398     70.14175      1.495     3.54    -3.998408     19.76397     75.89106        13     0.980     0.937  89.89   0
       105    447.6358    648.1560 300.1417659 +22.6778239     2487.868     70.10611      1.671     3.51    -3.854852     19.76397     195.5576        31     1.304     1.230  34.25   0
       106    790.6058    647.6653 300.2487028 +22.7805878     405.4887     70.03475      1.552     6.21    -3.749479     19.76397     36.28264        12     1.164     0.931 -41.76   0
       107    425.9853    646.7493 300.1354882 +22.6709219     787.8612      70.0526      1.772     4.23    -3.917392     19.76397     76.01882        16     1.208     0.973 -38.90   0
       108    180.4212    646.2075 300.0593183 +22.5970412     416.1654     70.03475      1.433     4.19     -3.99937     19.76397     44.87962         6     0.755     0.662 -50.00   0
       109    867.2673    643.4087 300.2739762 +22.8023572     907.3899      70.0526      1.528     3.30    -3.853867     19.76397     79.60832        16     1.069     0.923 -25.44   0
       110    564.3024    635.6751 300.1821285 +22.7092550     117384.6      70.1952      1.704     3.50    -3.543155     19.76397     10121.17       145     1.525     1.497 -58.47   0
       111    748.0408    640.5281 300.2377633 +22.7657716     452.0566     70.03475      1.489     2.62    -3.691927     19.76397     53.12219         6     0.778     0.488 -10.19   0
       112    250.4269    635.9724 300.0844029 +22.6151275     1991.277      70.0169      1.600     3.15    -3.979068     19.76397     214.4403        25     1.221     1.115  89.32   0
       113    299.6625    619.1554 300.1051765 +22.6250867     307.4448     70.07043      1.385     4.11    -4.028874     19.76397      29.3811         6     1.185     0.407 -55.86   0
       114    454.8167    616.2576 300.1543722 +22.6708275     1611.853     70.03475      1.818     4.20    -3.697451     19.76397      128.096        24     1.342     1.217 -28.84   0
       115    851.7717    602.0197 300.2826057 +22.7858252     879.3312      70.0526      1.529     3.26    -3.654642     19.76397     80.26069        15     1.072     0.897  84.19   0
       116    723.0284    599.8533 300.2431984 +22.7465920     1305.688     70.07043      1.568     3.44    -3.504615     19.76397     105.5854        22     1.189     1.064   6.68   0
       117    510.7924    595.9705 300.1783850 +22.6818046      474.583      70.0526      1.779     4.69    -3.455164     19.76397     42.61409         8     1.155     0.564  79.75   0
       118    852.2501    592.4851 300.2858549 +22.7832306     1301.578     70.03475      1.787     4.15    -3.616733     19.76397     107.7701        20     1.389     0.923  64.69   0
       119    980.0844    593.4880 300.3253797 +22.8218464     729.8387     70.17739      1.522     3.07    -3.628123     19.76397     81.00288        11     0.891     0.828  -7.91   0
       120    965.7989    592.3900 300.3212823 +22.8172484     551.8907     69.87394      1.755     4.28    -3.638597     19.76397     52.27407        10     1.026     0.819  79.08   0
       121    605.6809    590.8121 300.2095964 +22.7087948     376.8852     70.03475      1.751     5.42    -3.420223     19.76397     29.79021         6     1.257     0.659 -54.83   0
       122    890.0922    587.0973 300.2994012 +22.7930303     2439.971      70.2308      1.474     3.03    -3.631723     19.76397     223.2392        22     1.106     1.072 -40.82   0
       123    122.5485    578.1033 300.0634797 +22.5601353     533.9891     70.12393      1.366     3.43    -3.741747     19.76397     82.76671        15     1.237     0.824 -61.75   0
       124    981.8824    577.6580 300.3310873 +22.8178382     401.1459     70.12393      1.586     5.25    -3.481428     19.76397     36.71257         8     0.989     0.788 -78.95   0
       125    663.5654    558.2136 300.2382169 +22.7168020     463.5211      70.0526      1.603     3.97    -3.188002     19.76397     48.11212         9     1.003     0.900  -7.03   0
       126    977.8251    549.6906 300.3389145 +22.8085877     307.3505     69.99905      1.478     5.85    -3.232333     19.76397     43.77012         9     1.229     0.783  17.28   0
       127    724.4340    549.8229 300.2599014 +22.7326497     408.6367     70.07043      1.840     6.04    -3.313138     19.76397     41.49004        10     1.147     0.896 -12.01   0
       128    881.6877    546.3031 300.3100439 +22.7787939     492.0299      70.2308      1.505     4.90    -3.462623     19.76397     51.35961         9     1.119     0.795  27.54   0
       129    865.5583    542.5725 300.3062294 +22.7728864     313.4512     70.07043      1.551     3.76    -3.451391     19.76397     41.23357         6     0.945     0.429 -72.74   0
       130    610.1413    540.5868 300.2273126 +22.6957164     1871.461     70.03475      1.809     3.82       -3.151     19.76397     141.6131        27     1.282     1.258 -38.06   0
       131    970.6982    539.2275 300.3400935 +22.8034455     332.9189     69.99905      1.640     4.58    -3.203088     19.76397     33.45677         5     0.843     0.707  15.35   0
       132    893.6602    519.3010 300.3225530 +22.7746273     433.7401     70.14175      1.907     7.10     -3.29816     19.76397     46.29152        10     1.472     0.958 -66.40   0
       133   1021.2924    519.0762 300.3624217 +22.8128208     738.4409     65.74483      1.395     3.19    -2.976212     19.76397     79.60168        13     1.072     0.779 -43.82  16
       134    979.9389    518.0349 300.3498637 +22.8001269     529.6953     70.07043      1.445     3.35    -3.103887     19.76397     59.89554        10     0.909     0.785 -43.02   0
       135    720.8670    514.4044 300.2703031 +22.7214102     645.9625     70.03475      1.615     4.60    -3.200935     19.76397      59.8518        14     1.132     0.895 -19.00   0
       136    225.5872    512.6694 300.1167652 +22.5723068     251.1256     70.07043      1.109     3.37    -3.015396     19.76397     37.47751         5     0.966     0.341 -66.87   0
       137    287.3365    508.9124 300.1371807 +22.5897644     2115.668     70.15958      1.688     3.07    -3.165504     19.76397     244.5769        28     1.349     1.154  75.51   0
       138   1020.1031    506.6245 300.3660981 +22.8088866     2440.384     69.08234      1.503     2.92    -2.987804     19.76397     267.6554        22     1.088     1.070  -1.80  16
       139    234.4823    503.4833 300.1225152 +22.5723420      4319.78     70.17739      1.707     3.17    -2.999416     19.76397     434.0202        38     1.390     1.261  88.74   0
       140    375.3366    497.6930 300.1681904 +22.6129563     2814.378     70.15958      1.788     3.45    -3.025017     19.76397     261.3748        32     1.311     1.291 -28.04   0
       141   1000.0845    497.7310 300.3627454 +22.8003314     1049.282     70.14175      1.424     2.76    -3.022554     19.76397     133.0417        16     1.038     0.916  51.91   0
       142    619.3307    494.1960 300.2452517 +22.6851553     10586.72      70.0169      1.794     3.95    -3.101629     19.76397     747.8511        53     1.443     1.393 -85.51   0
       143    637.3249    494.2322 300.2508424 +22.6905628     545.3848      70.0526      2.327     5.41    -3.098057     19.76397      43.3307         9     1.172     0.704 -50.00   0
       144    952.4666    476.8906 300.3546701 +22.7800715     393.9618     70.15958      1.437     5.34    -3.012263     19.76397     40.47122        11     1.145     0.807 -72.00   0
       145    174.2743    474.5673 300.1132005 +22.5459742     1084.712      70.0526      1.608     3.49    -2.909468     19.76397     125.0279        17     1.160     0.953  -3.59   0
       146    559.8333    463.6116 300.2366690 +22.6585286     3801.888     70.03475      1.826     3.83    -2.917484     19.76397     287.0208        37     1.493     1.307  70.53   0
       147    973.5753    463.6199 300.3655646 +22.7825852     630.7788     70.07043      1.515     3.74    -3.032508     19.76397     73.00301        12     1.062     0.902  80.59   0
       148    275.3997    462.5561 300.1485337 +22.5728828     318.3355      70.0526      1.474     5.33    -2.886274     19.76397     43.87063         7     1.117     0.719 -64.38   0
       149    132.7546    456.4473 300.1061876 +22.5283127      311.652     70.07043      1.695     4.62    -2.933583     19.76397     36.10988         5     0.807     0.750  55.77   0
       150    763.8259    452.8076 300.3037032 +22.7166028     715.7621     70.03475      1.850     5.06    -3.063824     19.76397     56.72316        16     1.304     0.926 -17.35   0
       151    466.5955    450.0046 300.2120749 +22.6266529      3400.59     69.90971      1.798     3.85    -2.617565     19.76397     265.9384        34     1.385     1.297 -79.97   0
       152    858.4798    444.0775 300.3360344 +22.7424722     871.4368     70.15958      1.701     4.27    -3.103772     19.76397     70.22192        19     1.261     1.017  76.05   0
       153    955.7195    444.1972 300.3663084 +22.7716529     349.2448     69.96333      1.530     4.15    -3.063653     19.76397     55.73141         7     1.237     0.736  -5.43   0
       154    354.3360    429.3279 300.1838734 +22.5870370     1376.111     70.08827      1.779     3.72    -2.500718     19.76397     145.3715        23     1.292     1.161  43.90   0
       155     73.2008    427.2751 300.0971655 +22.5020670     448.4697     69.94546      1.409     2.78    -2.865398     19.76397     61.27541         8     0.954     0.567 -71.16   0
       156    323.4831    418.7690 300.1777097 +22.5747490     16682.17      70.0526      1.781     3.67    -2.616826     19.76397     1410.071        61     1.500     1.405  79.23   0
       157    857.9398    415.8762 300.3450292 +22.7342086     717.8285     70.10611      1.732     5.50    -3.104004     19.76397     54.56589        17     1.193     1.097 -52.18   0
       158     19.9150    406.8711 300.0872450 +22.4802173     2831.467     70.15958      1.562     3.13    -2.733913     19.76397     284.2531        30     1.247     1.184 -78.82   0
       159    733.9517    398.2092 300.3121360 +22.6919642     1084.643     70.07043      1.813     4.67    -3.118986     19.76397     73.15504        19     1.187     1.134 -33.95   0
       160    948.5997    390.4637 300.3815467 +22.7540788     287.7665     70.03475      1.520     5.00    -3.115638     19.76397     31.12352         8     0.998     0.709 -89.54   0
       161    395.5017    383.4674 300.2115747 +22.5862264     1125.039     70.14175      1.992     4.94    -2.416549     19.76397     76.91325        25     1.404     1.254   2.78   0
       162    834.9243    375.8107 300.3508724 +22.7157991     358.1035     70.07043      1.600     5.47    -3.096884     19.76397     33.47723         6     1.157     0.901 -44.78   0
       163    471.5832    362.5906 300.2420244 +22.6030565     593.5322     69.99905      1.753     4.88    -2.351688     19.76397     57.67739        15     1.344     1.069 -88.46   0
       164    716.2299    354.1810 300.3209178 +22.6740047     1335.348      70.0526      1.891     4.18    -3.120601     19.76397     101.5024        24     1.347     1.185  40.93   0
       165    977.5344    348.3080 300.4042627 +22.7506342     1874.927     70.17739      1.605     3.17    -3.145513     19.76397     160.7587        23     1.183     1.098  60.76   0
       166     99.6956    332.8005 300.1360811 +22.4829222     740.7154     69.92758      1.817     4.52    -2.776536     19.76397     65.69585        16     1.401     0.811 -58.61   0
       167    130.4838    332.8203 300.1456394 +22.4921688     353.8464     69.99905      1.655     3.82    -2.862475     19.76397       36.855         5     0.899     0.534  39.28   0
       168    992.7424    327.7714 300.4156755 +22.7492881     271.2566      70.0526      1.598     5.05    -3.153328     19.76397     30.17832         7     1.035     0.697 -74.85   0
       169    184.1053    324.5415 300.1649893 +22.5058861       443.32     70.12393      1.903     3.53    -2.828187     19.76397     40.60783         6     0.951     0.703 -56.07   0
       170    788.4601    315.8509 300.3558685 +22.6846452     361.2904     70.10611      1.537     3.41    -2.763881     19.76397     39.15169         5     0.973     0.345  -5.61   0
       171    885.8916    304.4143 300.3899467 +22.7105587     1073.031     69.98119      1.613     3.69    -3.079648     19.76397     105.0981        18     1.249     0.938   3.63   0
       172    304.7430    302.3972 300.2096794 +22.5357290      1149.43      70.0169      1.753     4.26     -2.50441     19.76397     96.78529        19     1.224     1.134 -76.15   0
       173    382.9398    297.6512 300.2355379 +22.5578247     595.8593     70.10611      1.790     5.06    -2.393468     19.76397     57.82162         9     1.220     0.593 -33.83   0
       174    784.6917    296.2055 300.3610741 +22.6778712     279.4629     69.96333      1.479     4.67    -2.567461     19.76397     32.60784         6     1.347     0.460  88.28   0
       175    199.9858    289.9413 300.1811596 +22.5007232      468.144     70.03475      1.535     4.01    -2.723543     19.76397     46.54956         7     0.930     0.496 -44.56   0
       176    737.1734    285.9185 300.3496105 +22.6606730     949.7034     70.03475      1.908     4.81    -2.440038     19.76397     72.55975        20     1.287     1.195 -42.64   0
       177    802.6823    286.0145 300.3699890 +22.6803350     263.6805     70.03475      1.240     4.22    -2.527408     19.76397     35.15755         6     0.891     0.576   0.57   0
       178    221.7709    283.2665 300.1900976 +22.5053444     268.3007      70.0526      1.194     3.77     -2.54063     19.76397     28.60283         5     0.919     0.444 -45.83   0
       179   1008.5890    278.2804 300.4366897 +22.7398091     435.7724     70.03475      1.608     4.20     -3.17233     19.76397     55.30198         8     1.027     0.726  88.93   0
       180    661.9462    276.7583 300.3291545 +22.6354912     689.8437      70.0526      1.909     5.73    -2.358732     19.76397     57.49147        12     1.268     0.841  32.90   0
       181    857.1343    268.3138 300.3927058 +22.6915666     835.4199     70.14175      1.754     3.48    -2.815279     19.76397     69.14386        15     1.136     0.960 -42.99   0
       182    588.3344    268.8215 300.3088116 +22.6111425     440.5486     70.03475      1.605     5.66    -2.393501     19.76397      37.7759         9     1.090     0.828 -26.47   0
       183    869.3544    267.4713 300.3967882 +22.6949862     406.8526     70.03475      1.430     3.76    -2.864238     19.76397     51.91917         9     1.025     0.653   4.12   0
       184    985.6242    257.3399 300.4363272 +22.7269097     661.6302     70.03475      1.626     5.26    -3.122186     19.76397     60.02958        13     1.068     0.906 -79.19   0
       185      9.9509    254.9312 300.1334906 +22.4336471     178.3591      70.0526      1.070     3.75    -2.278178     19.76397     33.36754         5     0.659     0.613  -3.31   0
       186    220.5849    251.7246 300.1999693 +22.4959364      429.894      70.0526      1.668     4.06    -2.526519     19.76397     42.46584         7     1.186     0.445 -49.32   0
       187     81.9324    245.8142 300.1588060 +22.4526353     1166.019      70.0526      1.611     3.39    -2.634889     19.76397      129.112        19     1.160     1.033 -31.98   0
       188    905.3915    242.4210 300.4161548 +22.6985842     438.7888     70.03475      1.659     4.84    -2.759951     19.76397     46.79439         9     1.043     0.646 -58.57   0
       189    239.3566    239.1626 300.2098821 +22.4979629     3189.528     70.12393      1.737     3.38    -2.509147     19.76397     293.2478        33     1.319     1.270 -76.97   0
       190     23.4813    233.7915 300.1445546 +22.4316437     570.0723     69.99905      1.430     4.91    -2.382172     19.76397     79.31268        10     1.134     0.714  13.10   0
       191    222.8817    230.3255 300.2076299 +22.4904839     312.5673     70.15958      1.442     4.86    -2.509613     19.76397     33.34956         7     1.201     0.557 -54.85   0
       192    986.8239    218.9285 300.4491720 +22.7162262     1563.143     70.08827      1.565     3.51    -3.042347     19.76397     124.1696        20     1.189     1.003 -82.04   0
       193    883.2271    220.1069 300.4164897 +22.6855296       1997.3     69.99905      1.693     3.76    -2.542112     19.76397     183.8958        27     1.331     1.175 -49.08   0
       194    123.4662    204.8208 300.1850149 +22.4533361     386.4135     70.03475      1.443     5.65    -2.363055     19.76397      32.9782         8     1.638     0.548 -75.64   2
       195    483.9327    202.7308 300.2977728 +22.5608579     946.3732     70.10611      1.934     5.25    -2.236544     19.76397     77.84247        18     1.501     1.190  77.53   0
       196    228.1692    198.2529 300.2196837 +22.4828645     285.4595     70.07043      1.418     3.69    -2.277231     19.76397     36.30984         5     0.894     0.438  47.28   0
       197    258.2048    182.9476 300.2339877 +22.4874811     3279.148      70.0526      1.746     3.66    -2.149587     19.76397     280.2103        31     1.365     1.245  88.92   0
       198    504.1607    168.1855 300.3152797 +22.5570009     3525.769     70.07043      1.842     3.81    -1.995737     19.76397     263.7513        37     1.418     1.353 -56.67   0
       199    390.4104    168.1752 300.2798924 +22.5228908     288.6755      70.0526      1.613     4.39    -1.964713     19.76397     41.75308         6     0.860     0.638  61.59   0
       200    756.7880    158.2896 300.3971527 +22.6298774     474.2532     69.99905      1.759     6.28    -2.206507     19.76397      30.7321         9     1.426     0.776  23.59   0
       201    632.4711    148.0986 300.3617402 +22.5896931     3479.194      70.1952      1.818     3.81    -1.981871     19.76397     292.1626        34     1.368     1.333  31.75   0
       202    407.5260    147.4833 300.2919313 +22.5220810     711.4919     70.15958      1.670     4.48     -1.87597     19.76397      70.4271        13     1.088     1.066  69.81   0
       203    673.4333    145.8210 300.3752351 +22.6013153      390.094      70.0526      1.520     4.76    -2.045367     19.76397     44.68742         8     1.310     0.733 -13.84   0
       204    156.4068    139.7698 300.2163607 +22.4445497     421.3884      70.0526      1.583     4.67    -1.994189     19.76397     36.50189         7     0.989     0.682  -2.61   0
       205    676.6586    133.0220 300.3803930 +22.5986040     1588.574      70.0526      1.772     4.09    -2.023713     19.76397     130.6724        24     1.289     1.229  49.62   0
       206    691.2176    131.0442 300.3855691 +22.6023986     481.6614     70.07043      1.638     4.89    -2.036374     19.76397     39.78119         9     1.362     0.747   3.38   0
       207    763.2261    124.6318 300.4100810 +22.6221329     927.8762      70.0526      1.819     4.59    -2.127201     19.76397     74.13918        18     1.289     1.016  18.66   0
       208    701.1456    117.8487 300.3929432 +22.6015816      390.927     70.08827      1.640     5.26    -2.020668     19.76397     32.05929         6     1.296     0.602  13.22   0
       209    506.8838    117.2844 300.3326448 +22.5431960     648.7028     70.17739      1.968     4.52    -1.891281     19.76397      46.3639        12     1.146     0.971 -71.74   0
       210     80.0101    117.2041 300.1999473 +22.4151532     310.6746     69.89182      1.620     5.69    -1.830332     19.76397     29.55954         7     1.213     0.753  86.02   0
       211    410.9668    115.8870 300.3032543 +22.5140385     450.9097      70.0169      1.770     4.00    -1.867923     19.76397     39.77113         6     1.024     0.447 -49.18   0
       212    182.0372    105.3604 300.2354898 +22.4423610     2264.585     70.12393      1.776     3.55    -1.960933     19.76397     183.2247        30     1.358     1.235  89.92   0
       213    750.2740    105.9892 300.4120950 +22.6128939     431.2247     70.07043      1.685     2.63    -2.053689     19.76397     36.77011         5     0.774     0.481  30.18   0
       214    743.2391     98.0256 300.4124873 +22.6084971     585.5862     70.07043      1.774     4.75    -2.024561     19.76397      50.5538         7     0.861     0.742  34.60   0
       215    298.2512     97.9746 300.2740110 +22.4750957      752.378     70.07043      1.770     3.58     -1.94298     19.76397     62.36197        11     1.130     0.616 -28.11   0
       216    781.1054     92.0771 300.4262147 +22.6181323     411.5831     70.15958      2.046     4.74    -2.068303     19.76397     35.63693         5     1.255     0.507 -23.91   0
       217    801.2382     89.0024 300.4334856 +22.6232799     1125.062     70.07043      1.678     3.63    -2.078525     19.76397     104.4379        22     1.204     1.155 -57.65   0
       218    183.9162     85.1313 300.2426366 +22.4371174     535.9351     70.15958      1.565     5.30     -1.98184     19.76397     60.80955        13     1.227     0.867  -1.99   0
       219    975.9474     81.8394 300.4902709 +22.6735498     373.9775     70.03475      1.427     3.78    -1.977133     19.76397     41.84058         6     1.036     0.552  21.96   0
       220    749.1241     81.6429 300.4196360 +22.6055514     531.7817     70.03475      1.666     4.70    -2.073799     19.76397     56.93555         9     1.386     0.473   3.30   0
       221    602.1110     66.0459 300.3789104 +22.5570171     492.3882      70.0526      1.647     6.02    -1.996211     19.76397     42.89508         9     1.298     0.786  73.35   0
       222    765.5856     61.2400 300.4313837 +22.6046183     439.0442     70.07043      1.842     4.48    -2.102384     19.76397     35.57501         7     0.918     0.620 -10.36   0
       223    573.6133     59.3417 300.3722133 +22.5465501     1071.374      70.0169      1.859     4.18    -1.939018     19.76397     95.74133        19     1.207     1.156  62.71   0
       224    296.8432     57.4669 300.2867142 +22.4630414     306.0297     70.03475      1.668     5.39    -2.009243     19.76397     26.07422         8     0.955     0.859 -26.22   0
       225     11.4619     55.5746 300.1986501 +22.3768997     253.2427      70.0526      1.102     4.04    -1.320677     19.76397     43.15082         6     0.989     0.473  55.34   0
       226    531.0321     53.6564 300.3608032 +22.5321545     755.3738     70.07043      1.755     4.19    -1.892774     19.76397     57.93457        17     1.231     1.021 -38.86   0
       227    636.5366     49.5420 300.3949830 +22.5625906     769.6714     70.10611      1.729     4.64    -2.109935     19.76397     69.31304        20     1.275     1.144  70.29   0
       228    456.8725     44.0278 300.3408484 +22.5071597     1154.328      70.0526      1.694     4.19    -2.022107     19.76397     108.7494        20     1.230     1.159 -68.06   0
       229    104.1500     41.9402 300.2318618 +22.4007923     834.8881     70.10611      1.561     4.05    -1.410681     19.76397     83.35178        19     1.173     1.110  84.60   0
       230    165.2581     23.2984 300.2568949 +22.4137693     627.2816     70.14175      1.694     5.06    -2.118832     19.76397      52.5998        15     1.242     0.968 -81.87   0
       231    592.2181   1016.1957 300.0669812 +22.8267855     140.4587     69.99905      0.917     3.57    -4.856253     19.76397     40.93419         5     0.922     0.399  44.45   0
