#   1 NUMBER                 Running object number                                     
#   2 X_IMAGE                Object position along x                                    [pixel]
#   3 Y_IMAGE                Object position along y                                    [pixel]
#   4 ALPHA_J2000            Right ascension of barycenter (J2000)                      [deg]
#   5 DELTA_J2000            Declination of barycenter (J2000)                          [deg]
#   6 FLUX_APER              Flux vector within fixed circular aperture(s)              [count]
#   7 FLUXERR_APER           RMS error vector for aperture flux(es)                     [count]
#   8 FLUX_RADIUS            Fraction-of-light radii                                    [pixel]
#   9 FWHM_IMAGE             FWHM assuming a gaussian core                              [pixel]
#  10 BACKGROUND             Background at centroid position                            [count]
#  11 THRESHOLD              Detection threshold above background                       [count]
#  12 FLUX_MAX               Peak flux above background                                 [count]
#  13 ISOAREA_IMAGE          Isophotal area above Analysis threshold                    [pixel**2]
#  14 A_IMAGE                Profile RMS along major axis                               [pixel]
#  15 B_IMAGE                Profile RMS along minor axis                               [pixel]
#  16 THETA_IMAGE            Position angle (CCW/x)                                     [deg]
#  17 FLAGS                  Extraction flags                                          
         1    567.0146     13.4989 300.3722917 +22.5466154     1089.812     69.95937      1.456     3.15    -1.920777     19.76285     124.9363        18     1.204     0.928  81.46   0
         2    289.8824     11.2307 300.2868134 +22.4629140     461.6294     70.04865      1.448     4.99    -2.063251     19.76285     42.69722         8     1.163     0.606  89.05   0
         3      4.4523      9.8626 300.1985703 +22.3769378      518.072     68.14946      1.533     3.12    -2.138246     19.76285     55.64487         9     0.916     0.681  67.48  16
         4    524.2935      7.6613 300.3608877 +22.5321388     802.6002     70.13779      1.514     3.08    -1.813151     19.76285      82.4636        14     1.042     0.832  43.81   0
         5    629.6338      4.2134 300.3947975 +22.5627064      874.412     67.39335      1.533     3.64     -1.98453     19.76285     87.37857        15     1.084     1.002 -83.66  24
         6    224.6138      2.9110 300.2692215 +22.4409595     311.7916     62.40556      1.523     5.08    -1.859042     19.76285      30.8951         7     0.922     0.793 -38.68  16
         7    273.7489      1.5460 300.2849378 +22.4552971     308.9771     55.69619      1.435     4.21    -2.016113     19.76285     37.38436         5     0.872     0.579 -51.12  24
         8    535.9661   1003.6520 300.0408802 +22.8214488     207.8466     70.06648      0.957     2.43     -5.39377     19.76285     54.77074         5     0.708     0.444  18.24   0
         9    241.9762   1020.4376 299.9439903 +22.7379652     3678.748     68.36918     10.480    31.86      1.52417     19.76285     96.09839       231     7.797     3.614  40.87  26
        10     80.8151    978.8629 299.9074593 +22.6776364     2267.617     70.01295     18.630    41.10     4.478006     19.76285     70.39461       333    11.479     4.084 -30.65  19
        11    656.4709   1009.4856 300.0764892 +22.8592966     4029.716     70.15562      1.092     1.99    -5.215854     19.76285     592.3426        19     0.939     0.837  74.84   0
        12    564.8950   1000.4208 300.0509350 +22.8292077     914.4542     69.95937      1.110     1.97    -5.416362     19.76285     171.1233        13     0.947     0.700 -31.01   0
        13    458.7453    996.9744 300.0190291 +22.7963489     585.2477     70.08432      1.127     2.44     -5.21871     19.76285     107.0157         9     0.852     0.645 -88.04   0
        14    742.4680    997.2399 300.1072566 +22.8815960     182.6488     70.01295      1.105     3.38    -5.102161     19.76285     32.47448         5     0.738     0.448  67.97   0
        15    389.4666    994.8431 299.9981755 +22.7749340     3832.738      70.0308      1.077     1.83    -5.221431     19.76285     652.6335        22     0.917     0.852  54.07   0
        16    113.9962    989.6252 299.9142608 +22.6906888     964.8508     70.01295      8.996     8.81     9.379741     19.76285     43.45012        12     2.050     1.057  32.41   3
        17    115.4893    995.0237 299.9129670 +22.6926834     1272.831     69.97723      5.332     5.65     10.37228     19.76285     41.12397        12     1.187     0.987  -5.83   3
        18    233.3828   1022.9205 299.9405112 +22.7360947     1880.904     58.49804      8.735    17.29      2.84436     19.76285      72.5183        70     4.493     1.848  17.08  27
        19    105.2775    983.9191 299.9134105 +22.6864349     877.2272     70.15562      3.946     4.35      8.16245     19.76285     33.99338         5     1.093     0.492 -34.99   0
        20    422.0497    981.6984 300.0125887 +22.7809520     254.1368     70.11997      1.099     2.30    -5.222322     19.76285     53.38568         5     0.753     0.473  63.01   0
        21    106.2811    977.7197 299.9157405 +22.6849610     696.4426     70.17342      5.026     5.20     6.958374     19.76285      32.5701         5     1.379     0.554  51.68   0
        22     88.7685   1013.8942 299.8985239 +22.6900578     3348.335     69.97723     23.995    56.81     12.16103     19.76285     69.47876       769    14.938     5.995  -2.08  27
        23    935.6033    973.1993 300.1752648 +22.9326481     1248.078     69.83421      1.039     1.71    -5.108874     19.76285     248.7423        15     0.941     0.801  70.86   0
        24    585.5625    970.7018 300.0670439 +22.8268926     351.9765     70.04865      1.207     2.24    -5.381097     19.76285      48.5512         5     0.680     0.459  67.96   0
        25    724.7090    962.3397 300.1130891 +22.8662581     448.3907     70.13779      1.514     4.94    -5.114974     19.76285     59.91433         9     1.366     0.506  66.35   0
        26     77.0968    969.1484 299.9094670 +22.6737372     2075.658     70.11997     13.868    27.31     2.332931     19.76285      49.7789       159     7.268     2.850 -37.67   3
        27    759.3356    956.4565 300.1257895 +22.8749617     548.6588     70.10215      0.975     1.97    -5.118309     19.76285     125.1343         9     0.838     0.567  80.33   0
        28    781.5043    950.1470 300.1347493 +22.8798039     6622.113     70.11997      1.029     1.79    -5.140156     19.76285     1225.445        26     0.918     0.842 -88.80   0
        29    826.9335    950.0237 300.1489429 +22.8933990     317.0277      70.0308      1.176     2.17    -5.140004     19.76285      59.0403         6     0.731     0.629 -85.21   0
        30    914.2032    943.5494 300.1782476 +22.9177220     237.3839     70.04865      0.949     2.81    -5.113591     19.76285     37.35511         5     0.718     0.461 -19.96   0
        31     92.8702    942.2280 299.9231289 +22.6707671     326.1153      70.0308      1.141     2.16   -0.6770888     19.76285     64.09636         6     0.734     0.519 -43.85   0
        32    833.2203    937.4690 300.1549891 +22.8916837     170.6637      70.0308      0.870     2.68    -5.135804     19.76285     51.18782         5     0.712     0.469  18.49   0
        33    790.1163    932.4860 300.1431817 +22.8773222     746.0782     70.15562      1.027     1.88    -5.147755     19.76285     186.3816        10     0.923     0.605  70.48   0
        34    642.4200    929.3854 300.0981938 +22.8321124     278.4924      70.0308      0.889     2.44    -5.283933     19.76285     63.71806         5     0.809     0.481   6.59   0
        35    828.0957    925.6617 300.1572361 +22.8867592     534.2081     70.13779      1.069     2.10    -5.124151     19.76285     95.79269         8     0.744     0.646  87.93   0
        36    876.7316    916.7875 300.1752807 +22.8988036     417.3232     70.06648      1.224     4.07    -5.073498     19.76285      64.2626         8     1.064     0.593 -45.73   0
        37    727.9746    915.8510 300.1292403 +22.8539053     407.9464     70.06648      1.065     1.94    -5.045348     19.76285     106.5534         8     0.787     0.581  49.41   0
        38    739.2516    913.1050 300.1336464 +22.8565015      330.519     70.11997      1.200     2.24     -5.00104     19.76285     72.91472         8     0.810     0.622 -82.41   0
        39    440.6546    912.5547 300.0408843 +22.7667214     2448.908     70.08432      1.101     1.92    -5.223019     19.76285     386.0898        21     0.933     0.871  72.04   0
        40    219.0128    901.6186 299.9755344 +22.6970290      312.909     70.01295      1.217     4.38    -4.279889     19.76285      35.0578         5     0.991     0.551  72.58   0
        41    102.6324    900.8402 299.9396316 +22.6618460     259.0324     70.10215      1.090     3.44    -3.690757     19.76285     44.81578         5     1.125     0.303 -10.94   0
        42    165.8684    898.2534 299.9601168 +22.6801017     561.8908     70.06648      1.267     2.43    -3.169747     19.76285     80.86903         9     0.843     0.668  72.26   0
        43     74.3411    896.7336 299.9321815 +22.6521701     244.0078     70.08432      0.899     2.32    -4.189068     19.76285     57.50365         5     0.728     0.427 -69.48   0
        44    142.8976    895.5234 299.9538691 +22.6724193     891.1491     70.19123      1.118     2.07    -3.354277     19.76285     157.9952        13     0.937     0.788 -67.93   0
        45    770.0128    891.7839 300.1501681 +22.8596152     344.4892     69.99509      1.444     3.84    -4.899942     19.76285     26.45423         5     1.267     0.334  64.40   0
        46   1014.6331    883.9272 300.2289673 +22.9307332     1181.862     70.04865      0.982     1.65    -4.678489     19.76285     271.9546        11     0.752     0.685  47.11   0
        47    968.7841    882.5049 300.2151340 +22.9165759     1121.566     69.97723      0.999     1.70    -4.837153     19.76285     230.8143        11     0.772     0.695  67.14   0
        48    752.4449    876.4138 300.1496983 +22.8499355     369.8313     70.06648      1.136     2.32    -4.785198     19.76285     62.66319         5     0.657     0.484  75.11   0
        49    620.4324    870.5150 300.1105101 +22.8086318     2865.254     70.01295      1.054     1.93    -5.226787     19.76285     460.6897        19     0.976     0.803  60.58   0
        50    109.9125    871.2354 299.9515270 +22.6555529     293.9806      70.0308      1.098     4.15    -4.438443     19.76285     40.56171         6     1.118     0.439  29.26   0
        51    422.6299    867.3922 300.0499763 +22.7483643     383.1281     70.04865      1.241     2.40    -5.130795     19.76285     60.49164         7     0.875     0.466  80.07   0
        52    170.8380    864.4498 299.9726614 +22.6719101     891.5468     70.06648      1.185     2.10    -4.441968     19.76285     149.9042        13     1.021     0.696  68.83   0
        53    641.1542    863.1876 300.1193458 +22.8127488      345.943     70.04865      1.136     2.22    -5.179411     19.76285     100.5479         9     0.847     0.679  88.38   0
        54    189.8595    861.4512 299.9795472 +22.6767643     229.2144     70.10215      1.189     3.39    -4.480866     19.76285     47.54144         5     0.976     0.340  85.65   0
        55    796.4759    850.1950 300.1719474 +22.8556233     2502.924     69.95937      1.076     1.94    -4.703572     19.76285     420.0945        18     0.884     0.856 -37.30   0
        56   1013.2526    850.0767 300.2395539 +22.9206034     607.9025     70.08432      1.075     1.96    -4.524312     19.76285     121.0144         8     0.732     0.621  39.53   0
        57    204.6245    844.3145 299.9897112 +22.6762888     235.6274     70.01295      1.173     3.17    -4.415873     19.76285     42.19188         5     0.732     0.451 -72.09   0
        58    513.4451    842.7608 300.0862440 +22.7685638     330.1546     70.11997      1.113     2.32    -5.011981     19.76285     57.29658         6     0.687     0.607   3.55   0
        59    159.8912    840.9069 299.9769210 +22.6618770     723.4171     70.20904      1.267     1.77    -4.418446     19.76285     135.9771        11     0.842     0.731 -61.13   0
        60    309.6561    833.0934 300.0260071 +22.7046139     31252.52     70.10215      1.180     1.97    -4.339916     19.76285     5478.226        62     1.128     1.045  64.87   0
        61    567.4222    831.8779 300.1065828 +22.7816432     856.6685      70.0308      1.098     2.04    -4.921123     19.76285     149.3238        11     0.846     0.722  79.40   0
        62    980.3787    830.9393 300.2355310 +22.9052531      480.303     70.01295      0.905     1.51    -4.593214     19.76285     138.9508         8     0.712     0.619  41.56   0
        63    238.4140    830.9500 300.0045601 +22.6826068     224.6329     70.08432      1.378     4.08    -4.302797     19.76285     44.07413         7     1.012     0.757  28.61   0
        64    596.4375    828.0002 300.1168757 +22.7892386     506.8191     70.04865      0.951     1.92     -4.88416     19.76285     105.2532         6     0.715     0.481  76.60   0
        65    607.2907    826.2206 300.1208331 +22.7919851     335.1073     69.99509      1.044     2.44    -4.865678     19.76285     66.31973         6     0.711     0.599   5.41   0
        66    712.6518    822.6749 300.1547922 +22.8225813     133.9529     70.06648      0.889     2.36    -4.652946     19.76285     54.48905         5     0.677     0.474  84.90   0
        67    750.2880    812.8450 300.1697129 +22.8310521     477.2357      70.0308      1.197     2.51    -4.568299     19.76285     71.95927         9     0.902     0.658  11.48   0
        68    359.3362    810.2731 300.0488782 +22.7129890     18323.08     70.08432      1.159     2.06    -4.204576     19.76285     2830.199        47     1.104     0.992  60.67   0
        69    373.5915    810.7558 300.0531540 +22.7174070     1201.028     70.06648      1.170     2.10    -4.336428     19.76285     212.9934        13     0.854     0.780  61.17   0
        70    882.3495    805.9624 300.2130995 +22.8686880       1701.8     70.04865      1.128     1.85    -4.672599     19.76285     306.9239        16     0.910     0.825 -74.68   0
        71    370.5439    804.5969 300.0542101 +22.7147265     319.6255     70.01295      1.056     2.45    -4.251197     19.76285     59.54036         7     0.765     0.632  24.09   0
        72    476.6934    802.1450 300.0880245 +22.7458872     340.3958     70.10215      1.236     3.66    -4.612428     19.76285     47.93311         5     0.960     0.402 -75.03   0
        73    241.7863    802.2142 300.0149572 +22.6753846     415.0049     69.97723      1.181     2.59    -4.057492     19.76285     75.39628        10     0.875     0.725  57.30   0
        74    640.3900    801.8986 300.1390510 +22.7949410      545.675     69.94151      1.104     2.35    -4.595623     19.76285     83.68288         9     0.807     0.683  79.55   0
        75     46.2572    797.5785 299.9557228 +22.6153311     241.4027     70.06648      1.112     3.52    -4.519291     19.76285     44.15918         7     0.916     0.615  49.72   0
        76    487.2473    796.6593 300.0930927 +22.7474819     525.2609     70.10215      1.160     2.40     -4.56698     19.76285       83.772        10     0.906     0.655  60.16   0
        77    888.3084    793.6012 300.2189786 +22.8669275     306.5501     69.95937      1.097     3.46    -4.574626     19.76285     58.20087         5     0.727     0.476 -11.89   0
        78    866.2784    788.5078 300.2137699 +22.8588591     275.3631     70.19123      1.141     4.21     -4.58568     19.76285     33.92078         6     1.137     0.445 -54.69   0
        79    239.6371    786.2362 300.0194871 +22.6701601     287.8076     70.11997      1.110     2.52     -4.03787     19.76285      46.1393         7     0.782     0.597  59.51   0
        80    562.5869    776.6860 300.1230346 +22.7643639     281.5914     69.99509      1.202     3.42    -4.408101     19.76285     36.37569         5     0.756     0.446  70.12   0
        81    532.4018    775.2316 300.1141139 +22.7548887      374.164     70.01295      1.169     2.70     -4.38096     19.76285     64.32342         9     0.919     0.669 -58.00   0
        82    441.1495    774.1865 300.0860627 +22.7272023     270.2914     70.10215      1.275     3.41    -4.355406     19.76285     50.03634         6     0.887     0.533  31.93   0
        83    554.2915    772.3594 300.1218604 +22.7606338      701.188     70.04865      1.123     2.18    -4.360901     19.76285     105.5606        10     0.805     0.705 -42.51   0
        84    948.6146    771.0844 300.2451027 +22.8785483     2788.327     70.01295      1.091     1.85    -4.309856     19.76285     527.9882        21     0.940     0.822  49.51   0
        85    937.0730    762.4103 300.2443265 +22.8725978     1042.229     70.04865      1.087     1.94    -4.250224     19.76285     190.4276        13     0.876     0.724  43.89   0
        86    300.3116    756.7535 300.0479370 +22.6799271     434.4623      70.0308      1.131     2.68    -4.010571     19.76285     77.14798         8     0.862     0.611  85.88   0
        87    763.3673    753.9083 300.1929612 +22.8180654     1434.559     69.99509      1.180     1.93     -4.13593     19.76285     228.9365        14     0.884     0.787  88.37   0
        88    968.2591    752.6932 300.2572103 +22.8791588     1058.876     70.10215      1.113     1.87     -4.18802     19.76285     181.8833        13     0.810     0.748 -42.43   0
        89    148.9300    740.8649 300.0060598 +22.6299194     448.8611     70.08432      1.362     2.63    -4.087533     19.76285     58.65188         8     0.780     0.674 -50.84   0
        90    845.7899    739.6995 300.2232630 +22.8387072     357.9875     69.95937      1.242     2.79    -4.084574     19.76285     53.70648         6     0.747     0.536  44.39   0
        91    881.8900    730.7961 300.2374095 +22.8469769     86098.53     69.95937      1.171     1.85    -4.059749     19.76285     16948.23       101     1.161     1.062  80.38   0
        92    734.3822    731.0948 300.1913534 +22.8028254     422.0871     69.97723      1.057     2.18    -3.974874     19.76285     77.62981         7     0.709     0.617 -84.50   0
        93    568.3280    719.6538 300.1433726 +22.7497284     868.2766     70.04865      1.214     2.34    -3.962495     19.76285     147.7514        13     0.977     0.792 -30.99   0
        94    749.4385    717.0253 300.2006193 +22.8033040     5488.267     70.06648      1.195     2.05    -3.926157     19.76285     831.4896        29     1.032     0.980 -62.98   0
        95    251.0317    712.3986 300.0470446 +22.6524178     2865.172     70.01295      1.212     2.20    -4.015712     19.76285     432.4268        22     0.979     0.899 -88.12   0
        96    333.0487    710.3148 300.0732186 +22.6764417     851.1871      70.0308      1.319     2.31    -3.989155     19.76285      118.338        10     0.830     0.707  65.30   0
        97    541.2855    705.7689 300.1394721 +22.7376318      397.112     70.04865      1.182     2.37    -3.836265     19.76285     67.77081         8     0.829     0.619   4.84   0
        98    532.9277    697.8582 300.1394438 +22.7328550     1761.082     70.08432      1.241     2.11    -3.772135     19.76285      303.891        18     1.042     0.826  61.41   0
        99    523.1786    691.8030 300.1383791 +22.7281930     699.7289     69.99509      1.109     2.12    -3.713783     19.76285     127.8924         8     0.729     0.653  65.60   0
       100    916.3907    689.0820 300.2617304 +22.8453469     340.5866     69.99509      1.218     4.23     -3.99485     19.76285     43.18422         7     0.746     0.684  86.76   0
       101    186.4401    687.9581 300.0349194 +22.6260197     324.1645     70.13779      1.165     2.49    -4.044096     19.76285     48.96146         6     0.749     0.488  80.54   0
       102    200.9863    686.5774 300.0398884 +22.6299913     349.6592      70.0308      1.171     3.69    -4.039483     19.76285     51.20377        10     0.917     0.811 -80.52   0
       103    447.8793    681.4362 300.1183222 +22.7026249     907.9323     69.99509      1.218     2.33     -3.70322     19.76285     156.7218        14     0.928     0.823 -88.60   0
       104    257.6347    682.8031 300.0587210 +22.6459162     231.4788     70.04865      1.142     2.39     -4.03387     19.76285     36.38184         5     0.718     0.443  70.43   0
       105    226.7096    683.1055 300.0490111 +22.6367189     394.7953     70.22684      1.297     2.81    -4.034219     19.76285     62.42985         5     0.741     0.430 -76.06   0
       106    970.0739    682.2679 300.2806825 +22.8594840     246.6195     70.11997      1.115     2.05    -4.026981     19.76285     51.79912         6     0.700     0.539  46.51   0
       107   1023.5202    678.5278 300.2985649 +22.8744306     416.4166     55.42625      0.974     2.24    -4.023625     19.76285     83.47459         8     0.883     0.499  87.84  24
       108    102.0256    676.5852 300.0123927 +22.5974134     11596.07     70.06648      1.233     2.18     -4.11051     19.76285     1747.033        39     1.122     0.989  68.12   0
       109     22.7276    678.1291 299.9872644 +22.5740418     498.0333     70.11997      1.456     2.85    -4.422206     19.76285     70.40665        10     0.990     0.649  48.02   0
       110    532.6823    676.7404 300.1462347 +22.7267239     584.6398     70.13779      1.205     2.37    -3.638453     19.76285     98.18105        11     0.927     0.703 -47.66   0
       111    950.7125    662.5901 300.2810451 +22.8480302     556.6872     69.99509      0.988     2.00    -3.961906     19.76285     123.2581         9     0.775     0.691 -36.51   0
       112     47.9664    660.8168 300.0007303 +22.5766608     942.5671      70.0308      1.720     4.92    -4.320985     19.76285     87.00625        17     1.464     0.783  86.00   0
       113    817.5484    660.8082 300.2401204 +22.8075950     267.0879     70.04865      1.017     2.04    -3.744707     19.76285     48.21063         5     0.674     0.467  69.33   0
       114    496.3004    657.1551 300.1412820 +22.7101900     345.8606     70.06648      1.336     4.90    -3.345861     19.76285      36.2817         8     1.131     0.601  -1.08   0
       115    891.0715    655.3940 300.2647934 +22.8280848      412.461     70.01295      1.026     2.49    -3.779092     19.76285     62.00395         7     0.777     0.615  70.24   0
       116    453.2512    649.6904 300.1303156 +22.6951319     341.5629     70.06648      1.177     2.56     -3.43723     19.76285     55.32422         8     0.840     0.630   4.00   0
       117    497.1696    645.4211 300.1453677 +22.7070850     452.0794     70.04865      1.150     2.36    -3.216611     19.76285     78.54275         7     0.791     0.586  80.38   0
       118    462.6334    640.9483 300.1360767 +22.6954397     1058.136     70.06648      1.438     4.45    -3.286485     19.76285     126.4138        15     1.111     0.856  65.92   0
       119    930.9035    640.6927 300.2819898 +22.8358049     2035.747     70.22684      1.135     1.85    -3.795621     19.76285     407.1964        15     0.856     0.790  64.00   0
       120     24.7389    634.8001 300.0019758 +22.5622301       3129.7     69.99509      1.261     2.17     -4.40983     19.76285     486.8558        24     1.060     0.933  66.36   0
       121    969.9929    630.2293 300.2975788 +22.8445175     313.0279     70.04865      1.186     1.99    -3.829912     19.76285     50.54697         5     0.734     0.453  63.08   0
       122    326.1385    627.7661 300.0979110 +22.6506986     5380.697     70.06648      1.304     2.36    -3.802837     19.76285      693.057        34     1.114     1.064  51.35   0
       123    448.5185    624.7729 300.1369445 +22.6865649     5298.004     70.04865      1.319     2.47    -3.258607     19.76285     750.3407        29     1.090     1.033  81.50   0
       124    860.1271    618.5111 300.2671412 +22.8082190     1173.176     70.20904      1.189     2.13    -3.601482     19.76285     193.0728        15     0.998     0.845 -29.48   0
       125    944.7457    615.7967 300.2943997 +22.8328056     7263.813     70.01295      1.191     2.01    -3.674417     19.76285     1260.568        30     1.050     0.914  74.46   0
       126    509.1183    614.3581 300.1591845 +22.7017590     6637.928     70.01295      1.324     2.49    -2.880205     19.76285     785.5633        34     1.131     1.063  83.06   0
       127    678.3060    609.8419 300.2133181 +22.7512117     231.4375     70.06648      1.416     4.38    -3.718415     19.76285     41.59061         9     1.064     0.842 -17.00   0
       128    236.6966    609.8627 300.0759273 +22.6187196     785.5948     70.13779      1.304     2.39    -3.877614     19.76285      120.104        11     0.885     0.721  55.58   0
       129    440.7487    602.5623 300.1417478 +22.6778628     2440.989     70.06648      1.318     2.42     -3.17902     19.76285     340.9148        21     1.021     0.970  36.30   0
       130    783.7767    602.2462 300.2486386 +22.7806588     511.9185     70.06648      1.247     3.22    -3.632293     19.76285      81.8111         7     1.020     0.486 -18.58   0
       131    419.0380    600.8967 300.1355358 +22.6708708     636.8168      70.0308      1.349     2.77     -3.37076     19.76285     102.4251        12     0.985     0.780  85.59   0
       132    173.5630    600.4444 300.0593698 +22.5970679     308.5081     70.10215      1.079     3.03    -3.993284     19.76285     61.93301         6     0.876     0.444 -72.99   0
       133    860.5490    597.8854 300.2739781 +22.8024238     1037.812     70.04865      1.368     2.65    -3.554524     19.76285      129.355        12     0.934     0.801  -0.83   0
       134    740.9861    594.6408 300.2377811 +22.7656453     517.9742     70.06648      1.238     3.05    -3.598309     19.76285     72.20366        10     1.010     0.654  81.66   0
       135    557.3974    590.0493 300.1821113 +22.7092678     118629.5     70.04865      1.368     2.48    -2.881161     19.76285     15313.36       132     1.323     1.274 -87.58   0
       136    243.5863    590.0942 300.0844945 +22.6151197     2002.914     69.97723      1.298     2.33    -3.738386     19.76285     292.1284        19     1.062     0.866  76.47   0
       137    809.2080    586.1329 300.2618001 +22.7836580     241.1834     70.04865      1.169     3.77    -3.552224     19.76285     34.83207         5     0.950     0.429  43.02   0
       138    448.0232    570.3136 300.1544931 +22.6707947     1491.279     69.99509      1.371     2.61    -2.996744     19.76285     165.1077        21     1.100     0.984  17.42   0
       139    765.3118    558.8868 300.2569805 +22.7626756     165.7557     70.20904      1.029     2.93    -3.423534     19.76285     46.95373         6     0.759     0.554 -45.45   0
       140    844.9236    556.4080 300.2825913 +22.7858309     1095.857     70.01295      1.285     2.24    -3.469917     19.76285     145.0585        14     0.868     0.844  54.62   0
       141    716.0709    554.1429 300.2431845 +22.7465499     1342.302     70.06648      1.309     2.34    -3.325568     19.76285     197.6159        19     1.096     0.893  78.51   0
       142    960.4383    551.2880 300.3202623 +22.8189837     205.8542      70.0308      0.936     3.51    -3.483289     19.76285     43.50459         5     0.782     0.455  71.90   0
       143    503.5814    550.4370 300.1782389 +22.6817593     320.8205     70.04865      1.279     3.46    -2.712543     19.76285     50.59282         8     1.034     0.493 -89.87   0
       144    973.2455    548.0594 300.3253049 +22.8218946     810.2214     70.08432      1.299     2.79    -3.465925     19.76285     105.0091         8     0.845     0.646 -63.87   0
       145    845.1890    546.7656 300.2858080 +22.7831419     1254.718      70.0308      1.493     2.63    -3.448453     19.76285     135.7246        16     1.045     0.861  52.65   0
       146    598.4568    543.9258 300.2098831 +22.7083478     434.0122     70.10215      1.825     5.00    -2.802805     19.76285      40.1522         8     1.315     0.537  71.21   0
       147    437.3367    543.8132 300.1597816 +22.6599864     181.7162     70.01295      1.298     3.50    -2.971037     19.76285     34.07507         5     0.812     0.437 -74.66   0
       148    883.3057    541.4919 300.2994013 +22.7930529     2386.285     70.20904      1.121     2.18    -3.464445     19.76285      355.443        17     0.882     0.857  49.67   0
       149    959.1284    546.8135 300.3213082 +22.8173061     307.0602     70.04865      1.162     2.32    -3.469213     19.76285     75.88914         9     0.872     0.642  67.42   0
       150    115.6552    532.1669 300.0635695 +22.5601107     521.3206     70.06648      1.236     3.25    -3.660811     19.76285     87.13464        11     0.999     0.741 -67.18   0
       151    975.0214    531.5823 300.3312139 +22.8176943     458.1611      70.0308      1.270     2.42    -3.430136     19.76285     70.60555         9     0.893     0.679  80.40   0
       152    971.8342    520.9998 300.3336594 +22.8136996     288.2826     70.01295      1.074     2.58    -3.409994     19.76285     44.08425         5     0.778     0.479  28.54   0
       153    656.9791    512.0811 300.2384521 +22.7167579     463.9764     70.01295      1.352     2.59    -3.008393     19.76285     63.48345         9     0.775     0.744 -47.59   0
       154    971.1102    504.3258 300.3388523 +22.8086934     475.7015     70.20904      1.295     3.47    -3.377601     19.76285     56.48911         8     0.945     0.624  -5.58   0
       155    717.4766    504.1544 300.2598679 +22.7326215     496.7654      70.0308      1.297     2.41    -3.146327     19.76285     71.50241         9     0.839     0.670 -11.48   0
       156    874.7935    500.2685 300.3101452 +22.7786634       557.29     70.01295      1.139     2.55    -3.266711     19.76285     88.52378        10     0.945     0.614  86.69   0
       157    858.7943    496.8786 300.3062604 +22.7728947     346.8828     69.97723      1.151     2.04    -3.242954     19.76285     62.19371         6     0.680     0.560  47.45   0
       158    603.4026    494.8582 300.2273681 +22.6957488     1842.077     70.01295      1.352     2.78    -2.818119     19.76285     240.1097        19     1.076     0.906  85.13   0
       159    963.9332    493.4431 300.3401510 +22.8034168     288.8784      70.0308      1.257     3.66    -3.336552     19.76285     38.84699         6     1.112     0.347  48.53   0
       160     79.5964    486.1917 300.0673074 +22.5361059     253.1955     69.86999      1.304     3.44    -3.100093     19.76285     24.37934         5     0.774     0.443 -70.58   0
       161   1014.4835    473.9044 300.3622628 +22.8129505     680.7969     70.22684      1.092     2.04    -3.476553     19.76285     132.5007        10     0.776     0.739  37.70   0
       162    972.8975    472.4831 300.3497567 +22.8000821     551.0175     70.20904      1.189     2.44    -3.327827     19.76285     88.63422         9     0.859     0.628 -73.61   0
       163    886.9458    473.1239 300.3227531 +22.7745098     350.1628     70.08432      1.340     3.74    -3.167054     19.76285     54.27032         7     1.035     0.743 -48.76   0
       164    713.8161    468.9059 300.2701810 +22.7214046     665.2986     69.97723      1.475     3.67    -3.073828     19.76285     67.64924        13     1.009     0.893  72.50   0
       165    218.1936    467.1201 300.1165637 +22.5722350     478.1686     69.97723      1.404     3.09    -3.108235     19.76285     60.39542         9     1.000     0.594 -89.60   0
       166    280.3173    463.0408 300.1371985 +22.5897063     2041.198     70.01295      1.321     2.59    -3.042787     19.76285      270.208        22     1.035     0.996  72.39   0
       167   1013.3234    460.9734 300.3661025 +22.8088880     2540.797     70.06648      1.216     2.11    -3.431948     19.76285     439.8441        21     1.006     0.899  76.99   0
       168    227.5505    457.7904 300.1225026 +22.5723671     4491.994     70.06648      1.369     2.37     -3.08384     19.76285     634.0834        30     1.140     1.044 -86.04   0
       169    368.2287    451.9001 300.1681517 +22.6128855     2689.622     69.95937      1.366     2.63    -2.646384     19.76285     374.2888        22     1.141     0.970  63.52   0
       170    993.1214    452.1084 300.3626828 +22.8002885     1141.478     70.19123      1.298     2.27    -3.349131     19.76285     168.6327        15     0.962     0.808  36.29   0
       171    612.4857    448.4920 300.2452602 +22.6851638     10765.47     70.20904      1.406     2.65     -2.87967     19.76285     1313.629        40     1.183     1.126  81.51   0
       172    630.1716    448.6670 300.2507095 +22.6905169      480.791      70.0308      1.997     5.12    -2.930576     19.76285     42.42766        10     1.316     0.889 -35.81   0
       173    946.0961    430.7936 300.3549448 +22.7800756     481.3245     69.94151      1.418     3.63    -3.207888     19.76285     64.02868        11     0.939     0.872 -60.34   0
       174    167.1544    428.8389 300.1131388 +22.5459401     1212.698     70.10215      1.390     3.44     -3.12684     19.76285     131.8594        16     1.196     0.850  88.19   0
       175    553.1389    417.9289 300.2367151 +22.6585959      3782.21     70.08432      1.458     2.95    -2.493236     19.76285     383.0247        27     1.176     1.066  80.46   0
       176    966.5533    418.0388 300.3654666 +22.7825407     639.2777     70.10215      1.113     2.39    -3.229844     19.76285      111.693        10     0.859     0.680  34.41   0
       177    268.3143    417.4385 300.1482806 +22.5730243     463.0351      70.0308      1.465     3.40    -2.921178     19.76285      45.8688         8     0.977     0.567 -68.14   0
       178    125.3874    411.2262 300.1058830 +22.5283549     210.5129     70.04865      1.152     3.48    -3.087995     19.76285      46.3725         5     0.865     0.494  41.45   0
       179    757.1434    407.2020 300.3037222 +22.7166751     676.2529     69.99509      1.518     4.28    -3.082266     19.76285      59.0809        13     1.106     0.902  53.24   0
       180    666.9443    408.1677 300.2753154 +22.6899148     461.5775     70.06648      1.629     4.18     -3.03596     19.76285     39.97304        10     0.923     0.884 -48.05   0
       181    459.7326    404.3135 300.2120717 +22.6266774     3606.133     70.15562      1.444     2.68    -2.762757     19.76285     409.0628        27     1.128     1.058 -88.55   0
       182    949.2468    398.6091 300.3663820 +22.7717736     233.4613     70.06648      1.118     2.20    -3.136336     19.76285     51.08113         6     0.663     0.612  68.64   0
       183    851.5790    398.4870 300.3359774 +22.7424740     804.2725     69.97723      1.313     2.60    -3.034552     19.76285     97.65786        14     1.000     0.777  45.56   0
       184    444.6189    393.0669 300.2110225 +22.6189171     335.7087      70.0308      1.427     3.48    -2.605586     19.76285     33.96088         5     0.817     0.429 -70.84   0
       185    824.5163    386.2227 300.3315274 +22.7308415    -574.6876     70.01295      1.129     3.67    -3.038884     19.76285     50.77322         7     0.843     0.611  -1.81   0
       186    347.2286    383.4833 300.1838439 +22.5869566     1423.553     70.04865      1.386     2.95    -2.432178     19.76285     181.7857        19     1.072     0.974  60.98   0
       187     65.8359    381.0907 300.0971722 +22.5018410     462.7541      70.0308      1.259     2.65    -3.140293     19.76285     83.69041        10     0.834     0.769 -23.79   0
       188    316.6331    373.0039 300.1777338 +22.5747723     17455.46     70.04865      1.441     2.66    -2.496408     19.76285      2229.06        46     1.259     1.119  83.26   0
       189    851.2151    370.1881 300.3450554 +22.7342363     878.9376     69.99509      1.364     2.60    -2.973372     19.76285     97.06878        12     0.898     0.792  76.71   0
       190     13.0882    360.9615 300.0873282 +22.4802379     2878.854      70.0308      1.308     2.44    -3.349203     19.76285     396.0796        23     1.100     0.933  84.25   0
       191    190.9162    359.4292 300.1430646 +22.5331626     300.9816     70.04865      1.384     5.21     -2.88888     19.76285     34.10158         8     0.936     0.818  17.33   0
       192    766.6799    359.2974 300.3222519 +22.7057757      370.268     70.17342      1.477     2.61     -3.09521     19.76285     58.27915         7     0.882     0.528 -31.21   0
       193    415.1815    358.1738 300.2131972 +22.6000750     301.7576     70.08432      1.221     3.85    -2.436977     19.76285      42.2527         6     0.896     0.574  23.30   0
       194    727.0019    352.5363 300.3120877 +22.6919424     1129.675     70.06648      1.482     2.86    -3.121528     19.76285     121.1861        17     1.006     0.960 -26.33   0
       195    942.0750    345.2805 300.3814663 +22.7543032     342.2436     70.15562      1.407     2.40    -2.880688     19.76285     59.79865         6     0.707     0.588  41.35   0
       196    388.8097    337.4453 300.2117255 +22.5862172     1250.582     70.06648      1.599     3.81    -2.426924     19.76285     117.6577        21     1.333     0.936  66.07   0
       197    827.8254    329.8553 300.3508644 +22.7156420     409.0373     70.04865      1.375     2.56    -2.811143     19.76285     51.77212         7     0.694     0.674  69.67   0
       198    710.2620    327.8792 300.3148805 +22.6798441     292.1091     70.11997      1.338     3.40    -2.852036     19.76285     35.71259         6     0.762     0.551 -47.94   0
       199    464.7592    316.8197 300.2420484 +22.6030728     652.7205     70.08432      1.327     3.26    -2.450427     19.76285     90.03085        10     0.874     0.785 -65.24   0
       200    709.3541    308.5410 300.3208768 +22.6740181     1215.913     70.08432      1.395     2.94     -2.66196     19.76285     131.0211        17     1.066     0.913  76.44   0
       201    970.5543    302.6064 300.4042029 +22.7505719     1830.718     70.06648      1.195     2.22    -2.571358     19.76285     271.1495        18     1.011     0.849  71.46   0
       202    418.0681    292.4152 300.2354463 +22.5820674     452.9286     70.06648      1.626     4.91    -2.438699     19.76285     39.54334         9     0.928     0.737 -71.00   0
       203     92.8346    286.6656 300.1362162 +22.4828628     895.1422     70.04865      1.676     3.93    -2.713337     19.76285     86.69894        15     1.219     0.927 -23.87   0
       204    123.3103    286.8570 300.1456211 +22.4920616     393.4465     70.08432      1.102     2.08    -2.610688     19.76285     77.83951         6     0.699     0.564 -33.93   0
       205    986.3694    282.9014 300.4155321 +22.7496460     248.5526     69.99509      1.161     4.20    -2.441475     19.76285      41.6111         7     0.880     0.571  57.36   0
       206    176.7765    278.8183 300.1648426 +22.5057960     234.7933     70.04865      1.255     4.01    -2.543747     19.76285      43.2089         6     0.822     0.559  49.56   0
       207    780.8554    269.9874 300.3556668 +22.6843702     319.1541     70.04865      1.457     5.70     -2.49528     19.76285     39.29768         8     0.995     0.921 -31.54   0
       208    371.8286    268.9648 300.2286770 +22.5614710      315.476     70.06648      1.643     4.98    -2.464803     19.76285      30.3376         5     1.137     0.617  -2.60   0
       209    871.9995    262.7788 300.3864092 +22.7096055     253.5945     69.97723      1.538     3.97    -2.490868     19.76285     29.28236         5     0.864     0.522  50.25   0
       210    879.1223    258.6965 300.3899545 +22.7105663     1118.762     70.17342      1.346     2.52     -2.48554     19.76285       177.94        17     1.111     0.850  75.96   0
       211    297.8116    256.4271 300.2097310 +22.5356758     1245.983     70.04865      1.435     2.76    -2.486381     19.76285     150.3823        17     1.036     0.937  66.76   0
       212    375.9531    251.6481 300.2355807 +22.5577375     504.4527     70.08432      1.459     4.13      -2.4527     19.76285     49.53836        12     1.077     0.832 -49.92   0
       213    777.6873    250.2531 300.3610860 +22.6777517     305.5996     70.08432      1.184     2.61    -2.500005     19.76285     40.14522         5     0.718     0.448 -77.90   0
       214    192.2912    243.8593 300.1810112 +22.5004202     354.1493     70.11997      1.174     2.73     -2.53656     19.76285     62.74227         8     0.783     0.694  46.05   0
       215    730.2811    240.4734 300.3494924 +22.6607382    -129.8436     70.15562      0.000     2.64    -2.497211     19.76285     136.0089        15     0.987     0.926  46.10   0
       216    795.3083    239.8862 300.3699412 +22.6800528     285.1394     70.20904      1.397     4.42    -2.502367     19.76285     32.00319         7     0.869     0.639  63.49   0
       217    214.1063    236.9090 300.1900466 +22.5049695     382.8935     70.20904      1.524     5.36    -2.556352     19.76285     37.01216         8     1.113     0.729  16.42   0
       218   1001.5508    232.3624 300.4366727 +22.7396670     453.5104     70.06648      1.217     3.18    -2.441475     19.76285     77.39225        10     1.073     0.626 -72.38   0
       219    734.4837    231.7450 300.3536346 +22.6594900     371.8387     70.11997      1.371     3.05    -2.502171     19.76285     54.71509         9     0.964     0.642  57.79   0
       220    654.8865    231.0578 300.3290677 +22.6354410      674.362     70.15562      1.386     3.14    -2.470114     19.76285     76.31937        13     0.995     0.838  58.18   0
       221    850.1826    222.4681 300.3926945 +22.6914872     847.3395     70.04865      1.433     2.83    -2.504905     19.76285     97.57948        11     0.955     0.737  74.54   0
       222    580.9810    223.0948 300.3086426 +22.6110047     501.1294     69.97723      1.325     3.47    -2.455128     19.76285     56.16343         8     0.828     0.636  52.93   0
       223    862.2999    221.5142 300.3967806 +22.6948428     477.0012     70.20904      1.251     2.87    -2.505142     19.76285     56.60686        10     0.907     0.719 -89.82   0
       224   1023.0471    212.3540 300.4498712 +22.7403528     841.9922     57.85353      1.180     2.89     -2.43687     19.76285     124.5601        11     0.989     0.682 -88.98  24
       225    978.9993    211.5076 300.4364092 +22.7269192     562.6366     69.92364      1.235     2.60    -2.421515     19.76285     81.99709        11     0.931     0.717  77.44   0
       226      2.7064    208.7787 300.1335049 +22.4334801     354.8426     61.47739      1.397     3.87    -2.775923     19.76285     32.91605         6     0.735     0.641 -15.32  16
       227    213.2925    205.4885 300.1999908 +22.4957095     462.4691     70.20904      1.240     3.42     -2.53883     19.76285     85.79619         9     0.925     0.632  68.68   0
       228     75.2138    200.1031 300.1588377 +22.4527457     1205.386     69.94151      1.310     2.59    -2.582485     19.76285     161.5014        17     1.075     0.875  30.96   0
       229    897.9335    196.7337 300.4159300 +22.6983948     312.8108     70.10215      1.278     3.38    -2.427937     19.76285     51.31495         8     1.008     0.518  52.62   0
       230    232.4454    193.3611 300.2098791 +22.4979735     3272.046     70.11997      1.401     2.80    -2.547655     19.76285       389.12        25     1.199     0.957  89.18   0
       231     16.7180    187.8148 300.1446584 +22.4316710     802.3432      70.0308      1.501     2.79    -2.679328     19.76285     99.99371        13     1.015     0.768  79.21   0
       232    876.4014    174.5481 300.4164181 +22.6855697     2001.502     70.01295      1.298     2.50    -2.460325     19.76285     271.6413        18     1.040     0.875  88.34   0
       233    979.9620    173.2349 300.4491304 +22.7162061     1525.926     70.11997      1.289     2.64    -2.363031     19.76285     192.8671        18     0.993     0.923  62.99   0
       234    426.3584    170.1954 300.2776933 +22.5494672     308.7344     70.06648      1.356     3.35    -2.298607     19.76285     45.09523         6     0.746     0.619  -9.05   0
       235    116.4784    159.2090 300.1849249 +22.4533917     405.4189     70.01295      1.594     4.67    -2.518286     19.76285     44.90484         8     0.917     0.812 -55.52   0
       236    405.4269    158.3825 300.2750152 +22.5398007     408.1897     70.06648      1.472     5.29    -2.324007     19.76285     32.11531         9     1.065     0.742  71.82   0
       237    477.2972    157.2811 300.2977316 +22.5610284     999.2645     70.17342      1.491     3.19    -2.337411     19.76285     107.9725        17     1.069     0.986  36.28   0
       238    538.4862    156.1774 300.3171313 +22.5790510     151.6579     69.99509      0.903     4.76    -2.334243     19.76285     25.01245         6     0.990     0.648  11.10   0
       239    220.7984    153.2794 300.2192645 +22.4829778     320.1524     69.95937      1.501     3.73    -2.463168     19.76285     33.24312         6     0.744     0.634  56.74   0
       240    251.3851    137.2713 300.2339652 +22.4875555     3458.359     70.04865      1.435     2.77    -2.326636     19.76285     386.6783        30     1.239     1.055  56.51   0
       241    102.5367    136.8483 300.1878485 +22.4427940     403.3924     70.08432      1.335     2.89    -2.365903     19.76285     49.75889         8     0.792     0.684  -7.51   0
       242    880.4115    134.1446 300.4307783 +22.6751584     240.8048      70.0308      1.524     3.46    -2.261075     19.76285     26.87576         5     0.767     0.452  71.60   0
       243    223.1139    130.9733 300.2272210 +22.4772702     257.0491     70.04865      1.305     3.94    -2.233515     19.76285     29.92657         6     0.980     0.454  51.86   0
       244     12.9762    127.4104 300.1630941 +22.4132208     251.6235     70.04865      1.439     3.88    -2.326478     19.76285     29.18801         5     0.880     0.491  -2.81   0
       245    497.3157    122.5064 300.3152431 +22.5570420     3480.435     70.22684      1.448     2.82    -2.185403     19.76285     410.9187        26     1.158     1.052  69.97   0
       246    382.6064    122.3841 300.2795964 +22.5226241     320.3322     69.97723      1.267     3.06    -2.317407     19.76285     53.26048         8     0.815     0.737  16.22   0
       247    749.8531    112.0606 300.3972598 +22.6297079     419.2661     70.10215      1.489     5.55    -2.318885     19.76285     37.88718         9     1.024     0.850 -68.57   0
       248    842.2823    110.3826 300.4266037 +22.6569097     205.4491     70.01295      1.180     3.57    -2.130738     19.76285     35.42942         6     0.702     0.665 -59.83   0
       249    625.6947    102.4703 300.3617032 +22.5897570     3403.168     70.15562      1.444     2.70    -2.163658     19.76285     434.0453        27     1.155     1.053  68.48   0
       250    400.6706    101.6896 300.2919283 +22.5220971     808.6237     70.20904      1.486     2.74    -2.257611     19.76285     118.7956        14     0.939     0.914 -40.20   0
       251    666.7728     99.6822 300.3753987 +22.6012630     522.8431     70.04865      1.387     3.38    -2.154355     19.76285     66.29873         9     0.886     0.751 -29.51   0
       252    149.8777     94.0741 300.2164318 +22.4447180     412.3726     70.15562      1.201     2.76    -1.909826     19.76285     54.36201         8     0.797     0.651  53.00   0
       253    952.5100     93.1016 300.4665702 +22.6849498     286.6851     70.22684      1.150     3.40    -1.982474     19.76285     53.25906         7     0.921     0.665 -72.40   0
       254    720.9258     91.0756 300.3950564 +22.6150127     447.6336     70.13779      1.538     3.10    -2.257936     19.76285     35.34251         5     0.617     0.606  64.64   0
       255    669.8992     87.3492 300.3803730 +22.5986562     1622.644     70.13779      1.464     2.81    -2.127746     19.76285      191.078        22     1.159     0.967  68.00   0
       256    684.5112     86.1925 300.3852987 +22.6027012     557.1249     69.95937      1.985     5.40    -2.154296     19.76285     46.87009        10     1.222     0.673  41.59   0
       257    756.2360     78.7826 300.4100435 +22.6220567      966.863     70.04865      1.455     3.38    -2.169582     19.76285      115.062        12     1.007     0.823  54.66   0
       258    500.0050     71.4419 300.3326445 +22.5431820     617.6719     70.06648      1.507     3.50    -1.972067     19.76285     70.46922        13     1.019     0.920  76.78   0
       259     72.7893     71.1887 300.1999063 +22.4150312     353.2243     69.94151      1.556     4.32    -2.056952     19.76285     35.18175         7     0.917     0.579  52.07   0
       260    403.6460     69.2607 300.3033726 +22.5136768     602.9261     70.06648      1.563     3.47     -2.07798     19.76285     59.90111        11     1.003     0.840  59.63   0
       261    175.3833     59.7740 300.2354820 +22.4425221      2247.66     70.06648      1.417     2.74     -1.86921     19.76285     241.3705        25     1.135     1.114 -80.87   0
       262    742.9518     59.6584 300.4121082 +22.6125820     285.6747     70.10215      1.377     4.24    -2.140047     19.76285      54.5112         7     0.905     0.793  36.28   0
       263    736.5844     52.0779 300.4125833 +22.6084963     441.5936     70.06648      1.298     2.83    -2.125823     19.76285      75.3378        11     0.942     0.793 -83.88   0
       264    291.2769     51.7583 300.2741044 +22.4749682     756.8262     70.01295      1.423     3.21    -2.065975     19.76285     85.82009        14     1.048     0.864  -5.18   0
       265    774.5020     46.7917 300.4261104 +22.6183335     565.9672     69.92364      1.672     4.04    -1.980565     19.76285     46.09068        12     1.125     0.817  79.18   0
       266    697.6652     46.5995 300.4022376 +22.5952646     246.5633     70.04865      1.172     4.37    -2.076262     19.76285     33.59288         7     1.022     0.643  41.99   0
       267    794.2619     43.1450 300.4334497 +22.6232031     1234.984     70.11997      1.311     2.69     -1.90676     19.76285     142.3553        16     0.998     0.891  62.30   0
       268    177.7886     38.7816 300.2430373 +22.4372178     501.6073     70.01295      1.329     3.13    -1.865464     19.76285      57.3518        11     0.892     0.823 -60.96   0
       269    968.9329     36.2367 300.4901358 +22.6735170     453.1008     70.04865      1.250     2.44     -1.90374     19.76285     75.31651         8     0.801     0.638  53.00   0
       270    742.6093     35.8284 300.4197302 +22.6056308     528.3395     70.04865      1.416     2.88    -2.036922     19.76285     88.90604        11     0.997     0.774  48.73   0
       271    327.4113     26.5391 300.2935182 +22.4785589     263.1472     69.99509      1.532     3.93    -2.053898     19.76285      33.7187         5     1.154     0.384 -73.59   0
       272    595.1522     20.6464 300.3787331 +22.5570986     457.6101     70.06648      1.236     2.70    -1.987652     19.76285     74.00581         8     0.753     0.713  77.59   0
       273    758.3986     15.3813 300.4312800 +22.6044829     390.8544     69.97723      1.405     3.94    -1.909663     19.76285     47.13617         9     0.932     0.709  12.48   0
       274     81.8395    999.2424 299.9011425 +22.6837801     2989.281     70.13779     22.008    36.10     7.889946     19.76285     64.19212       318     6.431     5.626 -78.07  19
       275    168.8123   1021.3518 299.9209588 +22.7162454     988.8792     65.39802      5.953     9.07      13.6919     19.76285     34.02073        20     2.171     1.059  57.66  24
       276    151.1639   1014.0968 299.9178384 +22.7088649      1229.75     70.04865      6.973    11.09      13.9025     19.76285     50.50236        26     2.644     1.295  57.13  18
       277    168.4797   1005.2770 299.9260895 +22.7115417      684.891     70.15562      8.278     9.41     11.09941     19.76285     34.69787        12     2.291     1.078 -49.86   0
       278    204.3447   1023.0687 299.9314396 +22.7274130     662.5856     57.81031      4.713     5.11     7.666322     19.76285     35.27211         7     0.973     0.759  37.88  25
       279    104.6852    998.8863 299.9083537 +22.6905431     1543.826     70.17342     24.705    48.77     11.18444     19.76285     56.54449       195    12.342     5.349  62.56  19
