#   1 NUMBER                 Running object number                                     
#   2 X_IMAGE                Object position along x                                    [pixel]
#   3 Y_IMAGE                Object position along y                                    [pixel]
#   4 ALPHA_J2000            Right ascension of barycenter (J2000)                      [deg]
#   5 DELTA_J2000            Declination of barycenter (J2000)                          [deg]
#   6 FLUX_APER              Flux vector within fixed circular aperture(s)              [count]
#   7 FLUXERR_APER           RMS error vector for aperture flux(es)                     [count]
#   8 FLUX_RADIUS            Fraction-of-light radii                                    [pixel]
#   9 FWHM_IMAGE             FWHM assuming a gaussian core                              [pixel]
#  10 BACKGROUND             Background at centroid position                            [count]
#  11 THRESHOLD              Detection threshold above background                       [count]
#  12 FLUX_MAX               Peak flux above background                                 [count]
#  13 ISOAREA_IMAGE          Isophotal area above Analysis threshold                    [pixel**2]
#  14 A_IMAGE                Profile RMS along major axis                               [pixel]
#  15 B_IMAGE                Profile RMS along minor axis                               [pixel]
#  16 THETA_IMAGE            Position angle (CCW/x)                                     [deg]
#  17 FLAGS                  Extraction flags                                          
         1    162.8306      5.3382 300.2567666 +22.4138800     593.6555     70.20583      1.630     3.48    -2.042608     19.84261     65.06308        13     1.052     0.933 -52.77  16
         2    100.8168   1010.6418 299.9107876 +22.6835478     1267.837     70.34925      6.910     8.77     6.191204     19.84261     51.59101        23     2.096     1.024 -35.80  19
         3    463.5994   1023.6779 300.0192851 +22.7962628     436.4096     54.45992      0.866     1.58    -5.346627     19.84261     103.7363         5     0.627     0.458  12.54  24
         4    394.0870   1022.0856 299.9981871 +22.7749307     3596.651     62.77795      1.154     1.97     -4.40108     19.84261     679.9097        24     0.949     0.915 -51.84  24
         5    120.6596   1022.2307 299.9131753 +22.6928298     1312.649     62.07154      6.440    10.31     7.523127     19.84261     40.90095        30     2.415     1.227  -9.06  26
         6    104.9896   1021.2249 299.9086368 +22.6878328     1286.491      66.1018     13.996    18.59     7.413939     19.84261     43.07938        50     4.362     2.201  -2.03  27
         7     82.8489   1019.1674 299.9024318 +22.6805900     2551.642     70.36716     14.204    41.39      4.78309     19.84261     62.55316       364     9.543     4.981   3.38  27
         8     90.5291   1003.9135 299.9097843 +22.6785293     2183.658     70.43874     15.049    20.76     4.480072     19.84261     57.94517       104     4.618     2.592 -42.80  19
         9    427.1683   1008.8417 300.0127872 +22.7810701     306.4553     70.38506      1.476     4.34    -4.638284     19.84261     39.90912         6     0.994     0.540 -21.71   0
        10     84.2518    994.8346 299.9107917 +22.6740426     1967.463     70.34925     11.828    29.83     2.601188     19.84261     52.05083       188     7.802     3.166 -37.14  19
        11    940.2739   1000.5190 300.1752405 +22.9326920     1209.462     70.43874      1.047     1.76    -5.167104     19.84261     233.7783        14     0.824     0.774  68.10   0
        12    729.1328    989.3972 300.1130856 +22.8661481     438.8217     70.31342      1.604     4.96    -5.462139     19.84261     64.51553         8     1.403     0.497  55.25   0
        13     84.0049   1006.2669 299.9069921 +22.6772427     1656.194     70.31342      9.879    11.45     3.679531     19.84261     51.58958        38     2.034     1.919  80.46   3
        14    763.9359    983.5570 300.1258258 +22.8749174     570.6254     70.33134      1.032     2.11    -5.249758     19.84261     118.2229         8     0.766     0.635  37.48   0
        15    786.1474    977.3405 300.1347682 +22.8797994     6595.203     70.38506      1.113     1.87    -5.083194     19.84261      1203.87        28     0.952     0.916 -51.05   0
        16    832.0248    977.2359 300.1490930 +22.8935352     206.2343     70.34925      1.030     3.90    -4.758322     19.84261     59.23926         6     1.038     0.436 -28.90   0
        17    977.2190    976.6891 300.1945178 +22.9369361     362.8487     70.27758      1.121     1.77    -5.187586     19.84261     60.76572         5     0.670     0.445 -14.87   0
        18     97.5944    969.2966 299.9232507 +22.6707373     264.1346     70.24171      1.157     3.23     1.040177     19.84261     52.34822         6     0.816     0.526  51.63   0
        19    491.2920    965.5645 300.0468248 +22.7879194     192.6731     70.27758      1.116     2.96    -5.071537     19.84261     50.53738         6     0.893     0.450 -85.05   0
        20    837.9412    965.0219 300.1549138 +22.8918062     204.6984     70.33134      1.111     1.68    -4.734228     19.84261     61.88473         5     0.571     0.551   3.17   0
        21    794.6558    959.5018 300.1432277 +22.8772350     736.7894     70.42085      1.086     2.09    -4.967268     19.84261     143.1411        14     0.869     0.832 -33.67   0
        22    977.6780    958.2050 300.2006806 +22.9317691     178.1937     70.24171      0.989     2.99    -5.019321     19.84261     49.04105         7     0.830     0.581  52.14   0
        23    832.7343    952.8008 300.1572716 +22.8867377     485.2872     70.31342      1.183     2.30    -4.780084     19.84261      87.6363         9     0.841     0.667   6.56   0
        24    732.6412    942.9626 300.1292998 +22.8538819     481.9443     70.42085      1.044     1.73    -4.994058     19.84261     93.13029         7     0.673     0.598  83.89   0
        25    445.2655    939.7910 300.0409013 +22.7667113     2537.073      70.2955      1.206     2.22     -4.69747     19.84261     353.2193        20     0.940     0.938 -14.00   0
        26    743.8422    940.2846 300.1336598 +22.8564749     301.1877      70.2955      1.003     1.98     -4.95422     19.84261     72.61285         6     0.695     0.550  74.35   0
        27    107.1524    928.3422 299.9395530 +22.6618776     222.6066     70.38506      1.032     3.37     -3.85895     19.84261     44.73041         5     0.959     0.355 -86.22   0
        28    170.5828    925.7033 299.9601125 +22.6801779     400.8897     70.24171      1.184     2.46    -3.790466     19.84261     60.29274         7     0.872     0.467 -77.53   0
        29     79.0490    923.7400 299.9323245 +22.6521155     83.30686     70.38506      1.270     3.77    -3.914709     19.84261     38.68568         6     0.857     0.628 -34.25   0
        30    147.6666    922.8668 299.9539179 +22.6724808     1000.463     70.38506      1.173     2.07    -3.825215     19.84261     169.9846        15     1.022     0.809 -11.62   0
        31   1019.0484    911.2597 300.2288650 +22.9307023     1355.212     70.38506      1.149     1.75    -4.730828     19.84261     268.9331        15     0.920     0.840  37.06  16
        32    973.3819    909.7271 300.2151271 +22.9165671     1238.038     70.33134      1.093     1.97    -4.730303     19.84261     193.8673        12     0.822     0.737 -37.45   0
        33    679.3839    909.7527 300.1235307 +22.8283739     185.3519     70.36716      1.027     3.44    -4.707242     19.84261     32.74485         5     0.727     0.470 -76.92   0
        34    179.5387    904.1110 299.9699238 +22.6766816     242.9831     70.42085      1.173     4.10    -3.973353     19.84261     41.81656         6     0.968     0.498 -89.84   0
        35    757.1695    903.7018 300.1497215 +22.8499791     430.4597     70.27758      1.216     2.45    -4.720217     19.84261      58.7229         8     0.849     0.615  85.85   0
        36    625.1567    897.8016 300.1105412 +22.8086721     2840.799     70.31342      1.272     2.38    -4.791779     19.84261     369.1057        23     1.017     0.956  36.56   0
        37    427.3569    895.0149 300.0499096 +22.7484977     455.3048     70.34925      1.420     2.60     -4.38566     19.84261     54.65533         7     0.709     0.669 -78.17   0
        38    175.3559    891.9819 299.9725728 +22.6719497     688.6115     70.34925      1.230     2.83     -4.06395     19.84261     102.6497        10     0.893     0.719 -30.11   0
        39    645.7804    890.2697 300.1194127 +22.8127011     448.2032     70.34925      1.209     3.29    -4.628182     19.84261     63.46102         9     0.922     0.721  51.00   0
        40    194.3989    888.4774 299.9796292 +22.6766656     247.8874     70.22377      1.012     3.33    -4.101784     19.84261     64.03122         5     0.809     0.470  45.64   0
        41    562.1307    880.5472 300.0965439 +22.7848073      171.848     70.33134      1.432     5.09    -4.635604     19.84261     31.13676         5     1.247     0.587 -51.07   0
        42    801.0743    877.3605 300.1719717 +22.8555938     2464.612     70.31342      1.273     2.18    -4.772933     19.84261     337.4308        22     1.016     0.943  82.46   0
        43   1017.9872    877.5032 300.2395243 +22.9206939     636.4709     70.22377      1.046     1.82    -4.686561     19.84261     120.2084         9     0.756     0.644 -78.69   0
        44    518.2578    870.2751 300.0862372 +22.7686928     287.4007     70.38506      1.141     2.99    -4.639946     19.84261     44.53377         6     0.742     0.550  41.31   0
        45    164.6212    868.3978 299.9769149 +22.6619674     578.5328     70.27758      1.201     2.47    -4.255359     19.84261     79.96054        11     0.936     0.693  62.58   0
        46    314.2674    860.3513 300.0260329 +22.7046045     30812.39     70.33134      1.259     2.26    -4.174467     19.84261     3976.838        64     1.179     1.117  84.16   0
        47    580.1309    863.3353 300.1077480 +22.7852735     190.8106     70.38506      1.186     3.32    -4.474438     19.84261     43.52312         5     0.765     0.423  19.12   0
        48    572.0926    859.2437 300.1065784 +22.7816875     887.7455     70.33134      1.260     2.70    -4.483589     19.84261     139.5442        14     0.934     0.867 -21.49   0
        49    984.9945    858.1904 300.2355253 +22.9052563     563.8922     70.18788      1.104     2.48    -4.606925     19.84261     96.26383        10     0.888     0.680 -72.40   0
        50    600.8005    855.3248 300.1167880 +22.7891792     550.2175     70.20583      1.356     4.27    -4.358022     19.84261     55.63867         8     0.962     0.640 -41.67   0
        51    611.8205    853.5456 300.1207968 +22.7919760     284.9595     70.31342      1.055     2.67    -4.326918     19.84261      55.5677         8     0.792     0.727 -62.89   0
        52    717.2188    849.8023 300.1548267 +22.8225287      334.173     70.25964      1.311     3.74    -4.341305     19.84261     41.00577         5     0.989     0.406 -44.57   0
        53    754.9239    840.0280 300.1697497 +22.8310365     463.1557     70.33134      1.323     2.57    -4.357364     19.84261     84.05721        10     0.905     0.704 -74.82   0
        54    363.9640    837.5750 300.0488947 +22.7129972     17955.05     70.34925      1.295     2.31    -4.035085     19.84261     2406.561        48     1.122     1.104  50.60   0
        55    378.0905    838.2646 300.0530623 +22.7174362     1129.169     70.45663      1.343     2.66    -4.028983     19.84261     143.9104        16     0.996     0.900 -24.87   0
        56    886.9072    833.1511 300.2131039 +22.8686529     1766.119     70.36716      1.221     2.10    -4.370384     19.84261     280.6466        15     0.896     0.800 -62.08   0
        57    644.7804    829.2047 300.1389784 +22.7948844      579.118      70.2955      1.225     2.59    -4.249426     19.84261     77.70492         8     0.829     0.623  -1.69   0
        58    246.4870    829.2896 300.0150772 +22.6753472     477.6378     70.49239      1.253     2.52    -4.202788     19.84261     75.78184         7     0.772     0.623 -60.72   0
        59     50.8019    824.7701 299.9557672 +22.6152761      225.086      70.2955      1.179     3.78    -4.403625     19.84261     53.85217         8     1.085     0.609  81.89   0
        60    491.8809    824.0269 300.0930844 +22.7475127     586.7416     70.31342      1.503     4.00    -4.245237     19.84261     60.72878         9     0.948     0.679  12.38   0
        61     79.5164    818.9529 299.9665758 +22.6222354     401.3861     70.33134      1.558     3.45    -4.319839     19.84261     53.40417         7     0.991     0.651 -56.21   0
        62    437.6285    819.1489 300.0777974 +22.7298290     209.2836     70.34925      1.339     4.19     -4.04175     19.84261     30.81558         6     0.751     0.667  22.73   0
        63    870.4791    815.2583 300.2138085 +22.8585902     376.3233     70.36716      1.329     2.63    -4.147519     19.84261     47.95318         7     0.798     0.621   9.97   0
        64    244.0551    813.7997 300.0193623 +22.6701771     455.6721     70.24171      1.356     3.60    -4.181978     19.84261     47.28009         8     0.955     0.605  56.89   0
        65    567.3362    804.1271 300.1230367 +22.7644513     291.9159     70.36716      1.675     3.43    -4.151052     19.84261     31.79951         5     0.799     0.427  72.54   0
        66    537.1030    802.1776 300.1142638 +22.7548190      371.326     70.25965      1.212     2.55    -4.109244     19.84261     54.53041         7     0.711     0.664   6.84   0
        67    558.8820    799.6412 300.1218658 +22.7606275     845.8836      70.2955      1.285     2.57    -4.121603     19.84261     98.84589        11     0.901     0.725  82.00   0
        68    953.2394    798.3085 300.2451169 +22.8785434     2645.812     70.33134      1.183     2.12    -4.096112     19.84261     409.8546        20     0.955     0.906 -79.33   0
        69    941.7864    789.7320 300.2443382 +22.8726470     1031.911     70.34925      1.204     2.48     -4.07994     19.84261     153.7015        15     0.949     0.867  48.54   0
        70    304.8333    783.9356 300.0479685 +22.6798659     415.0411     70.33134      1.302     3.13    -4.068575     19.84261     65.32045        11     0.972     0.763 -49.92   0
        71    767.9889    781.1805 300.1929704 +22.8180691     1327.975      70.2955      1.299     2.41    -4.056451     19.84261     186.6904        17     0.997     0.896  54.58   0
        72    972.8561    779.7879 300.2572590 +22.8791082     1046.273     70.33134      1.240     2.09    -4.085111     19.84261     186.2209        12     0.908     0.719  61.99   0
        73    153.5249    767.8120 300.0062002 +22.6298092     301.9355     70.34925      0.897     1.65    -4.198587     19.84261     72.07954         5     0.645     0.470 -67.55   0
        74    886.4774    758.0196 300.2374202 +22.8469578     85018.07     70.33134      1.290     2.26    -3.960994     19.84261     11292.18       106     1.233     1.208  89.22   0
        75    738.9365    758.5506 300.1912860 +22.8028601     496.6495     70.38506      1.513     4.51    -4.061611     19.84261     47.81162         9     0.910     0.702 -75.63   0
        76    572.8423    747.0842 300.1433111 +22.7497401     884.1861      70.2955      1.404     2.84    -3.920414     19.84261     108.3062        15     1.012     0.898 -66.36   0
        77    754.0270    744.3668 300.2006005 +22.8033160     5359.148     70.34925      1.370     2.53     -4.01068     19.84261     634.0815        31     1.130     1.065  28.48   0
        78    255.7520    739.6959 300.0471078 +22.6524466     2634.709     70.36716      1.315     2.48    -4.082782     19.84261     356.9479        22     1.074     0.955 -86.55   0
        79    337.7723    737.5381 300.0733029 +22.6764519     594.5491     70.33134      1.479     3.67    -4.035961     19.84261     77.32572        14     1.100     0.897  89.85   0
        80    214.1868    735.5852 300.0355296 +22.6387881      206.072     70.25964      1.201     4.78    -4.034222     19.84261     32.03559         7     1.001     0.648  51.03   0
        81    545.8623    733.0808 300.1394714 +22.7376272     497.0231     70.43874      1.472     4.48     -3.85517     19.84261     48.68735         8     0.850     0.670  52.32   0
        82    537.4852    725.1970 300.1394297 +22.7328519     1898.548     70.25964      1.457     2.68    -3.812734     19.84261     221.8071        21     1.089     0.988  17.24   0
        83    527.5408    719.0789 300.1383259 +22.7281127     942.8724     70.36716      1.518     3.21    -3.787617     19.84261     104.3928        13     0.998     0.873   2.28   0
        84    921.2463    716.3529 300.2618121 +22.8454209     292.7495     70.33134      1.072     3.40    -3.902361     19.84261     42.92167         5     0.720     0.470   8.90   0
        85    190.9231    715.7659 300.0347490 +22.6261213     300.0818     70.33134      1.135     2.73    -4.024469     19.84261     53.41458         6     0.756     0.536  47.15   0
        86    974.5390    709.7872 300.2805596 +22.8595131     294.2604      70.2955      1.190     2.35    -3.948479     19.84261      48.9123         5     0.703     0.444  65.44   0
        87    452.5606    708.7712 300.1183542 +22.7026554     1014.771     70.34925      1.437     2.85     -3.81374     19.84261     133.1714        18     1.130     0.974   7.53   0
        88    231.0827    710.3063 300.0490024 +22.6366142     219.2366     70.49239      1.114     2.98    -3.972159     19.84261     47.95741         6     0.863     0.480  39.25   0
        89    106.6021    703.9232 300.0124098 +22.5974063     11304.22     70.24171      1.345     2.33    -4.049595     19.84261     1603.983        40     1.149     1.093  89.15   0
        90     27.2527    705.3238 299.9873161 +22.5739766     564.8915     70.34925      1.484     3.58    -4.398749     19.84261     51.00181         8     0.925     0.616 -69.55   0
        91    537.5492    703.8438 300.1463958 +22.7267452     609.8822     70.36716      1.597     4.09     -3.68337     19.84261     59.41125        10     1.108     0.725   0.58   0
        92    544.9144    694.0157 300.1518844 +22.7261355     687.1024      70.2955      0.462    -3.37    -3.607628     19.84261     507.1863         5     0.371     0.318   2.08   0
        93    955.2927    689.8237 300.2810542 +22.8480106     744.4886     70.25965      1.353     2.37    -3.855561     19.84261     95.10658        10     0.877     0.685  36.58   0
        94     52.7801    688.0613 300.0008560 +22.5766965     872.0785      70.2955      1.733     4.77    -4.243834     19.84261     77.95689        18     1.468     0.816  89.94   0
        95    822.4369    688.6779 300.2400258 +22.8078478     176.6594      70.2955      1.576     6.64    -3.900316     19.84261     31.99207         9     1.275     0.970  32.01   0
        96    501.3502    684.2495 300.1415070 +22.7102621     201.0567     70.36716      1.242     3.42    -3.650898     19.84261     35.62265         5     0.729     0.463  78.16   0
        97    895.6440    682.7314 300.2647702 +22.8280912     464.3455      70.2955      1.275     2.77    -3.853028     19.84261     46.39334         6     0.695     0.631 -43.43   0
        98    457.5280    676.6859 300.1303354 +22.6949426     333.6404     70.43874      1.482     5.50    -3.685786     19.84261     51.68481         8     1.339     0.636  67.52   0
        99    605.6165    674.9836 300.1769651 +22.7388863     200.1029      70.2955      1.301     4.84    -3.657119     19.84261      28.7608         7     1.281     0.518  26.95   0
       100    652.7602    673.8938 300.1919941 +22.7527156     241.0969     70.34925      1.171     3.39    -3.743539     19.84261     40.38741         6     0.753     0.569  45.65   0
       101    623.1904    673.7449 300.1828379 +22.7438028     321.8781     70.33134      1.232     3.54    -3.687954     19.84261     56.77645         8     0.945     0.809 -22.01   0
       102    501.7376    672.8864 300.1453234 +22.7071185      498.868     70.43874      1.685     3.85    -3.594444     19.84261      51.1557        10     1.022     0.729 -18.36   0
       103    935.5110    667.9948 300.2819886 +22.8358119     1829.572     70.24171      1.349     2.55    -3.759324     19.84261     222.5312        19     1.050     0.925  55.53   0
       104    467.3280    668.2251 300.1361355 +22.6954563     906.4581     70.34925      1.452     3.11    -3.627149     19.84261     98.26537        17     1.057     0.973 -88.76   0
       105     29.3954    662.1134 300.0020344 +22.5622368     2890.467     70.25964      1.375     2.44    -4.209136     19.84261     352.2408        24     1.126     0.969  71.59   0
       106    330.6911    655.0834 300.0979210 +22.6506810      5126.81     70.47451      1.475     2.77    -3.866229     19.84261     607.1603        32     1.191     1.116  80.80   0
       107    453.1741    652.1057 300.1369754 +22.6865849     5096.644     70.27758      1.449     2.87    -3.555553     19.84261     531.1159        33     1.179     1.127  59.18   0
       108    864.8351    645.8094 300.2671788 +22.8082528     1068.776     70.33134      1.362     2.85    -3.795084     19.84261     129.3965        16     1.016     0.902   0.94   0
       109    949.3418    643.1644 300.2943756 +22.8328274     7162.547     70.33134      1.320     2.41    -3.577942     19.84261     897.5295        33     1.101     1.049 -67.28   0
       110    513.6462    641.6263 300.1591947 +22.7017230      6735.72     70.34925      1.531     2.93    -3.360641     19.84261     692.0739        38     1.228     1.199  24.15   0
       111    241.2132    637.5520 300.0758119 +22.6187954     764.9296     70.34925      1.442     3.10    -3.780212     19.84261     90.10232        13     1.137     0.692 -84.00   0
       112    683.1164    637.7631 300.2131955 +22.7514511      310.689     70.31342      1.303     3.63    -3.573539     19.84261     36.69191         6     0.752     0.567 -37.06   0
       113    445.4453    629.8622 300.1418050 +22.6778847     2517.859     70.36716      1.498     2.81     -3.47746     19.84261     278.0027        27     1.171     1.129  46.75   0
       114    787.9865    629.6187 300.2485026 +22.7805624     381.2774      70.2955      1.403     4.65    -3.757323     19.84261     46.71354        10     0.930     0.813  74.85   0
       115    423.4462    628.5347 300.1353947 +22.6709027     689.9907     70.33134      1.537     4.16    -3.600851     19.84261     73.66905        14     1.108     0.912   0.33   0
       116    177.6431    628.0911 300.0591369 +22.5969988     413.8181     70.33134      1.551     4.96    -3.732727     19.84261     40.25372         7     0.923     0.755  22.14   0
       117    865.1029    625.0278 300.2740207 +22.8023659     854.1385     70.27758      1.417     3.64    -3.735985     19.84261     102.4484        15     1.153     0.930  -7.62   0
       118    745.5645    622.1486 300.2377190 +22.7656970     454.2836     70.34925      1.398     4.28    -3.732041     19.84261     63.47338        12     1.213     0.848   8.49   0
       119    561.9386    617.3402 300.1821183 +22.7092424     117378.3     70.36716      1.512     2.98    -3.260497     19.84261        10970       151     1.457     1.423 -19.62   0
       120    248.1580    617.5731 300.0844664 +22.6151510     2107.312     70.34925      1.455     2.84    -3.703254     19.84261     209.0841        25     1.223     1.020 -76.49   0
       121    814.2142    613.1175 300.2620388 +22.7836888     386.1663     70.31342      1.370     4.86    -3.703317     19.84261     38.70913         8     1.099     0.690 -73.65   0
       122    452.6798    597.8446 300.1544659 +22.6708698      1561.16     70.31342      1.664     3.24    -3.269247     19.84261     158.7059        22     1.209     1.058 -83.71   0
       123    849.5055    583.8259 300.2825583 +22.7858585      966.751     70.27758      1.460     2.94    -3.472677     19.84261     107.2748        15     0.990     0.912  69.00   0
       124    720.7446    581.4183 300.2432335 +22.7465615     1525.411     70.31342      1.543     2.99    -3.395915     19.84261     148.7009        23     1.305     1.044 -12.36   0
       125    965.0000    578.1697 300.3203918 +22.8188534     215.9028     70.27758      0.935     2.85    -3.313123     19.84261     47.03078         5     0.787     0.468  69.03   3
       126    963.6785    574.1085 300.3213003 +22.8172908     373.5746     70.47451      1.404     4.20    -3.301059     19.84261     51.77512         8     1.084     0.629  83.17   2
       127    507.9359    577.5558 300.1782510 +22.6816258     425.9446     70.33134      1.747     3.72    -3.049696     19.84261      37.8838         8     0.870     0.683  55.16   0
       128    977.8489    575.3867 300.3253023 +22.8219049     699.0154     70.36716      1.315     2.97    -3.333871     19.84261     92.51917        13     1.031     0.808  46.17   0
       129    850.0320    574.0383 300.2859047 +22.7832057     1384.751     70.36716      1.503     2.91    -3.385365     19.84261     136.0875        18     1.073     0.987 -81.80   0
       130    603.1991    572.1868 300.2096403 +22.7086601     318.9577     70.16993      1.244     3.98     -3.10531     19.84261     30.84695         6     0.774     0.585  43.39   0
       131    389.1885    571.7750 300.1431962 +22.6443401     222.4221     70.33134      1.389     3.69    -3.384315     19.84261     23.09475         5     1.182     0.332  79.48   0
       132    887.8640    568.8267 300.2993877 +22.7930497     2512.603     70.31342      1.372     2.68    -3.305008     19.84261      289.441        23     1.072     1.013  68.79   0
       133    979.6254    559.4423 300.3310400 +22.8178572     434.7106     70.38506      1.313     3.28    -3.285739     19.84261     48.55823         9     0.951     0.670  40.27   0
       134    119.9259    559.4766 300.0635160 +22.5599983      574.184     70.42085      1.576     3.35    -3.513127     19.84261     77.88133        12     1.096     0.771  59.78   0
       135    112.5828    549.9613 300.0643284 +22.5550656     349.2363     70.34925      1.709     5.03    -3.499115     19.84261     31.98622         9     1.451     0.493 -89.62   0
       136    661.5594    539.4294 300.2384561 +22.7167596     423.0393     70.34925      1.591     3.22    -3.065698     19.84261     49.77839         5     0.891     0.532 -50.36   0
       137    722.2145    531.8448 300.2598074 +22.7327696      477.606     70.34925      1.483     5.99    -3.119035     19.84261     48.19985        11     1.110     0.909  40.71   0
       138    879.4133    527.8597 300.3100724 +22.7787506     516.1649      70.2955      1.256     3.04    -3.148811     19.84261     67.82684         9     0.884     0.737  82.58   0
       139    863.1246    524.3885 300.3061250 +22.7728714      332.124     70.34925      1.332     3.41    -3.144251     19.84261     36.73917         5     0.736     0.457  17.05   0
       140    607.9238    522.3376 300.2273157 +22.6957686     1710.202     70.38506      1.542     3.37    -2.998919     19.84261      155.873        22     1.142     1.088 -83.36   0
       141    968.4885    520.5087 300.3402249 +22.8033352     247.2569     70.49239      1.167     3.47    -3.195829     19.84261     35.12578         6     0.901     0.423 -19.52   0
       142   1018.9387    501.0464 300.3622803 +22.8128611     813.1065     70.34925      1.402     2.86    -3.280663     19.84261     99.24164        12     0.987     0.767  28.21  16
       143    891.4013    501.6147 300.3223391 +22.7748053     154.3977     70.18788      0.997     3.70    -3.119092     19.84261     40.58253         6     0.922     0.698 -18.55   0
       144    977.3791    499.6777 300.3497676 +22.8000148     561.6514     70.33134      1.353     3.00    -3.184223     19.84261      73.3009        11     0.957     0.734  77.55   0
       145    718.3193    496.1168 300.2702074 +22.7213432     660.3596     70.47451      1.622     4.25    -3.077925     19.84261      68.0067        15     1.179     0.934  23.35   0
       146    222.6611    494.9164 300.1164150 +22.5723208     316.6837     70.43874      1.558     4.62    -3.002476     19.84261     43.31633         9     1.118     0.659  86.94   0
       147    284.8529    490.4822 300.1371835 +22.5897119     2167.003     70.36716      1.552     3.04     -3.09113     19.84261     221.5133        26     1.181     1.172  38.36   0
       148   1017.7775    488.3853 300.3660334 +22.8088753     2564.122     70.33134      1.391     2.59    -3.283227     19.84261     287.1073        23     1.138     0.921 -69.68  16
       149    232.1854    485.2198 300.1225257 +22.5723977     4287.226     70.31342      1.480     3.00    -2.937958     19.84261     405.6678        29     1.209     1.119  62.48   0
       150    372.8148    479.3708 300.1681394 +22.6129160     2757.925     70.34925      1.632     3.33    -3.028232     19.84261      243.171        28     1.263     1.156  79.09   0
       151    997.6265    479.5638 300.3626175 +22.8003028     993.7522     70.34925      1.369     2.66    -3.222316     19.84261     121.8278        15     1.005     0.880 -29.33   0
       152    616.9843    475.8566 300.2452428 +22.6851423     10539.45     70.31342      1.611     3.31    -2.999136     19.84261     924.6505        48     1.349     1.262  23.52   0
       153    950.3514    458.0786 300.3548619 +22.7799644     413.0066     70.33134      1.370     4.88    -3.059594     19.84261      48.5019         8     1.025     0.659 -34.76   0
       154    171.8196    456.2509 300.1131832 +22.5459725     1249.591     70.31342      1.566     2.86    -3.041842     19.84261     132.7412        19     1.106     1.001  37.90   0
       155    557.6044    445.4170 300.2366538 +22.6585975     3799.774     70.25965      1.660     3.34    -2.673503     19.84261     330.4554        32     1.268     1.213  78.51   0
       156    971.1199    445.4797 300.3654304 +22.7825674     575.3224     70.45663      1.411     3.20    -3.080652     19.84261     73.66629        14     1.043     0.880 -18.38   0
       157    272.7573    444.7097 300.1482978 +22.5729512     349.8756     70.33134      1.460     3.38    -2.928068     19.84261      54.5469         9     0.950     0.816  41.62   0
       158    130.4019    437.6035 300.1063763 +22.5281939      315.437     70.11604      1.194     3.94    -3.065745     19.84261     39.93873         6     0.909     0.489 -87.03   0
       159    761.9476    434.2956 300.3038850 +22.7166686     744.8299     70.40296      1.659     3.86    -3.097912     19.84261     60.28117        14     1.067     0.918  46.84   0
       160    464.3027    431.7286 300.2120730 +22.6266870     3539.534     70.43874      1.702     3.33     -2.66954     19.84261     323.7118        34     1.365     1.209  59.42   0
       161    855.9857    425.7174 300.3359679 +22.7423893     734.7199     70.31342      1.534     3.63    -3.112469     19.84261     63.42191        14     1.042     0.954  46.33   0
       162    953.7017    425.8503 300.3663789 +22.7717083     284.1462     70.40296      1.015     2.63    -3.034772     19.84261     48.52421         7     0.823     0.586 -61.74   0
       163    828.6310    413.1821 300.3315178 +22.7305904      282.225     70.31342      1.436     5.17    -3.091618     19.84261     30.47854         5     1.036     0.728 -14.45   0
       164    351.8603    410.8602 300.1838850 +22.5869707     1356.818     70.36716      1.618     3.82    -2.895241     19.84261     114.1809        23     1.250     1.156  47.99   0
       165     70.4180    408.4388 300.0972222 +22.5018263     549.8988     70.34925      1.349     3.66    -3.049453     19.84261     73.91352        13     1.218     0.738  47.52   0
       166    321.2082    400.4505 300.1777374 +22.5747884     16894.05     70.33134      1.652     3.22    -2.899319     19.84261     1600.527        61     1.437     1.307  73.13   0
       167    855.5464    397.6660 300.3449451 +22.7341990     870.8636     70.36716      1.638     3.99     -3.07647     19.84261     72.83416        16     1.150     0.936  89.03   0
       168     17.6359    388.4236 300.0873355 +22.4802437     2816.854     70.34925      1.507     2.83     -3.04495     19.84261     308.2721        27     1.204     1.093  84.25   0
       169    771.3416    386.2277 300.3224282 +22.7056780     247.9093     70.33134      1.284     4.14    -3.029697     19.84261     28.56229         6     0.744     0.658 -31.24   0
       170    731.6213    379.8145 300.3121405 +22.6919309     1106.535     70.31342      1.692     3.97    -2.985663     19.84261     97.68144        21     1.228     1.158  81.31   0
       171    946.5110    372.4521 300.3814861 +22.7542101     364.3038     70.34925      1.382     4.66    -2.973054     19.84261     34.91796         7     0.916     0.673 -79.35   0
       172    393.1385    364.8461 300.2116675 +22.5861464     1237.332     70.34925      1.897     5.24    -2.978696     19.84261     102.3765        25     1.549     1.146  53.17   0
       173    756.0416    361.1817 300.3257989 +22.6938980     1606.339     70.34925      0.478     0.83    -2.955527     19.84261     1156.493         7     0.429     0.341  88.15   0
       174    832.3965    357.4933 300.3507825 +22.7157205     455.4079     70.24171      2.007     2.98    -3.007119     19.84261     53.58177         8     1.050     0.674  -9.67   0
       175    764.1246    348.9656 300.3322845 +22.6928113     1393.125     70.33134      0.456     1.76    -2.948649     19.84261     1105.462         5     0.342     0.292 -29.63   0
       176    469.0745    344.1316 300.2420134 +22.6029732     703.8919     70.40296      1.647     5.02    -3.024463     19.84261     53.27893        15     1.184     0.949 -77.01   0
       177    713.8438    336.0924 300.3208064 +22.6740441     1247.326     70.33134      1.601     3.81    -2.903544     19.84261     112.2989        18     1.217     1.106 -65.88   0
       178    975.0969    329.9784 300.4041941 +22.7505673     1798.229     70.25964      1.383     2.97    -2.910567     19.84261     181.2177        20     1.099     0.980  75.38   0
       179     97.1144    314.2191 300.1361146 +22.4828131     808.5753     70.25964      1.677     4.88    -3.091758     19.84261     72.93159        16     1.352     0.999 -40.64   0
       180    128.3626    314.0557 300.1458731 +22.4921425     377.6661     70.33134      1.205     3.92    -3.095055     19.84261     51.08872         7     0.771     0.629  66.62   0
       181    181.7628    306.4242 300.1649399 +22.5059747     360.9921     70.34925      1.477     3.91    -3.101634     19.84261     50.47485         5     1.067     0.480  60.02   0
       182    786.1085    297.2285 300.3559355 +22.6845357     387.2556      70.2955      1.818     3.87    -2.985516     19.84261     35.28403         5     0.812     0.529 -54.86   0
       183    883.6071    286.1544 300.3899095 +22.7105654     1208.649     70.34925      1.561     3.59    -2.973845     19.84261     106.8507        18     1.080     1.039 -76.33   0
       184    302.3118    283.9068 300.2097144 +22.5356740     1212.111     70.49239      1.572     3.29    -2.899884     19.84261      139.205        20     1.131     1.046  34.26   0
       185    380.1324    279.0941 300.2354718 +22.5576312     696.2978     70.47451      1.747     5.62     -2.96337     19.84261      49.2711        14     1.242     1.027  62.18   0
       186    782.1093    277.8478 300.3609833 +22.6777690     297.3948     70.33134      1.510     4.96    -2.961337     19.84261      30.9068         8     1.128     0.617 -84.58   0
       187    196.7917    271.1756 300.1810546 +22.5003690     399.5015     70.33134      1.714     5.32    -3.064338     19.84261     37.72209         8     1.105     0.723  17.50   0
       188    734.9010    267.8605 300.3495223 +22.6607537     977.1024     70.40296      1.662     4.17    -2.937868     19.84261     88.02853        18     1.344     0.927  30.88   0
       189   1006.3776    259.9451 300.4366904 +22.7398060     415.5963     70.34925      1.296     3.93    -2.787839     19.84261     48.99898         8     0.875     0.679  39.42   0
       190    659.3163    258.5460 300.3290106 +22.6354268     675.3517     70.36716      1.623     4.77    -2.943576     19.84261     53.72884        14     1.251     0.952  40.92   0
       191    585.6135    250.1653 300.3087890 +22.6109295     622.6719     70.33134      1.878     3.47    -3.099162     19.84261     47.49648        11     0.933     0.872  49.37   0
       192    866.7108    248.9181 300.3967351 +22.6948025     476.8732     70.43874      1.597     6.16    -2.935066     19.84261     38.08117        12     1.306     0.862  50.51   0
       193    855.0581    249.8815 300.3927912 +22.6915886     873.1512     70.38506      1.571     4.88    -2.931214     19.84261     71.53428        13     1.182     0.831  -9.68   0
       194    983.6236    239.2560 300.4363134 +22.7270438     703.8835     70.34925      1.486     4.16    -2.819856     19.84261     85.49092        17     1.408     0.883 -87.06   0
       195      7.5575    236.3109 300.1336010 +22.4335908     314.0974     70.33134      1.339     5.04    -3.231402     19.84261     43.54355         7     1.111     0.746  59.53  16
       196    217.7714    232.7900 300.2000355 +22.4956464     392.4894     70.33134      1.574     4.82     -3.12822     19.84261     41.16848        10     0.973     0.907 -25.88   0
       197     79.6255    227.5205 300.1588318 +22.4526928     1262.089     70.31342      1.555     2.94    -3.250522     19.84261       145.39        22     1.393     1.060  83.12   0
       198    902.2278    223.8654 300.4159375 +22.6982411     483.1513     70.31342      1.744     5.10     -2.87346     19.84261     48.25315        10     1.123     0.883  76.96   0
       199    236.9633    220.7927 300.2098940 +22.4979595     3177.783     70.33134      1.626     3.12    -3.057024     19.84261     300.8227        30     1.264     1.183  77.81   0
       200     21.0626    215.4614 300.1445617 +22.4316621     757.8298     70.36716      1.560     3.32    -3.272099     19.84261     82.59218        15     1.054     0.957 -19.49   0
       201    220.3760    211.6240 300.2077157 +22.4903529     371.8126      70.2955      1.262     4.42    -3.037919     19.84261     49.42767         7     0.914     0.628  68.89   0
       202    880.9313    201.9002 300.4164311 +22.6855487     2141.636     70.42085      1.546     3.32    -2.691012     19.84261     196.6358        25     1.213     1.112 -89.69   0
       203    984.5191    200.5282 300.4491656 +22.7161783     1505.593     70.45663      1.456     3.28    -2.718176     19.84261     158.1953        19     1.051     1.022 -83.86   0
       204    430.3121    197.3035 300.2776303 +22.5491941     500.3234     70.51025      2.069     4.92    -2.823131     19.84261     36.90712         7     1.186     0.667 -87.51   0
       205    481.9236    184.8580 300.2977244 +22.5610920     841.4804     70.36716      1.506     3.95    -2.878951     19.84261     77.10368        16     1.115     0.997  18.09   0
       206    410.2351    185.8013 300.2751194 +22.5398721     294.0989      70.2955      1.198     3.88    -2.693018     19.84261     35.77407         6     0.785     0.550 -40.55   0
       207    121.0861    186.4084 300.1850530 +22.4533342     349.6974     70.25964      1.451     4.08    -2.831783     19.84261     35.29892         6     0.765     0.620 -50.00   0
       208    255.9129    164.6442 300.2340075 +22.4875257     3344.389     70.31342      1.597     3.24    -2.574235     19.84261     328.0412        30     1.306     1.137  86.78   0
       209    106.8021    164.2942 300.1877934 +22.4427034     424.5563     70.24171      1.688     4.53    -2.760618     19.84261     42.01732         8     1.150     0.506 -44.61   0
       210    501.8780    149.9279 300.3152691 +22.5570409     3525.213     70.43874      1.678     3.23    -2.792597     19.84261      278.363        34     1.338     1.246 -14.48   0
       211    558.9137    144.9101 300.3346452 +22.5726935      314.456     70.49239      1.813     4.51    -2.863777     19.84261      33.2919         5     1.200     0.481 -69.96   0
       212    754.5692    139.4205 300.3973417 +22.6297398     403.2637     70.33134      1.656     5.34    -2.281027     19.84261     38.19297         9     1.157     0.696 -67.82   0
       213    847.0345    138.2740 300.4265197 +22.6571071     203.6509     70.31342      1.248     4.63    -2.239142     19.84261     33.58768         5     1.208     0.504 -27.28   0
       214    630.1737    129.9044 300.3616948 +22.5897364     3558.099     70.27758      1.648     3.37    -2.486142     19.84261     302.8276        33     1.315     1.241  51.38   0
       215    553.2594    131.9136 300.3371032 +22.5672655     227.6872     70.43874      1.554     6.09    -2.776342     19.84261     39.64059         6     1.305     0.812  11.45   0
       216    405.4564    129.3105 300.2919665 +22.5222174     870.0141     70.36716      1.513     3.04    -2.467788     19.84261     82.89895        12     0.909     0.878   5.15   0
       217    670.9563    127.4683 300.3751822 +22.6012557     444.9349     70.31342      1.546     5.61     -2.41846     19.84261     43.64268         9     1.182     0.751 -17.47   0
       218    687.6846    123.6258 300.3816377 +22.6051634     349.4366     70.31342      1.710     3.47     -2.37435     19.84261     40.21165         5     0.748     0.465  13.22   0
       219    153.9344    121.6758 300.2162636 +22.4446088     429.2749     70.42085      1.839     5.13    -2.514989     19.84261     44.76423        10     1.175     0.634  82.92   0
       220    957.1584    120.5037 300.4666088 +22.6849769     183.2195     70.33134      1.295     4.09     -2.38713     19.84261     35.42421         7     1.008     0.792  38.11   0
       221    725.8400    118.2693 300.3952578 +22.6150548     271.4952      70.2955      1.575     4.60    -2.276757     19.84261     31.24541         6     0.917     0.656  62.13   0
       222    674.4854    114.6931 300.3804265 +22.5986421     1453.199     70.51025      1.641     3.54    -2.376972     19.84261     139.8323        24     1.195     1.157  23.65   0
       223    689.4965    112.8506 300.3856985 +22.6026098     354.6523     70.40296      1.470     3.51    -2.339931     19.84261     32.38997         5     1.023     0.348  -4.68   0
       224    761.0845    106.1683 300.4101616 +22.6221346     920.5651     70.31342      1.612     3.41    -2.169172     19.84261     93.10193        18     1.118     1.035  66.75   0
       225    698.5745     99.3808 300.3928960 +22.6014585     491.6518     70.33134      1.803     6.60    -2.279442     19.84261     37.70514        14     1.338     0.914 -44.78   0
       226    504.4237     99.5191 300.3324187 +22.5433243     574.2912      70.2955      1.476     3.32    -2.494221     19.84261     70.66201         8     0.947     0.576 -15.95   0
       227     77.6428     98.7482 300.2000058 +22.4151465     377.6879     70.36716      1.490     6.21    -2.471464     19.84261     33.66054        10     1.324     0.820 -18.89   0
       228    408.4983     97.0322 300.3033861 +22.5138592     533.4684     70.31342      1.811     3.47    -2.458842     19.84261     43.73932         8     0.813     0.695  16.72   0
       229    179.7128     87.3034 300.2354244 +22.4424732     2264.992     70.51025      1.589     3.00    -2.384961     19.84261     218.9329        27     1.220     1.155  83.21   0
       230    747.9703     87.8040 300.4120356 +22.6129281     342.8594      70.2955      1.469     3.35    -2.168399     19.84261     40.19377         6     0.899     0.451 -33.57   0
       231    295.8849     79.4738 300.2740679 +22.4750583     637.9777     70.43874      1.564     3.54    -2.326326     19.84261      76.7356        12     1.025     0.908  -3.39   0
       232    740.8415     79.0784 300.4126463 +22.6082848     576.1773     70.31342      1.759     6.79    -2.187106     19.84261     47.35736        14     1.472     0.878  12.10   0
       233    778.8832     74.4200 300.4260069 +22.6183402     383.2782     70.27758      2.010     5.38    -2.048782     19.84261     34.12827         7     1.571     0.520  44.31   0
       234    798.7780     70.7254 300.4334031 +22.6232367     1232.806     70.33134      1.582     3.29    -1.967347     19.84261     121.2162        19     1.135     1.033  71.20   0
       235    182.2800     66.1036 300.2430996 +22.4371571     487.0075     70.45663      1.447     3.73    -2.311545     19.84261     56.65839        10     0.982     0.780  46.97   0
       236    973.7525     63.7412 300.4902000 +22.6736229     326.5609     70.38506      1.265     2.94    -2.258188     19.84261     57.11443         8     0.936     0.690 -28.27   0
       237    747.1174     63.2298 300.4197427 +22.6056093     566.4697     70.34925      1.869     4.47    -2.159025     19.84261     52.36369         9     1.090     0.769 -83.98   0
       238    599.8926     48.2141 300.3787734 +22.5571908     420.0306     70.25965      1.438     3.70    -2.167443     19.84261     46.53956         8     0.973     0.751  -0.90   0
       239    209.2191     45.1994 300.2582511 +22.4392333     313.1054     70.25964      1.695     4.83    -2.272743     19.84261     33.28853         7     0.831     0.796  61.13   0
       240    762.4632     43.2215 300.4310135 +22.6044542     458.5923     70.31342      1.592     4.79    -2.072095     19.84261     59.51233         8     1.031     0.630 -29.60   0
       241    571.3925     41.2830 300.3721512 +22.5466603     925.2833     70.25965      1.572     3.37    -2.137847     19.84261     100.6504        19     1.111     1.080  56.68   0
       242    294.3093     38.8263 300.2867640 +22.4629138     438.9111     70.27758      1.927     5.95    -2.262308     19.84261      37.0602         9     1.141     0.871  18.89   0
       243      8.6553     37.2365 300.1985383 +22.3768009     512.6076     70.34925      1.773     5.82    -2.599557     19.84261     49.81383        10     1.365     0.793 -28.22  16
       244    528.5862     35.2048 300.3608016 +22.5320881     704.5082     70.20583      1.692     3.77    -2.068112     19.84261       79.116        15     1.105     1.009 -26.54   0
       245    634.1650     31.8916 300.3947368 +22.5627678     694.6174     70.31342      1.605     4.40    -2.114357     19.84261     74.59839        13     1.131     1.052 -69.24   0
       246    229.5454     30.8495 300.2692221 +22.4412074     175.1025     70.36716      1.302     2.08    -2.274114     19.84261      48.0918         5     0.679     0.475  72.02   0
       247    454.4936     25.5770 300.3408728 +22.5071197     1120.554     70.24171      1.605     3.83    -1.908089     19.84261     98.25831        20     1.208     1.053 -56.08   0
       248    101.8072     23.6072 300.2318854 +22.4008264     772.7097     70.18788      1.531     3.65     -2.12078     19.84261     80.19953        13     0.956     0.918  -8.96   0
