#   1 NUMBER                 Running object number                                     
#   2 X_IMAGE                Object position along x                                    [pixel]
#   3 Y_IMAGE                Object position along y                                    [pixel]
#   4 ALPHA_J2000            Right ascension of barycenter (J2000)                      [deg]
#   5 DELTA_J2000            Declination of barycenter (J2000)                          [deg]
#   6 FLUX_APER              Flux vector within fixed circular aperture(s)              [count]
#   7 FLUXERR_APER           RMS error vector for aperture flux(es)                     [count]
#   8 FLUX_RADIUS            Fraction-of-light radii                                    [pixel]
#   9 FWHM_IMAGE             FWHM assuming a gaussian core                              [pixel]
#  10 BACKGROUND             Background at centroid position                            [count]
#  11 THRESHOLD              Detection threshold above background                       [count]
#  12 FLUX_MAX               Peak flux above background                                 [count]
#  13 ISOAREA_IMAGE          Isophotal area above Analysis threshold                    [pixel**2]
#  14 A_IMAGE                Profile RMS along major axis                               [pixel]
#  15 B_IMAGE                Profile RMS along minor axis                               [pixel]
#  16 THETA_IMAGE            Position angle (CCW/x)                                     [deg]
#  17 FLAGS                  Extraction flags                                          
         1    165.3880     17.9900 300.2567700 +22.4137844     678.3615     70.12023      1.766     4.43    -2.085622     19.81335     68.49519        15     1.256     0.927  77.58   0
         2    429.3012   1021.7731 300.0125752 +22.7809218     276.8835     63.91579      1.128     2.18     -5.25411     19.81335     66.44632         6     0.804     0.494  48.20  16
         3    103.9032   1023.0912 299.9110275 +22.6835462     1064.955     57.89297      9.585    13.90     4.531883     19.81335     61.66941        33     3.245     1.655  -4.66  27
         4     91.1369   1004.4476 299.9131346 +22.6743702     2074.044     70.24552      9.892    24.56     1.978221     19.81335     52.71469       119     5.289     3.166 -10.02  27
         5     85.8691   1015.9749 299.9077450 +22.6760886     2092.136     70.22764      8.890    24.53     2.329173     19.81335     49.25224       141     4.547     3.674  62.22  19
         6     94.1058   1017.0350 299.9099574 +22.6788675     1963.486     70.22764     11.826    18.64     3.533113     19.81335      46.6029        77     3.761     2.566 -35.99  27
         7    942.8587   1013.2149 300.1752478 +22.9326146     1158.094     70.20975      1.078     1.79    -5.232702     19.81335      248.342        13     0.833     0.777  49.91   0
         8    731.9648   1002.3646 300.1130805 +22.8662218     364.0241     70.29916      1.462     4.67    -5.145282     19.81335     52.55236         9     1.337     0.606  70.74   0
         9     75.1859   1022.8433 299.9021912 +22.6748452     1055.697     59.03181      6.161    13.66     1.241715     19.81335     39.11406        33     3.944     1.316  -2.98  27
        10    766.5958    996.6160 300.1257373 +22.8749659     605.1141     70.12023      1.082     2.18     -5.19496     19.81335     94.50063        10     0.826     0.711  44.88   0
        11    788.7715    990.2122 300.1347296 +22.8797836     6527.728     70.22764      1.168     1.91    -5.208685     19.81335     1177.501        28     0.952     0.933  38.26   0
        12    979.6151    989.5230 300.1944212 +22.9368421     261.1284     70.24552      0.919     2.72    -5.057818     19.81335     55.91251         5     0.712     0.452 -22.79   0
        13    100.3077    982.2966 299.9231951 +22.6707815     290.2404     70.40629      1.040     3.16    0.5879208     19.81335     57.43453         7     0.991     0.461  59.24   0
        14    840.5080    977.9941 300.1548248 +22.8918024     287.4367     70.13815      1.231     2.10    -5.242796     19.81335     45.80882         6     0.728     0.500  88.26   0
        15     90.4685    973.7980 299.9229070 +22.6653907     116.2232     70.19186      1.073     4.54   -0.7129633     19.81335     34.41191         5     0.821     0.713  45.43   0
        16    797.2625    972.3027 300.1432067 +22.8771939     707.3943     70.31702      1.121     2.12    -5.124473     19.81335     129.4058        12     0.892     0.745 -77.67   0
        17    980.3177    971.3776 300.2005496 +22.9318455     265.1495     70.19186      1.072     2.26    -5.050029     19.81335     60.16963         5     0.705     0.438  22.05   0
        18    649.6263    969.2401 300.0982326 +22.8320093     414.0549     70.28128      1.272     2.80    -5.108958     19.81335     43.72304         5     0.727     0.447 -71.20   0
        19    835.5229    965.7910 300.1572457 +22.8868057     410.8572     70.19186      1.044     2.16    -5.180488     19.81335     77.85797         9     0.782     0.688 -20.51   0
        20    883.7430    956.6918 300.1752326 +22.8986616      494.298     70.28128      1.321     2.67      -5.2075     19.81335     75.91151         7     0.885     0.537  51.44   0
        21    735.2065    955.8420 300.1292400 +22.8538507     338.0742     70.24552      1.147     2.46    -4.902783     19.81335     69.96701         8     0.784     0.685   3.11   0
        22    447.9721    952.6335 300.0408963 +22.7667104     2337.374     70.24552      1.230     2.22    -5.148633     19.81335     367.8745        21     0.979     0.932  36.56   0
        23    746.4619    952.9514 300.1336862 +22.8563991     299.5038     70.28128      1.062     2.76    -4.900239     19.81335     52.92898         8     0.828     0.632  -0.43   0
        24    490.8044    940.8845 300.0580440 +22.7762022      146.791     70.15605      1.401     5.02    -5.133649     19.81335     35.10057         7     0.943     0.756  89.67   0
        25    226.3166    941.5527 299.9756011 +22.6969665     252.9515     70.22764      1.205     2.97    -3.714767     19.81335     38.35534         5     0.703     0.481 -14.09   0
        26    109.4214    941.1741 299.9394139 +22.6617405     91.56852     70.20975      0.795     3.45    -3.356041     19.81335     30.18898         5     0.746     0.461  72.53   0
        27    173.2340    938.4521 299.9601194 +22.6801322     477.1552     70.24552      1.155     2.85     -3.70037     19.81335       69.024         7     0.786     0.608 -19.23   0
        28    150.4152    935.5565 299.9539743 +22.6724474     838.6693     70.24552      1.140     2.26    -3.837012     19.81335     131.3653        12     0.850     0.783 -89.83   0
        29     25.0480    925.5244 299.9183117 +22.6319058     294.1047     70.22764      1.140     2.83    -5.088112     19.81335      48.0743         5     0.713     0.606 -79.56   0
        30   1021.7584    923.9473 300.2289137 +22.9306611     1056.269     64.05322      1.097     1.85    -4.916573     19.81335     242.9498        12     0.795     0.731  68.02  16
        31    976.0242    922.5526 300.2151096 +22.9165449     1291.438     70.24552      1.087     1.83    -5.004911     19.81335     224.9919        15     0.900     0.772 -19.35   0
        32    681.3998    922.1714 300.1234494 +22.8280456      202.108     70.19186      1.373     3.44    -5.020705     19.81335     28.02503         5     0.801     0.428  69.44   0
        33    182.3828    917.0511 299.9699283 +22.6767488     252.9894     70.22764      1.026     4.35    -4.524164     19.81335     56.02982         7     1.032     0.612  70.45   0
        34    759.6641    916.1385 300.1497836 +22.8498001     253.9141      70.2634      1.097     2.96    -4.771639     19.81335     45.20671         5     0.750     0.431 -71.71   0
        35    627.8561    910.6179 300.1105430 +22.8086627     2791.306     70.20975      1.269     2.28    -4.999765     19.81335     365.4707        21     1.000     0.936  57.11   0
        36    117.2452    911.6544 299.9514532 +22.6556345     50.39632      70.2634      0.875     2.50    -4.540056     19.81335     43.60727         5     0.729     0.435 -19.10   0
        37    430.2732    907.7235 300.0500130 +22.7485216     351.9979     70.29916      1.211     2.95    -4.969292     19.81335      50.0364         7     0.829     0.602  63.40   0
        38    178.2533    904.7459 299.9726511 +22.6719826     751.8496      70.2634      1.211     2.72    -4.545713     19.81335     100.4999        11     0.943     0.710 -84.12   0
        39    648.2150    903.0990 300.1193278 +22.8126162     319.5662     70.13815      1.197     2.73    -4.953276     19.81335     69.82895         9     0.877     0.705  56.62   0
        40   1020.7271    890.3295 300.2395371 +22.9207017        620.2     67.78831      1.021     1.96    -4.650337     19.81335     117.4423         9     0.737     0.664  52.73  16
        41    803.7404    890.2568 300.1719377 +22.8555984     2323.338     70.29916      1.227     2.26    -4.699346     19.81335     350.0585        19     0.939     0.901 -48.06   0
        42    212.1310    884.7378 299.9896883 +22.6764253     330.0663      70.2634      1.373     2.96    -4.563664     19.81335     44.51332         6     0.819     0.585  83.98   0
        43    520.8926    882.8767 300.0862882 +22.7686021     286.6758      70.3706      1.278     2.78    -4.711272     19.81335     42.21488         8     0.816     0.641 -46.89   0
        44    167.4115    881.1580 299.9769609 +22.6619671     558.1551     70.22764      1.239     2.88    -4.591327     19.81335     69.07219        10     0.883     0.735  -1.81   0
        45    316.9744    873.1984 300.0260254 +22.7046049     30835.57     70.17396      1.369     2.46    -4.747374     19.81335     3923.271        68     1.240     1.177  78.13   0
        46    574.6909    871.9911 300.1065707 +22.7816280     907.9036     70.15605      1.320     2.38    -4.720476     19.81335     134.8587        17     1.075     0.975 -74.59   0
        47    245.2506    871.6760 300.0042303 +22.6826293     357.9938     70.22764      1.336     4.13    -4.643981     19.81335     44.48445         6     0.781     0.625 -76.87   0
        48    987.4958    871.0056 300.2354671 +22.9051894     471.4517     70.13815      1.075     1.98    -4.651152     19.81335     97.85735         9     0.803     0.622 -29.99   0
        49    603.6558    868.0345 300.1168725 +22.7891863      378.049     70.24552      1.257     3.09    -4.745005     19.81335     61.69888         9     0.921     0.660 -68.84   0
        50      3.0993    867.8670 299.9302651 +22.6087957     490.9128     63.48193      1.276     2.52     -4.78929     19.81335     75.49947        10     0.851     0.727 -81.01  16
        51    614.7384    866.5120 300.1208174 +22.7920755     311.3743     70.31702      1.300     3.11    -4.748348     19.81335     54.09472         9     0.929     0.759  49.56   0
        52    757.7911    852.8105 300.1698150 +22.8310689     465.1019     70.12023      1.270     3.48     -4.62333     19.81335     64.22002        10     1.028     0.679 -19.16   0
        53    380.7950    851.0460 300.0530756 +22.7174175     1161.186     70.22764      1.405     3.00    -4.627203     19.81335     139.9898        18     1.165     0.969 -70.57   0
        54    366.6546    850.4280 300.0488803 +22.7129948      18220.1     70.22764      1.388     2.46    -4.608703     19.81335     2354.927        54     1.219     1.165  70.95   0
        55    889.5885    845.8682 300.2131330 +22.8686115     1697.857     70.24552      1.272     2.30    -4.500845     19.81335     246.0303        21     0.994     0.962 -43.34   0
        56    378.2049    844.4713 300.0544100 +22.7147549     395.4616     70.17396      1.434     3.22    -4.592716     19.81335     52.75246         5     0.738     0.467  17.89   0
        57    647.2958    842.2014 300.1388638 +22.7948722     433.8046     70.13815      1.117     2.30    -4.690607     19.81335     77.40723         9     0.856     0.622 -61.15   0
        58    249.2219    842.3727 300.0150010 +22.6754235     470.4103     70.22764      1.300     3.95    -4.624518     19.81335     66.29855         8     1.072     0.562  89.83   0
        59     54.0533    838.2736 299.9557138 +22.6156270     227.9357     70.24552      1.166     3.49    -4.587124     19.81335     42.61373         7     0.735     0.671  65.50   0
        60    494.7695    836.7120 300.0931867 +22.7475223     465.4387     70.20975      1.276     4.21    -4.428174     19.81335     66.05981         9     1.055     0.656  43.92   0
        61    895.8144    833.7443 300.2190192 +22.8669989      290.767     70.20975      1.251     3.92    -4.399174     19.81335     40.89474         8     0.831     0.690 -42.17   0
        62     82.0606    831.8767 299.9664915 +22.6222079     253.4602     70.28128      1.302     3.76    -4.564621     19.81335     40.39402         5     0.664     0.611  83.65   0
        63    246.9493    826.4484 300.0194769 +22.6701768     355.0583      70.2634      1.176     3.05    -4.593837     19.81335     45.68499         5     0.736     0.602 -80.89   0
        64    539.8204    815.2607 300.1141833 +22.7548918     395.3829     70.17396      1.512     4.61    -4.416136     19.81335     36.28703         6     1.077     0.560 -24.13   0
        65    561.4395    812.4115 300.1218374 +22.7605627     753.7748     70.20975      1.442     3.44    -4.461636     19.81335     84.05157        14     0.982     0.933  51.31   0
        66    955.8741    811.1791 300.2450817 +22.8785327     2492.879     70.22764      1.263     2.27    -4.218747     19.81335     373.0376        20     0.953     0.941  41.63   0
        67    944.3717    802.5923 300.2442907 +22.8726185     935.3159     70.22764      1.174     2.24    -4.140503     19.81335     126.2365        13     0.873     0.784 -54.79   0
        68    307.5670    796.8575 300.0479445 +22.6798962     529.7197     70.24552      1.551     3.83    -4.513799     19.81335     64.00239        12     1.227     0.691 -84.41   0
        69    770.5782    794.1147 300.1928994 +22.8180621     1414.125     70.17396      1.521     3.07    -4.257389     19.81335     140.3319        19     1.108     1.003 -46.21   0
        70    975.4991    792.6175 300.2572396 +22.8790883     817.1877     70.13815      1.171     2.22     -4.10974     19.81335     122.1837        12     0.827     0.789 -63.98   0
        71    156.2939    780.9093 300.0061293 +22.6298997     339.6828     70.38844      1.071     3.67    -4.471358     19.81335     41.49353         6     1.002     0.496  40.31   0
        72    852.9549    779.5086 300.2233137 +22.8385777     228.0605     70.20975      1.137     4.18    -3.946509     19.81335     48.55568         6     0.945     0.534 -73.09   0
        73    889.0842    770.8288 300.2373957 +22.8469210     83886.84     70.22764      1.345     2.46     -3.96264     19.81335     10867.27       111     1.285     1.229  71.44   0
        74    741.7568    771.3393 300.1913340 +22.8028807     492.9794     70.22764      1.663     3.90    -4.263512     19.81335     48.29383         9     0.931     0.775 -39.15   0
        75    921.9417    763.6844 300.2499601 +22.8547228     131.6939     70.33488      1.134     3.81    -4.027545     19.81335     39.76676         5     0.834     0.500  56.58   0
        76    575.5920    759.9154 300.1433224 +22.7497509     1005.956     70.15605      1.459     2.95    -4.227413     19.81335      102.368        17     1.073     0.925 -79.31   0
        77    756.5723    757.0718 300.2005900 +22.8032302     5359.954     70.20975      1.425     2.79    -4.097038     19.81335     581.0615        29     1.118     1.080  75.27   0
        78    258.2665    752.5286 300.0470442 +22.6523856     2967.435      70.2634      1.424     2.57    -4.404855     19.81335     355.4511        26     1.129     1.077 -85.53   0
        79    340.4131    750.4544 300.0732516 +22.6764532     648.7072     70.22764      1.460     3.21    -4.134058     19.81335     78.78022        12     1.031     0.793  54.20   0
        80    548.6584    746.4642 300.1393174 +22.7378102     549.5071      70.2634      1.827     6.32    -3.907691     19.81335     42.95808        14     1.392     1.070 -77.74   0
        81    540.1838    738.0893 300.1394050 +22.7328648     1936.598     70.15605      1.516     3.17    -3.784055     19.81335     190.1702        25     1.185     1.132  82.54   0
        82    530.4261    731.8825 300.1383881 +22.7281563      841.911     70.20975      1.578     3.56    -3.693017     19.81335     68.60992        15     1.050     0.929 -70.15   0
        83    194.1882    728.0981 300.0350809 +22.6261421     362.2027     70.12023      1.303     2.92    -4.319618     19.81335     49.70722         6     0.849     0.490  53.85   0
        84    207.9357    726.9068 300.0397395 +22.6299285     400.5083     70.33488      1.414     4.36    -4.314831     19.81335      53.1633         8     0.988     0.590 -21.72   0
        85    455.3960    721.7786 300.1183341 +22.7027421      1065.57     70.19186      1.496     3.14    -3.470127     19.81335     125.6312        18     1.140     1.013 -86.94   0
        86    554.2094    722.4101 300.1488696 +22.7325753     291.2803     70.12023      1.545     3.72    -3.712124     19.81335     23.73783         5     1.002     0.396 -84.16   0
        87    233.9349    723.4684 300.0489362 +22.6367491     254.1202     70.28128      1.294     4.14    -4.297859     19.81335     45.59226         6     0.980     0.499   0.25   0
        88    109.2854    716.7992 300.0123837 +22.5974079     11411.88     70.12023      1.387     2.56    -4.024831     19.81335     1368.404        44     1.204     1.159  74.09   0
        89     29.7812    718.4730 299.9871527 +22.5740095     375.4314     70.22764      1.710     5.63    -4.064321     19.81335     34.81593        10     1.014     0.880  58.10   0
        90    540.1676    716.8754 300.1463007 +22.7267742     501.2033     70.22764      1.351     4.30    -3.570097     19.81335     55.40265         8     0.837     0.677  45.26   0
        91     55.2454    701.2449 300.0006618 +22.5767205     817.8485      70.2634      1.707     5.81    -3.833474     19.81335     79.37686        17     1.554     0.865  88.28   0
        92    958.0568    702.7562 300.2810385 +22.8480572      519.579     70.22764      1.264     2.87     -3.92641     19.81335     76.17462        11     0.865     0.817  80.89   0
        93    121.6903    701.7388 300.0211345 +22.5968165     421.5016     70.31702      1.737     5.69    -3.991611     19.81335     29.58909         9     1.189     0.766  71.07   0
        94    898.3304    695.6364 300.2647390 +22.8281064     395.5497     70.20975      1.520     3.18    -3.730717     19.81335     52.40877         9     1.012     0.668 -42.67   0
        95    296.4014    696.2203 300.0772117 +22.6476901      167.369     70.15605      1.237     3.46    -4.137157     19.81335     24.33623         5     0.768     0.451  71.96   0
        96    460.7186    690.5475 300.1301479 +22.6953812     261.3957      70.2634      1.118     3.04    -3.362998     19.81335     57.24754         7     0.943     0.458 -13.75   0
        97    626.2195    686.2861 300.1830304 +22.7438149     441.3829     70.15605      2.187     3.68     -3.79571     19.81335     37.08252         5     0.954     0.407 -85.14   0
        98    504.1173    685.8185 300.1451860 +22.7070474     550.1849     70.19186      1.717     4.93    -3.303978     19.81335     50.15338         9     1.007     0.781  25.10   0
        99    937.8878    680.7892 300.2818969 +22.8357028     2013.096     70.17396      1.399     2.74    -3.743697     19.81335     246.2333        24     1.210     1.070 -42.52   0
       100    469.9413    681.0523 300.1361047 +22.6954250     967.3851     70.28128      1.594     4.15     -3.32093     19.81335     86.82945        19     1.206     1.062  81.02   0
       101     32.0114    675.0347 300.0019720 +22.5622310     2936.363     70.20975      1.427     2.65    -3.492948     19.81335     357.3903        28     1.239     1.037  72.23   0
       102    333.4920    668.0493 300.0979028 +22.6507452     5217.843      70.2634      1.522     2.96    -3.682499     19.81335      550.777        29     1.190     1.133  78.60   0
       103    455.8277    665.0239 300.1369274 +22.6865919     5209.335     70.20975      1.577     3.20    -3.319368     19.81335     475.9353        33     1.281     1.153  77.06   0
       104    867.2550    658.4901 300.2671370 +22.8081237     1118.058      70.2634      1.522     3.99    -3.593055     19.81335     95.84583        18     1.197     1.013 -88.69   0
       105    951.9297    655.9150 300.2943638 +22.8327692      7219.93     70.33488      1.408     2.74    -3.751518     19.81335     807.7302        38     1.182     1.113  85.34   0
       106    516.4401    654.5424 300.1591913 +22.7017718     6621.909     70.20975      1.624     3.32    -3.162499     19.81335     637.5854        38     1.316     1.195  84.92   0
       107    243.9179    649.9921 300.0759342 +22.6186795     718.9477     70.15605      1.436     3.76     -3.92387     19.81335     82.93227        14     1.176     0.808  86.18   0
       108    491.5719    647.0754 300.1538829 +22.6921682     253.3862     70.24552      2.172     4.78    -3.282283     19.81335     42.02941         5     1.092     0.594  -2.95   0
       109    448.0626    642.7335 300.1417608 +22.6778674     2599.557     70.28128      1.605     3.22    -3.373272     19.81335       258.45        27     1.278     1.116 -89.28   0
       110    790.6790    642.2988 300.2485455 +22.7805146     408.4369     70.35275      1.305     4.34    -3.778563     19.81335     49.10759        11     1.117     0.718  11.58   0
       111    426.5320    641.0631 300.1356077 +22.6709275     747.9348     70.28128      1.626     4.15    -3.391135     19.81335     78.82721        15     1.274     0.950 -82.64   0
       112    181.2588    640.6225 300.0595123 +22.5971823     406.2195     70.22764      1.624     2.76    -3.896171     19.81335     54.04708         6     0.883     0.436 -87.05   0
       113    867.6255    637.8029 300.2739801 +22.8022948     841.8587     70.17396      1.530     3.71    -3.556038     19.81335     76.78323        15     1.047     0.940 -10.95   0
       114    748.1638    635.1728 300.2376208 +22.7657199     345.6293     70.22764      1.378     3.65    -3.656668     19.81335     48.83059        10     1.051     0.748  70.03   0
       115    564.6467    630.2362 300.1820948 +22.7092601     117753.3      70.2634      1.657     3.37    -2.971617     19.81335     10224.78       146     1.498     1.487  67.86   0
       116    250.9030    630.3459 300.0844930 +22.6151428      1857.37     70.31702      1.503     3.07    -3.752742     19.81335     185.2375        25     1.229     1.050  82.75   0
       117    816.6857    625.9679 300.2619575 +22.7836239     253.7494     70.20975      1.285     4.39    -3.705889     19.81335     32.78902         7     0.770     0.712  70.05   0
       118    455.2349    610.4998 300.1544725 +22.6707720     1507.433     70.20975      1.710     3.49    -3.441204     19.81335     144.4418        22     1.317     1.019 -57.76   0
       119    852.1047    596.4090 300.2826037 +22.7857555     1004.512     70.13815      1.550     3.67    -3.541078     19.81335     90.00652        18     1.167     0.991  50.37   0
       120    723.3642    594.3506 300.2431711 +22.7465642     1430.266     70.24552      1.662     3.82    -3.252682     19.81335     116.6155        22     1.311     1.057  -8.26   0
       121    966.2559    587.1903 300.3211772 +22.8173251       696.29     70.22764      2.242     4.07    -3.484052     19.81335     57.78162        10     1.088     0.648 -68.50   2
       122    510.8319    590.3364 300.1783231 +22.6816668     409.5301     70.22764      1.422     4.80    -3.090502     19.81335     39.69014         9     0.950     0.863 -25.78   0
       123    980.7883    588.0151 300.3254394 +22.8219175     705.3809     70.17396      1.476     3.42    -3.453987     19.81335     69.33324        14     1.064     0.873  28.73   0
       124    852.1894    586.6943 300.2857886 +22.7829912     1296.306     70.17396      1.734     4.28    -3.539363     19.81335     100.6623        22     1.309     1.140 -83.60   0
       125    605.9402    584.8559 300.2097008 +22.7086231     330.7741     70.29916      1.573     5.91     -2.83743     19.81335     31.49956         7     1.406     0.700 -68.24   0
       126    890.4731    581.6002 300.2993743 +22.7930047     2471.598     70.10231      1.533     3.09    -3.523707     19.81335     225.4748        29     1.204     1.177  12.06   0
       127    982.2300    572.1454 300.3310485 +22.8177911     361.3769     70.24552      1.387     3.37    -3.322914     19.81335     45.39098         9     0.968     0.645  59.78   0
       128    123.0010    572.6957 300.0634992 +22.5602169      469.834     70.12023      1.458     3.51    -3.627565     19.81335     59.58104        11     0.960     0.875  61.57   0
       129    664.0668    552.2221 300.2384036 +22.7166885     389.6054     70.22764      1.649     6.56    -2.938565     19.81335     32.66998         9     1.383     0.873 -44.57   0
       130    724.9723    544.4183 300.2599044 +22.7327111      497.183     70.22764      1.637     5.65    -2.937117     19.81335      45.0449        13     1.106     1.019  25.36   0
       131    978.4771    544.2311 300.3389531 +22.8086476     212.0032     70.20975      1.343     3.85    -3.133962     19.81335     33.75846         5     0.791     0.708 -25.60   0
       132    881.8768    540.4216 300.3100821 +22.7786014      609.801     70.22764      1.712     4.84    -3.494162     19.81335     52.03592         9     0.966     0.687  66.93   0
       133    866.2350    536.4360 300.3065034 +22.7727682       324.02     70.29916      1.378     5.19    -3.495221     19.81335     33.84825         9     1.202     0.634  85.27   0
       134    610.6812    535.1499 300.2273344 +22.6957780      1907.83     70.24552      1.732     3.72    -2.838733     19.81335      142.783        25     1.230     1.184  76.27   0
       135    970.9761    533.3932 300.3401376 +22.8032863     236.8302     70.20975      1.231     4.03    -3.172317     19.81335     44.86068         6     1.132     0.618  21.70   0
       136   1021.7653    513.9979 300.3622770 +22.8129335     668.9924     63.91579      1.341     2.97    -2.763365     19.81335     79.78226        12     0.915     0.849  86.42  16
       137    893.3004    513.7162 300.3223224 +22.7743549     313.1047     70.38844      1.530     4.53    -3.483251     19.81335     46.25391         6     0.979     0.596 -63.80   0
       138    980.3156    512.3317 300.3498951 +22.8000345     454.0329     70.33488      1.321     4.27    -3.078932     19.81335     58.68707        12     1.088     0.782 -78.75   0
       139    721.2953    508.8888 300.2703076 +22.7214073     616.4804     70.40629      1.684     4.84     -2.94409     19.81335     53.78044        16     1.176     1.092 -34.23   0
       140    225.5234    507.6336 300.1164952 +22.5723325     498.1258     70.22764      1.650     4.05    -3.519421     19.81335     34.79227         7     0.984     0.476 -79.99   0
       141    287.4255    503.2526 300.1371567 +22.5896523     2220.298     70.24552      1.747     4.01    -3.443864     19.81335     184.7194        28     1.339     1.204 -67.67   0
       142   1020.3368    501.0491 300.3660402 +22.8087850     2385.972     68.85474      1.432     2.94    -2.758381     19.81335     243.3986        24     1.139     1.041  15.69  16
       143    234.8339    498.0522 300.1225020 +22.5723785     4363.999     70.24552      1.597     3.18    -3.468179     19.81335     385.1396        32     1.297     1.148 -86.97   0
       144   1000.3646    492.4241 300.3626160 +22.8003225     963.8408     70.24552      1.379     3.77     -2.89909     19.81335     107.7641        17     1.197     0.897 -83.17   0
       145    375.5550    492.1901 300.1681492 +22.6129212     2793.677     70.24552      1.779     3.61     -3.29818     19.81335     236.5243        34     1.369     1.276 -51.00   0
       146    619.7112    488.7059 300.2452397 +22.6851536     10613.12     70.40629      1.735     3.74    -2.852983     19.81335     752.0911        50     1.418     1.332  69.84   0
       147    182.1332    489.8825 300.1087821 +22.5542190     4368.576     70.33488      0.537     2.42    -3.441369     19.81335     2310.077         8     0.430     0.409  69.51   0
       148    637.3316    489.1744 300.2505724 +22.6905717     404.7751     70.20975      2.131     5.15      -2.8799     19.81335      31.3555         8     1.384     0.541 -32.25   0
       149    240.2320    476.5775 300.1311577 +22.5678385      95.1354     70.22764      1.327     4.91    -3.359221     19.81335     30.25976         5     1.024     0.720 -71.98   0
       150    953.4910    471.0123 300.3549614 +22.7801254     341.3152     70.17396      1.518     4.46    -3.202727     19.81335      37.2435         8     0.980     0.632  46.25   0
       151    174.5023    469.1303 300.1131546 +22.5459769      1141.58     70.35275      1.604     3.32    -3.361416     19.81335     114.8697        19     1.164     1.047  89.94   0
       152    560.3095    458.0466 300.2367148 +22.6585390     3688.928     70.20975      1.777     3.83    -2.925156     19.81335     267.8284        35     1.393     1.270  75.29   0
       153    973.8427    458.1362 300.3654900 +22.7825241     618.3574     70.22764      1.414     3.54    -3.034237     19.81335     64.41902        14     1.020     0.949  74.08   0
       154    276.5019    458.3163 300.1483632 +22.5734834     415.1305     70.38844      1.675     3.94    -3.168028     19.81335     38.79999         6     0.996     0.462 -33.84   0
       155    764.3302    447.2485 300.3037414 +22.7166075     700.0676     70.22764      1.719     4.14    -3.065197     19.81335     62.71404        16     1.130     0.999  50.17   0
       156    675.5667    447.8578 300.2759016 +22.6901730     234.5278     70.24552      1.589     4.55     -2.93557     19.81335     28.17531         5     0.837     0.703 -33.81   0
       157    466.9234    444.4341 300.2120826 +22.6266246     3563.788     70.22764      1.787     3.88    -2.774962     19.81335     269.3042        30     1.340     1.221  75.71   0
       158    858.9305    438.7641 300.3359694 +22.7425241     818.6112     70.22764      1.762     5.00    -3.144715     19.81335     67.97164        15     1.186     0.948 -51.78   0
       159    955.8484    438.1940 300.3663605 +22.7714026     287.6475     70.20975      1.601     4.34    -3.036185     19.81335     32.35516         5     0.797     0.674  38.41   0
       160    354.4515    423.7564 300.1838229 +22.5869537     1393.511      70.2634      1.723     4.03    -3.075033     19.81335     126.0453        26     1.346     1.180  82.32   0
       161     73.0755    421.0982 300.0972564 +22.5017598     575.4219     70.35275      1.442     4.05    -3.359591     19.81335     64.41365        11     1.156     0.668  63.21   0
       162    323.8730    413.2180 300.1777397 +22.5747564     16829.33     70.22764      1.734     3.54    -2.961592     19.81335     1375.271        57     1.450     1.348 -88.35   0
       163    858.4891    410.1117 300.3451410 +22.7341607     768.7114     70.38844      1.704     4.75    -2.922424     19.81335     68.47397        16     1.357     0.917  65.32   0
       164     20.2030    401.2716 300.0872800 +22.4802040      2935.68     70.17396      1.544     2.90    -3.229977     19.81335     295.5275        28     1.202     1.126 -51.31   0
       165    734.1766    392.7224 300.3120649 +22.6919087     1139.082     70.22764      1.642     3.57    -2.765589     19.81335     101.2357        22     1.232     1.085  64.94   0
       166    949.3020    385.5997 300.3814070 +22.7543287      381.209     70.10231      1.438     4.30    -2.941083     19.81335     36.94274         7     0.944     0.558 -52.54   0
       167    396.0070    377.5338 300.2117593 +22.5861533      1200.25     70.22764      1.848     4.94    -2.551697     19.81335      100.369        22     1.445     1.113  70.34   0
       168    834.8831    370.1840 300.3507564 +22.7156160     356.1804     70.19186      1.527     4.31    -2.725259     19.81335     36.62552         8     0.843     0.754  -6.85   0
       169    471.7704    356.7241 300.2420826 +22.6029015     680.5093     70.22764      1.809     6.08    -2.279183     19.81335     51.34385        14     1.230     1.019  66.04   0
       170    716.5935    348.5977 300.3209217 +22.6739649     1211.783     70.04853      1.810     4.17    -2.589057     19.81335     87.69868        22     1.333     1.121 -12.75   0
       171    977.8672    342.6309 300.4042692 +22.7505378     1810.791     70.22764      1.583     3.40    -2.905442     19.81335     166.8491        23     1.200     1.059  72.85   0
       172    100.2921    327.0442 300.1362561 +22.4829510     448.5515     70.20975      1.700     3.73    -3.073331     19.81335     74.56284        14     1.228     0.793 -47.22   0
       173    131.1965    326.9693 300.1458792 +22.4922028     289.2679     70.19186      1.446     4.94    -2.968417     19.81335     30.14795         7     1.097     0.630 -82.79   0
       174    993.2526    323.4433 300.4152978 +22.7496316     263.1343      70.2634      1.446     3.40    -2.866232     19.81335     28.46851         5     0.748     0.448  20.99   0
       175    787.5712    310.3260 300.3554577 +22.6842415     408.8687     70.24552      2.121     4.90    -2.459032     19.81335     45.75921         8     1.253     0.814  57.18   0
       176    886.3641    298.8621 300.3899618 +22.7105477       1209.4     70.24552      1.630     3.82     -2.49807     19.81335     95.34812        18     1.207     0.950   9.92   0
       177    305.2411    296.5903 300.2098255 +22.5356980     1291.745     70.22764      1.768     4.16    -2.126146     19.81335     116.8201        23     1.328     1.153  85.19   0
       178    382.8102    291.7590 300.2355111 +22.5575748     546.3079     70.22764      1.698     5.45    -2.336836     19.81335     58.50109        11     1.108     0.965  40.48   0
       179    784.0365    290.8559 300.3606790 +22.6775885     321.8033     70.22764      1.607     4.70    -2.413585     19.81335     27.06633         5     0.954     0.657  31.67   0
       180    200.0124    284.3355 300.1811010 +22.5006167      499.268     70.17396      1.870     5.59    -2.662686     19.81335     43.43513        11     1.045     0.965  -1.36   0
       181    737.4939    280.4827 300.3495505 +22.6606616     1049.277     70.38844      1.861     3.88     -2.57415     19.81335     87.07501        19     1.198     1.046 -49.84   0
       182    802.3553    279.6433 300.3700265 +22.6798557     378.2844     70.28128      1.919     7.16       -2.373     19.81335     34.90432         8     1.615     0.890 -58.02   0
       183    170.4745    279.3304 300.1735488 +22.4903193      284.106     70.29916      1.779     5.59    -2.768063     19.81335     25.51831         5     1.272     0.694 -44.78   0
       184    221.4227    277.3929 300.1900079 +22.5050470     400.4417     70.20975      1.806     3.47    -2.597734     19.81335     26.27079         5     1.073     0.325 -68.65   0
       185   1008.8102    272.7215 300.4366196 +22.7397116      490.373     70.19186      1.434     3.04    -2.780037     19.81335     61.00245         9     0.867     0.731  72.83   0
       186    741.5759    271.8840 300.3536138 +22.6594144      348.597     70.19186      1.594     6.14    -2.560092     19.81335     29.48733         8     1.369     0.775  76.03   0
       187    661.9708    271.3986 300.3289828 +22.6354190     809.0722     70.19186      1.775     5.53    -2.421476     19.81335     63.57671        18     1.357     1.098  67.35   0
       188    588.1428    262.9962 300.3087289 +22.6108775     509.2619     70.19186      1.800     6.59    -2.338143     19.81335      39.4277        12     1.260     0.967  16.51   0
       189    857.5059    262.4333 300.3927975 +22.6914335     863.0353     70.19186      1.777     5.59    -2.448848     19.81335     74.16733        16     1.495     0.883 -86.01   0
       190    869.5422    261.6704 300.3967958 +22.6948200     487.1115     70.24552      1.650     3.94    -2.459273     19.81335     57.76414         9     1.105     0.771 -80.10   0
       191    985.8604    251.8012 300.4362565 +22.7268244     701.1475     70.19186      1.708     5.24    -2.651123     19.81335     54.61975        17     1.270     1.109  67.99   0
       192     10.5052    249.1833 300.1336547 +22.4336733     141.3133     70.15605      1.259     4.59     -2.35063     19.81335     38.64286         5     0.807     0.740  38.28   0
       193    220.6071    246.2130 300.1998768 +22.4958544     353.0772     70.12023      1.530     4.72    -2.648303     19.81335     39.47327         8     0.982     0.644 -76.44   0
       194     82.3853    240.3780 300.1588323 +22.4527150     1139.474     70.22764      1.620     3.99    -2.742548     19.81335     96.68568        18     1.209     1.034 -57.99   0
       195    905.3436    236.5585 300.4161061 +22.6983271     371.9985     70.20975      1.320     4.90    -2.526763     19.81335     40.90864         9     1.023     0.666  25.94   0
       196    239.5780    233.6397 300.2098535 +22.4979361     3244.849      70.2634      1.746     3.42    -2.487614     19.81335     315.0269        32     1.321     1.231  76.44   0
       197     23.9936    227.9382 300.1447386 +22.4316262     760.2643     70.19186      1.538     3.22     -2.43756     19.81335     83.98154        12     1.078     0.794  65.11   0
       198    222.9468    223.9638 300.2078260 +22.4901708     433.0029     70.24552      1.956     4.91    -2.670164     19.81335     51.20743         6     1.178     0.940  59.91   0
       199    883.5069    214.7747 300.4163722 +22.6855250     2014.926     70.17396      1.693     3.51     -2.50418     19.81335     157.3777        28     1.289     1.226  69.02   0
       200    987.2036    213.4236 300.4491343 +22.7161939     1605.167     70.19186      1.599     3.11    -2.587049     19.81335     176.5453        21     1.150     1.026 -44.21   0
       201    358.1135    202.0635 300.2569497 +22.5244192     580.2605     70.31702      2.365     6.48     -2.52546     19.81335     30.78312        11     1.420     0.830 -18.60   0
       202    123.2205    199.1764 300.1848883 +22.4531436     280.1072     70.22764      1.362     4.33    -2.738158     19.81335     38.88269         5     1.031     0.643  66.30   0
       203    484.2347    197.1885 300.2977580 +22.5608309     969.5815     70.20975      1.872     4.86    -2.662808     19.81335     80.06239        23     1.336     1.215 -67.16   0
       204    258.5132    177.4543 300.2339743 +22.4874878     3409.827      70.2634      1.735     3.51    -2.044102     19.81335     328.8109        32     1.349     1.244 -70.74   0
       205    109.8265    177.2358 300.1878486 +22.4428297     508.1646     70.24552      1.759     2.99    -2.733797     19.81335     45.96952         8     0.802     0.687  47.36   0
       206    504.5598    162.5548 300.3153217 +22.5569763     3613.196     70.29916      1.814     3.73    -2.626285     19.81335     293.1593        35     1.428     1.278  83.33   0
       207    390.5205    162.5100 300.2798637 +22.5227786     341.2006     70.35275      1.332     3.65    -2.674266     19.81335     34.65174         6     0.953     0.403 -70.03   0
       208    757.7124    152.6231 300.3973522 +22.6299803     442.4453     70.15605      1.527     3.59    -2.250305     19.81335     43.43098         5     0.928     0.432 -80.61   0
       209    198.4392    145.8562 300.2255596 +22.4604019     218.2248     70.22764      1.391     4.09    -2.235771     19.81335      31.8924         5     1.205     0.396  74.77   0
       210    632.8036    142.6602 300.3616898 +22.5896940     3520.656     70.20975      1.790     4.00    -2.128855     19.81335     253.0663        37     1.402     1.335 -88.86   0
       211    407.9283    142.1558 300.2918824 +22.5221523     764.5344     70.19186      1.714     3.69    -2.501604     19.81335     70.79715        16     1.143     0.997  13.88   0
       212    674.3397    140.2557 300.3754018 +22.6014485     482.5332     70.29916      1.802     4.73    -2.122064     19.81335     43.45432         7     0.993     0.703 -38.89   0
       213    959.8871    133.7374 300.4664810 +22.6851034      331.536     70.33488      1.503     3.93     -2.60172     19.81335      42.6969         5     0.970     0.678 -86.45   0
       214    156.8242    134.4381 300.2163351 +22.4446439     344.3492     70.24552      1.693     3.47    -2.449764     19.81335     34.88227         5     0.775     0.448 -19.72   0
       215    677.0043    127.4384 300.3803905 +22.5985638     1542.575     70.24552      1.741     3.83    -2.089881     19.81335     126.8689        24     1.284     1.165  57.41   0
       216    763.5385    119.0999 300.4100452 +22.6220910     883.8019     70.31702      1.870     4.03    -2.134094     19.81335      77.4911        21     1.221     1.188  -9.73   0
       217    701.4474    112.5382 300.3928365 +22.6016050      387.756      70.2634      1.602     3.75    -2.061401     19.81335     39.03332         7     0.863     0.662 -64.24   0
       218    507.1671    111.5979 300.3326679 +22.5431210     653.7332     70.19186      1.919     4.82    -2.199734     19.81335     44.07959        13     1.201     0.991 -17.55   0
       219    411.1262    110.0721 300.3032871 +22.5138969     466.2734     70.28128      1.607     5.41     -2.19633     19.81335     40.34872         9     1.145     0.720 -77.51   0
       220    182.3853     99.9376 300.2354699 +22.4424066     2160.466     70.19186      1.774     3.68    -2.133881     19.81335     171.5499        30     1.423     1.229  59.34   0
       221    750.0466    100.4747 300.4118860 +22.6126964     364.1977     70.22764      1.749     4.13     -2.04372     19.81335     32.59367         5     0.778     0.627  83.30   0
       222    743.6906     92.1805 300.4125974 +22.6084086     615.1595     70.15605      2.018     5.55    -1.999799     19.81335      42.4318        12     1.216     0.829  83.09   0
       223    298.5089     91.8732 300.2741749 +22.4749104     712.2806     70.38844      1.614     4.27     -2.09332     19.81335     67.68861        13     1.161     0.864 -29.83   0
       224    781.7521     87.2380 300.4260565 +22.6183885     435.3094     70.24552      1.857     5.06     -2.04333     19.81335     29.68676         7     1.051     0.689   5.45   0
       225    705.3545     86.9655 300.4023502 +22.5954262     342.4708     70.24552      2.141     5.31    -1.935193     19.81335     24.76475         6     1.520     0.523 -10.48   0
       226    801.4964     83.3192 300.4334787 +22.6231756     1255.312     70.35275      1.690     4.72    -2.055455     19.81335     97.14359        22     1.333     1.180  18.88   0
       227    184.9638     79.0950 300.2430326 +22.4371967     560.0139     70.22764      1.530     3.44    -2.110186     19.81335     57.72961         9     0.889     0.756  -0.28   0
       228    976.5057     76.8146 300.4901316 +22.6737111      532.627     70.15605      1.523     4.36    -2.628979     19.81335     42.33442         9     0.899     0.761 -61.61   0
       229    750.4205     76.2730 300.4198544 +22.6058523     464.6179     70.24552      1.406     4.62    -1.941097     19.81335     43.82694         8     1.147     0.528 -23.21   0
       230    602.3245     61.3072 300.3785968 +22.5571865     433.7247     70.38844      1.473     4.80    -1.664007     19.81335     45.10641         8     1.230     0.579  17.62   0
       231    765.8189     56.3308 300.4311200 +22.6047321     343.2664     70.22764      1.380     2.64    -1.874564     19.81335     45.39868         5     0.754     0.418 -20.09   0
       232    574.0714     54.0409 300.3721600 +22.5466336     1061.414     70.20975      1.679     4.39    -1.741189     19.81335     81.89009        19     1.250     1.104  32.71   0
       233    296.7559     51.0941 300.2868583 +22.4626752     492.4802     70.24552      1.947     6.23    -2.088981     19.81335     31.71324        10     1.193     0.913  66.92   0
       234     12.2738     50.6998 300.1986075 +22.3772554     435.8626     70.35275      1.601     3.62     -2.13709     19.81335     55.61273         6     0.990     0.630  10.55   0
       235    531.1481     47.7050 300.3608574 +22.5319520     818.2405     70.29916      1.870     5.40    -1.866919     19.81335     64.65601        18     1.382     1.185  13.64   0
       236    636.8240     44.8561 300.3946727 +22.5627948      626.974     70.24552      1.604     4.11     -1.46552     19.81335     54.14006        15     1.097     1.000 -36.27   0
       237    457.0865     38.1837 300.3409033 +22.5070232     1283.863     70.19186      1.955     4.35    -1.888246     19.81335     108.8204        22     1.257     1.226 -64.65   0
       238    104.3339     36.2960 300.2318671 +22.4007317     858.2343     70.33488      1.691     3.86    -2.126808     19.81335     70.90303        16     1.118     0.982  84.36   0
