#   1 NUMBER                 Running object number                                     
#   2 X_IMAGE                Object position along x                                    [pixel]
#   3 Y_IMAGE                Object position along y                                    [pixel]
#   4 ALPHA_J2000            Right ascension of barycenter (J2000)                      [deg]
#   5 DELTA_J2000            Declination of barycenter (J2000)                          [deg]
#   6 FLUX_APER              Flux vector within fixed circular aperture(s)              [count]
#   7 FLUXERR_APER           RMS error vector for aperture flux(es)                     [count]
#   8 FLUX_RADIUS            Fraction-of-light radii                                    [pixel]
#   9 FWHM_IMAGE             FWHM assuming a gaussian core                              [pixel]
#  10 BACKGROUND             Background at centroid position                            [count]
#  11 THRESHOLD              Detection threshold above background                       [count]
#  12 FLUX_MAX               Peak flux above background                                 [count]
#  13 ISOAREA_IMAGE          Isophotal area above Analysis threshold                    [pixel**2]
#  14 A_IMAGE                Profile RMS along major axis                               [pixel]
#  15 B_IMAGE                Profile RMS along minor axis                               [pixel]
#  16 THETA_IMAGE            Position angle (CCW/x)                                     [deg]
#  17 FLAGS                  Extraction flags                                          
         1    596.3356      5.6229 300.3788084 +22.5571776     558.0257     69.83505      1.279     2.84    -1.982426     19.70761     72.49429         9     0.853     0.713 -74.87  16
         2    205.6808      2.7242 300.2582182 +22.4392755     438.5012     61.52816      1.318     4.29    -2.496901     19.70761     50.36903         8     1.061     0.563 -74.47  24
         3     87.3762    997.3411 299.8982478 +22.6889600     3438.239     69.85285     21.407    49.27     15.10425     19.70761     64.46899       598     9.043     7.564  44.35  19
         4    644.5536   1023.8692 300.0628813 +22.8638975     1448.035     53.18573      0.819     1.95    -5.122989     19.70761     458.2796        11     1.058     0.337   0.37  24
         5    207.9789   1021.8988 299.9277198 +22.7322293     2168.488     63.04464     13.928    31.73     12.81406     19.70761     62.87085       200     7.337     3.808   2.54  27
         6    243.4065   1014.4224 299.9411652 +22.7407308     5520.931     69.81725      9.844    35.06     4.286161     19.70761     128.9234       614     9.904     5.452  53.31  26
         7    172.8114   1015.0651 299.9190173 +22.7197064     1144.223     69.79945      6.564     8.38     20.34898     19.70761     42.55394        19     1.729     1.135  12.27  19
         8    173.4746   1021.7972 299.9170310 +22.7218338      1010.97     63.47687      3.833     6.76     22.09681     19.70761     45.17074        16     1.623     0.843  42.79  19
         9    173.0179   1018.4770 299.9179703 +22.7207456     1109.809     69.85285      5.743     7.63     21.09805     19.70761     49.69162        15     1.852     0.879  14.94  19
        10     79.7427   1021.9476 299.8878639 +22.6937125     1423.342     62.96574     26.888    44.42     18.67607     19.70761     56.10371       249    16.199     3.380  13.99  27
        11     82.5106    981.5099 299.9018914 +22.6829643     2888.052     70.01279     23.729    37.69     9.949554     19.70761     58.50062       350     7.577     5.204   2.55  19
        12     88.6391    960.8854 299.9105101 +22.6788991     2249.403     69.83505     26.413    41.79     5.630825     19.70761      59.2247       210     8.962     5.409 -21.55   3
        13    148.5290    997.1572 299.9173044 +22.7072817      997.211     69.81725      7.051     9.25     18.36878     19.70761      36.7582        17     2.438     0.980   4.46   2
        14    595.6396    996.8420 300.0564551 +22.8414662     3872.514     69.94176      0.756     1.75     -4.71172     19.70761     1338.741         9     0.717     0.385  11.54   0
        15    657.3303    994.3941 300.0764592 +22.8592816     3951.339     69.81725      1.090     1.97     -5.02583     19.70761     624.5776        19     0.928     0.798  44.23   0
        16     78.1813    962.7166 299.9066657 +22.6762814     2092.617     69.79945     20.237    29.99     4.271205     19.70761     51.37383       160     6.470     3.860 -64.01   3
        17     81.4398    950.8958 299.9115263 +22.6738750     2247.309     69.83505     14.916    31.19     1.878741     19.70761      135.758       200     9.921     2.722 -22.10   3
        18    168.2516    991.5840 299.9252469 +22.7116110      388.541     69.85285      3.628     5.44     15.58176     19.70761     32.88385         5     1.033     0.809   3.43   0
        19    169.7148   1009.8005 299.9197696 +22.7172682     1071.334     69.72819     10.895    11.19     19.81208     19.70761     39.35059        19     2.489     1.400  50.85  19
        20     66.8098   1000.5366 299.8908196 +22.6836950     2612.388     69.79945     15.994    35.96     8.993155     19.70761     60.01263       272     6.989     5.136 -66.00  19
        21    536.8518    988.6213 300.0408340 +22.8214616     259.7339     69.85285      1.007     2.22    -5.175206     19.70761     43.50432         6     0.698     0.592 -64.52   0
        22    226.1135   1021.7467 299.9334052 +22.7376339     3409.134     63.76988      6.568    19.29     8.124468     19.70761     94.58951       150     4.824     2.847  18.19  27
        23    808.9177    987.5732 300.1258983 +22.9028160     292.0987     69.83505      1.063     2.84    -5.290392     19.70761     51.99505         6     0.962     0.439  58.82   0
        24    599.3793   1002.1331 300.0558961 +22.8441057     917.7764     69.83505      0.657     0.66    -4.694448     19.70761     485.7413         6     0.588     0.383  25.57   0
        25    103.9826    980.2572 299.9089687 +22.6890573     1261.452     69.83505     10.374    11.27     13.11341     19.70761     38.00999        22     3.307     1.069  47.76   3
        26    565.8315    985.1458 300.0509854 +22.8291650      850.193     69.87064      1.052     1.77    -4.967076     19.70761     193.5245         8     0.687     0.635  67.50   0
        27    118.2936    979.2565 299.9137401 +22.6930706     1275.624      69.9062      7.992     9.60     12.92976     19.70761     43.96746        17     2.076     1.239  59.83   2
        28    459.8060    981.6137 300.0191418 +22.7963212     508.9094     69.72819      1.085     2.14    -5.266161     19.70761     97.78059         9     0.816     0.638 -65.86   0
        29    390.2825    979.7181 299.9981327 +22.7749018      3899.15     69.97729      1.109     1.86    -5.297823     19.70761     691.0219        25     0.949     0.899 -13.26   0
        30    422.5731    966.3735 300.0125216 +22.7807736     296.3672     69.81725      0.927     2.26    -5.275055     19.70761      59.0954         5     0.691     0.472  73.05   0
        31    936.5789    958.2642 300.1752323 +22.9327059     1304.657     69.81725      1.035     1.72    -5.366793     19.70761     255.7214        13     0.816     0.712 -48.28   0
        32    586.8481    955.6151 300.0671434 +22.8270075     348.9777     69.88843      1.045     1.92    -4.732753     19.70761     58.49539         5     0.696     0.429  24.68   0
        33    760.0969    941.4535 300.1257057 +22.8749391      494.041     69.92398      1.014     1.92    -4.849378     19.70761     128.7893         9     0.784     0.652 -70.01   0
        34    782.3819    935.1152 300.1347122 +22.8798074     6424.553     69.79945      1.013     1.64    -4.932044     19.70761     1402.779        26     0.892     0.830 -71.38   0
        35    828.1324    935.0679 300.1489831 +22.8935196     310.7727      69.9062      0.804     1.45    -5.154402     19.70761     107.2207         6     0.631     0.506  32.47   0
        36     93.9084    926.7965 299.9232446 +22.6707190      666.048     69.76383      1.600     2.78    -3.391716     19.70761     60.77829         8     0.771     0.689 -43.29   0
        37    487.4994    923.2040 300.0467762 +22.7878928     303.9961     69.74601      1.407     4.48    -4.855525     19.70761      48.7625         7     1.177     0.485  83.52   0
        38     83.8941    918.6759 299.9227776 +22.6653844     412.1893     69.99504      1.368     5.07    -3.640459     19.70761     38.34706         8     1.203     0.604  12.75   0
        39    790.9738    917.1400 300.1432415 +22.8772288     780.1347     69.85285      1.006     1.75    -4.905277     19.70761     175.4296         9     0.695     0.668  75.83   0
        40    974.1680    915.9003 300.2007463 +22.9318233      259.011     69.83505      0.958     1.90    -5.261858     19.70761     68.89997         5     0.652     0.620  49.27   0
        41    506.3200    915.6390 300.0550954 +22.7913739      96.7198     69.81725      0.944     4.04    -4.922961     19.70761     27.47179         6     0.876     0.534  45.74   0
        42    643.2220    914.3239 300.0981379 +22.8320871      318.202     69.83505      0.893     1.64    -4.492376     19.70761     70.47781         5     0.680     0.422  22.25   0
        43    829.0359    910.4797 300.1572700 +22.8867367     555.7336     69.79945      0.942     1.66    -5.013486     19.70761     117.3642         8     0.700     0.620 -86.79   0
        44    877.5292    901.9211 300.1751697 +22.8988276     316.8457     69.95952      1.051     3.10    -5.062279     19.70761     72.69646         6     0.920     0.455  75.07   0
        45    728.5480    900.9774 300.1290558 +22.8538631     265.4857     69.85285      0.949     2.62     -4.58187     19.70761     78.17999         6     0.745     0.621 -76.04   0
        46    740.2878    898.0076 300.1336796 +22.8565336     319.8725     69.76383      1.135     1.82    -4.608983     19.70761     76.13721         7     0.693     0.591 -79.75   0
        47    441.4583    897.3398 300.0408714 +22.7666566     2360.599     69.92398      1.043     1.96    -4.908602     19.70761     405.6735        14     0.816     0.785  80.06   0
        48    166.6896    882.9350 299.9601326 +22.6800181     534.3779     69.95952      1.113     1.57     -3.18105     19.70761     138.3028         7     0.661     0.574 -83.66   0
        49    143.8447    880.2542 299.9539071 +22.6723880      1020.01     69.87064      1.207     2.18    -3.553419     19.70761     165.9409        12     0.875     0.716 -44.79   0
        50     75.2167    881.6155 299.9321454 +22.6521622     273.4687     69.81725      1.154     2.32    -4.400869     19.70761     39.27483         5     0.680     0.474 -13.16   0
        51     18.9859    869.7820 299.9185339 +22.6318792     400.1825     69.81725      1.610     3.81    -4.684707     19.70761     38.03776         6     0.829     0.634 -89.38   0
        52   1015.3408    868.8791 300.2288938 +22.9306743     1272.823     69.88843      1.055     1.68    -4.894692     19.70761     268.5413        12     0.806     0.696 -31.96   0
        53    969.6693    867.5084 300.2150973 +22.9165860     1186.473     69.97729      0.992     1.86    -4.882441     19.70761     217.2578        12     0.845     0.713 -68.66   0
        54    674.9889    867.3507 300.1233208 +22.8281477     267.6662     69.87064      0.971     4.25      -4.4906     19.70761     35.14365         5     1.117     0.462  -6.76   0
        55    175.8528    861.7830 299.9698641 +22.6767101     326.6671     69.83505      1.369     2.10    -4.131863     19.70761     55.69933         6     0.708     0.543  44.23   0
        56    753.0735    861.3679 300.1495893 +22.8498590      446.495     69.85285      1.301     1.73    -4.621044     19.70761     86.17359         7     0.651     0.608 -38.23   0
        57    621.3926    855.4911 300.1104921 +22.8086639      2737.22     69.76383      1.028     1.89    -4.596765     19.70761     424.7713        16     0.838     0.805 -35.92   0
        58    111.4309    856.2050 299.9516642 +22.6557618     246.9484     69.83505      1.253     3.60     -4.57773     19.70761     43.37402         5     0.828     0.587  47.02   0
        59    423.4001    852.4280 300.0498721 +22.7483606     324.2084     69.81725      0.997     2.30    -4.693388     19.70761     69.66753         5     0.661     0.491   7.51   0
        60    171.7357    849.4985 299.9725827 +22.6719538     750.2678     69.94176      1.071     2.05    -4.152977     19.70761     125.0691        12     0.899     0.752 -16.32   0
        61    641.9622    847.8866 300.1193717 +22.8126551     321.9836     69.83505      1.003     1.94    -4.537201     19.70761     92.64725         8     0.774     0.595 -60.78   0
        62    190.5525    846.6454 299.9793583 +22.6767877     319.5868     69.87064      1.142     2.69    -4.198253     19.70761     53.16862         5     0.721     0.459 -69.78   0
        63   1014.2726    835.0843 300.2395606 +22.9206533      760.948     69.95952      1.108     2.18    -4.614354     19.70761     141.6147        13     0.942     0.806  34.11   0
        64    797.4216    835.0815 300.1719617 +22.8556210     2343.435     69.81725      0.995     1.66    -4.600854     19.70761     515.2473        16     0.792     0.785  31.84   0
        65    514.3787    827.6102 300.0862556 +22.7685532     373.5033     69.83505      1.147     3.01    -4.705234     19.70761      57.3223         7     0.883     0.552 -27.94   0
        66    160.8334    825.7958 299.9769084 +22.6618880     644.0128     69.85285      1.090     2.07    -4.197558     19.70761      114.979         9     0.763     0.700 -89.96   0
        67    310.5387    817.9220 300.0260017 +22.7045862      31250.8      69.9062      1.130     1.89    -4.304983     19.70761     5444.264        61     1.103     1.019 -88.30   0
        68    575.9734    821.0172 300.1075720 +22.7851474     205.1041     69.87064      1.060     2.12    -4.606207     19.70761     69.33365         5     0.599     0.580  88.83   0
        69    568.5093    816.7743 300.1066293 +22.7816906     904.2278     69.78165      1.052     1.97     -4.61624     19.70761     172.4282        12     0.846     0.712  34.97   0
        70    981.0050    815.9161 300.2354242 +22.9051765     596.6053     69.78164      1.141     1.88    -4.485766     19.70761     116.5336         8     0.741     0.613 -47.86   0
        71    238.7334    815.9494 300.0043213 +22.6824604     334.8191     69.83505      1.281     2.09    -4.271294     19.70761     60.33615         5     0.731     0.404  72.81   0
        72    597.3648    812.7427 300.1169238 +22.7891932     355.0429     69.87064      0.998     2.31    -4.524285     19.70761     87.93638         7     0.744     0.640  27.02   0
        73    608.0493    811.2462 300.1207371 +22.7919700      157.453     69.87064      1.061     2.20    -4.485497     19.70761     62.77477         5     0.742     0.471 -54.07   0
        74    928.2279    808.2660 300.2214578 +22.8871556     224.4183     69.83505      1.163     2.67     -4.47542     19.70761     48.99638         5     0.710     0.658 -80.99   0
        75    713.4294    807.2954 300.1548382 +22.8224534     189.7122     69.78165      0.954     2.98     -4.48142     19.70761     35.94347         5     0.711     0.463  70.96   0
        76    751.3579    797.5427 300.1698265 +22.8310330     404.3207     69.83505      0.992     2.20    -4.472661     19.70761     83.42772         6     0.766     0.476  84.68   0
        77    360.2305    795.1135 300.0488753 +22.7129665     18516.82     69.83505      1.163     1.90    -4.320111     19.70761     3358.391        48     1.072     0.994 -84.76   0
        78    374.5113    795.5967 300.0531594 +22.7173920     1178.568     69.76383      1.063     1.98    -4.326151     19.70761     182.0357        15     0.897     0.840  10.60   0
        79    883.2658    790.7593 300.2131385 +22.8686482     1633.053     69.81725      1.043     1.56    -4.447375     19.70761     370.4844        14     0.822     0.734 -61.83   0
        80    371.2764    789.3942 300.0541714 +22.7146428     288.8861     69.76383      1.043     3.39    -4.303914     19.70761       49.965         5     0.735     0.453  18.50   0
        81    641.0438    786.9910 300.1389026 +22.7949124     457.6014     69.87064      1.113     2.02    -4.388564     19.70761     106.6538         9     0.733     0.702   0.34   0
        82    242.4761    786.8118 300.0149653 +22.6752335     595.6176     69.87064      1.201     2.11    -4.217825     19.70761     87.81767         7     0.744     0.585  66.97   0
        83     47.2461    782.6599 299.9556588 +22.6154125     386.4862     69.88843      1.134     1.97    -4.628378     19.70761     66.04357         6     0.658     0.595  53.16   0
        84    488.3034    781.7390 300.0930678 +22.7475735     503.9202     69.94176      1.075     2.49    -4.501781     19.70761      97.9365         8     0.854     0.590 -68.27   0
        85    889.4666    778.6376 300.2190157 +22.8670285     254.9801     69.83505      0.984     2.39    -4.308577     19.70761      52.6004         5     0.684     0.472  70.95   0
        86    390.4659    777.9892 300.0638505 +22.7171333     304.4351     69.79945      1.301     2.33    -4.272889     19.70761     44.48235         6     0.750     0.497  85.35   0
        87    240.3284    771.5705 300.0192564 +22.6702203     418.6984     69.85285      1.125     1.88    -4.163103     19.70761     73.02856         5     0.664     0.460 -78.71   0
        88    563.7046    761.2335 300.1232056 +22.7643192     252.9296     69.83505      0.922     2.11    -4.279141     19.70761     56.33067         5     0.705     0.437 -76.16   0
        89    533.4180    759.7452 300.1142631 +22.7548045      373.836     69.83505      1.224     2.21    -4.295593     19.70761     56.54638         5     0.671     0.476 -73.99   0
        90    442.3927    758.8174 300.0862407 +22.7272218     318.7852     69.79945      1.181     2.80    -4.256431     19.70761     34.85179         5     0.715     0.462 -73.09   0
        91    949.5069    756.0566 300.2450808 +22.8785492     2678.568      69.9062      1.050     1.86    -4.142309     19.70761     492.9163        16     0.855     0.752  84.43   0
        92    555.1085    757.1627 300.1218543 +22.7605723     715.4687     69.81725      1.061     2.15    -4.254028     19.70761     135.1107        11     0.848     0.704  -3.70   0
        93    636.5208    751.9296 300.1489018 +22.7834973     283.2979     69.95952      1.356     3.65    -4.228144     19.70761     32.25095         6     0.790     0.499 -87.27   0
        94    938.0671    747.5273 300.2442890 +22.8726709      996.935     69.88843      1.083     1.86     -4.02237     19.70761     182.5232         9     0.748     0.701  43.60   0
        95    301.0813    741.6953 300.0478616 +22.6798963     526.4877     70.01279      1.161     2.25    -3.951684     19.70761     93.11439         9     0.783     0.728  88.86   0
        96    764.5496    738.6821 300.1930874 +22.8181000      1576.56     69.87064      1.252     2.15    -4.148634     19.70761     260.8797        19     1.167     0.977   3.35   0
        97    969.1055    737.4427 300.2572479 +22.8790812     1060.617     69.85285      1.097     1.94    -4.176404     19.70761      171.743        10     0.749     0.742  72.10   0
        98    149.9296    725.5605 300.0061304 +22.6298899     306.3163     69.81725      1.052     2.23    -4.051561     19.70761     68.10173         5     0.709     0.549  78.48   0
        99    846.7856    724.6840 300.2232662 +22.8387442     397.8645     69.81725      1.251     2.82    -3.858208     19.70761     53.36423         6     0.817     0.499  36.43   0
       100    882.7627    715.7361 300.2373905 +22.8469633     86995.84     69.85285      1.105     1.78    -3.760019     19.70761     17364.41       103     1.120     1.081 -89.53   0
       101    735.5648    716.2181 300.1913655 +22.8029605     505.9262     69.85285      1.183     3.24    -4.159373     19.70761     82.19398         9     0.949     0.760  34.51   0
       102    569.2059    704.8054 300.1432744 +22.7497836     937.3903     69.71037      1.163     2.20    -3.798589     19.70761     153.4604        12     0.863     0.729  28.01   0
       103    750.2828    701.9235 300.2006002 +22.8032724     5673.372     69.94176      1.140     1.91    -4.070042     19.70761     1019.207        28     0.950     0.919 -70.75   0
       104    251.9071    697.2782 300.0470217 +22.6524009     2896.285     69.97729      1.233     1.96     -3.72887     19.70761     495.5069        22     0.974     0.952 -62.14   0
       105    333.7441    695.3293 300.0730991 +22.6764077     675.1858     69.87064      1.169     2.46    -3.842346     19.70761     117.7192        11     0.898     0.744  18.94   0
       106    209.7508    693.3491 300.0351965 +22.6386188     353.4454     69.88843      1.501     3.31    -3.686659     19.70761     40.16745         5     0.728     0.680  87.88   0
       107    542.1688    690.4421 300.1395304 +22.7375516     446.4243     69.88843      1.177     2.83    -3.622681     19.70761     65.56242         8     0.901     0.595  69.40   0
       108    533.8669    682.9052 300.1393978 +22.7328988     1993.667     69.99504      1.223     1.89    -3.581295     19.70761     364.9885        18     0.963     0.859 -23.81   0
       109    524.1613    676.5760 300.1384356 +22.7281713     780.6943     69.87064      1.167     2.33    -3.561511     19.70761     124.0464        10     0.851     0.694  76.19   0
       110    917.6395    674.1403 300.2617928 +22.8454782      310.301     69.85285      0.957     2.17     -3.50421     19.70761     61.98866         5     0.716     0.431 -68.26   0
       111    187.1337    673.1021 300.0347521 +22.6260248     328.7018     69.94176      1.328     3.73    -3.585515     19.70761     60.14922        10     1.026     0.727  40.96   0
       112    201.4741    671.2687 300.0398050 +22.6298045     407.2642     69.92398      0.992     2.22    -3.536968     19.70761     56.05968         5     0.676     0.469  69.36   0
       113    448.7382    666.3512 300.1182913 +22.7026081     1087.718      69.9062      1.234     2.20     -3.66783     19.70761     168.0029        15     0.914     0.870  77.61   0
       114    227.2522    668.0041 300.0488784 +22.6366074     296.8798     69.85285      1.189     3.01    -3.464571     19.70761     47.65657         7     0.724     0.662  35.74   0
       115    547.6790    667.0216 300.1488625 +22.7324861     228.4851     69.85285      1.226     2.30    -3.410186     19.70761     50.10556         5     0.833     0.465  86.22   0
       116   1023.8766    663.5468 300.2983664 +22.8742805     356.2065     53.18573      0.956     2.85    -3.962969     19.70761     78.62141         5     1.055     0.276 -79.88  24
       117    102.9251    661.4888 300.0123646 +22.5974129     11664.16     69.99504      1.208     2.02    -3.792929     19.70761     1776.512        39     1.091     0.990  73.51   0
       118     23.7711    662.6865 299.9873903 +22.5739871      440.479     69.85285      1.255     4.55    -4.318207     19.70761      67.0599         9     1.142     0.612 -86.39   0
       119    533.6923    661.7397 300.1462269 +22.7267747     660.9767     69.92398      1.256     2.27    -3.410889     19.70761     97.87595        10     0.883     0.674   0.82   0
       120    951.7119    647.7078 300.2810125 +22.8481024     466.4218     70.01279      1.075     2.42    -3.593964     19.70761     110.0677        10     0.878     0.721  66.41   0
       121     48.8665    645.6656 300.0007184 +22.5766456     1010.469      69.9062      1.718     4.25    -4.034936     19.70761     108.3825        18     1.581     0.684 -87.47   0
       122    818.2849    645.8181 300.2400357 +22.8075603     142.7067     69.79945      1.078     3.39    -3.595924     19.70761     39.81801         6     0.867     0.485 -53.60   0
       123    497.1009    642.2160 300.1411881 +22.7101960     349.3008     69.76383      1.209     2.61    -3.404402     19.70761     56.12898         6     0.800     0.568 -86.04   0
       124    891.7654    640.3751 300.2647079 +22.8280273     375.2088     69.87064      1.223     2.00    -3.504717     19.70761     69.04943         5     0.673     0.462 -17.32   0
       125    453.9730    634.4579 300.1302912 +22.6950309     345.2578     69.85285      1.040     2.22     -3.46584     19.70761     63.06803         8     0.743     0.671  84.94   0
       126    601.8214    633.0011 300.1767799 +22.7389668     240.8729     69.78164      1.181     2.27    -3.222377     19.70761     51.02665         6     0.835     0.456  53.94   0
       127    649.3172    631.2952 300.1921230 +22.7527230     236.6412     70.03055      0.903     1.94    -3.282644     19.70761     54.02887         5     0.668     0.455  78.68   0
       128    619.4899    631.1435 300.1828849 +22.7437334     389.2127      69.9062      1.190     3.37    -3.227732     19.70761     47.95796         6     0.782     0.500 -89.65   0
       129    498.1275    630.2639 300.1453941 +22.7070753     615.2667     69.88843      1.375     3.48    -3.313522     19.70761     68.58777        11     1.008     0.759  57.82   0
       130    931.7336    625.7527 300.2819231 +22.8358097     2035.895     69.87064      1.122     1.83    -3.500411     19.70761      353.705        18     0.934     0.812 -78.45   0
       131    463.5747    625.8562 300.1360755 +22.6954443     1044.342     69.85285      1.261     2.45    -3.388732     19.70761     146.2711        13     0.907     0.802  -6.01   0
       132    828.7437    622.4308 300.2509002 +22.8039822     125.1814     69.87064      1.154     3.17    -3.489527     19.70761     37.64966         5     0.796     0.676  62.78   0
       133     25.7741    619.6187 300.0020156 +22.5622467     2998.039     69.88843      1.250     2.27    -3.954786     19.70761     431.8454        21     1.015     0.917 -89.46   0
       134    327.0099    612.6436 300.0978929 +22.6506763     5427.276     69.85285      1.262     2.18    -3.529699     19.70761     820.0558        27     1.017     0.973  76.02   0
       135    449.4521    609.6476 300.1369516 +22.6865576     5189.491     69.88843      1.218     2.21    -3.335235     19.70761     713.3195        27     1.034     0.952  69.27   0
       136    945.5889    600.8027 300.2943559 +22.8327979     7402.068      69.6747      1.079     1.85    -3.514523     19.70761      1298.52        32     0.979     0.931  67.37   0
       137    861.0107    603.4847 300.2671171 +22.8082160     1112.716     69.79945      1.141     2.08    -3.435586     19.70761     175.2739        13     0.938     0.769  70.43   0
       138    510.0472    599.2469 300.1591883 +22.7017528     6799.483     69.85285      1.232     2.14    -3.074163     19.70761     1069.974        30     1.015     0.994   2.36   0
       139    679.5900    595.0801 300.2133258 +22.7514085     362.2916     69.81725      1.334     2.77    -3.024657     19.70761     50.56032         7     0.808     0.599  63.41   0
       140    237.5525    594.7055 300.0759127 +22.6186841     862.5835     69.87064      1.244     2.45    -3.507961     19.70761     116.2792        12     0.864     0.772  88.27   0
       141    441.7330    587.4144 300.1417783 +22.6778639     2510.811     69.83505      1.162     2.16    -3.263232     19.70761     380.1388        19     1.010     0.857  59.10   0
       142    784.5800    587.2878 300.2485648 +22.7806526     432.1901     69.78165      1.135     2.14    -3.226361     19.70761     62.78978         5     0.662     0.477 -74.02   0
       143    420.1077    585.8340 300.1355645 +22.6709224     849.1673     69.79945      1.307     2.44     -3.34922     19.70761     116.6971        12     0.864     0.818  -2.02   0
       144    174.4051    585.2326 300.0593664 +22.5970138     471.8813     69.83505      1.147     2.80    -3.597636     19.70761     59.35684         6     0.688     0.641 -10.73   0
       145    861.4324    582.6959 300.2740076 +22.8023734     1138.982     69.81725      1.477     2.51    -3.277346     19.70761     118.7191        13     0.938     0.779 -42.15   0
       146    558.3011    574.9319 300.1821119 +22.7092507     119220.6     69.94176      1.267     2.22     -2.87536     19.70761     16175.61       140     1.294     1.253 -44.73   0
       147    741.8629    579.8701 300.2376677 +22.7657156     453.0843     69.88843      1.206     2.24    -3.180363     19.70761     87.38661         8     0.776     0.641 -47.48   0
       148    244.4683    574.9553 300.0844829 +22.6150966     2099.658     69.81725      1.246     2.16    -3.575783     19.70761     298.5358        18     0.971     0.880 -87.10   0
       149    809.8800    570.6130 300.2618694 +22.7834502     344.2916     69.83505      1.263     4.23    -3.105104     19.70761     41.96038         6     1.051     0.485  -2.74   0
       150    448.8822    555.4235 300.1544021 +22.6708312     1574.554     69.81725      1.314     2.58    -3.097136     19.70761     222.9688        20     1.300     0.866 -85.33   0
       151    292.9722    557.8560 300.1051201 +22.6247494     171.4235     69.85285      1.324     3.61    -3.674676     19.70761     44.12564         5     1.063     0.591 -87.66   0
       152    860.5465    551.2957 300.2839396 +22.7930915      201.168     69.92398      1.410     4.49    -3.024162     19.70761     30.95494         7     0.900     0.638  20.39   0
       153    845.6946    541.3163 300.2825546 +22.7857742     1060.585     70.03055      1.195     2.12    -2.957143     19.70761        159.8        14     0.923     0.806  15.72   0
       154    716.9720    539.0336 300.2431890 +22.7465300      1484.96     69.87064      1.283     2.20    -2.913495     19.70761     226.0605        19     1.017     0.889  64.69   0
       155    504.3657    534.8762 300.1783455 +22.6815793     351.1718     69.85285      1.203     3.16    -2.832042     19.70761     57.55458         8     0.904     0.616 -73.99   0
       156    974.2684    532.8535 300.3253891 +22.8218776     811.4088     69.87064      1.165     1.97    -3.562552     19.70761     146.8596        11     0.808     0.732  48.46   0
       157    960.0072    531.9059 300.3212500 +22.8173319     434.9036     69.74601      1.034     1.98    -3.450488     19.70761     92.17931         7     0.685     0.632   5.32   0
       158    846.1423    531.8013 300.2857869 +22.7831762      1189.67     69.79945      1.190     2.08    -2.969139     19.70761     203.8948        14     0.905     0.812  42.54   0
       159    599.4963    529.3240 300.2097614 +22.7085173     497.5949     69.99504      2.074     3.22    -2.887989     19.70761     40.10939         8     0.803     0.764  34.84   0
       160    884.1060    526.4902 300.2993464 +22.7930296     2414.143     70.01279      1.109     1.99    -3.085017     19.70761     402.5186        17     0.884     0.830  84.74   0
       161    438.6113    528.4767 300.1599653 +22.6600191     211.2056     69.85285      1.374     3.15    -3.055004     19.70761     53.82983         5     0.798     0.409  24.68   0
       162    976.0056    516.7187 300.3311754 +22.8177636     399.3775     69.78164      1.186     2.00    -3.609492     19.70761     81.07187         7     0.661     0.655  12.39   0
       163    116.2414    516.9420 300.0634906 +22.5599755     513.0419     69.85285      1.157     2.88    -3.655558     19.70761      75.4949        10     0.891     0.744 -65.87   0
       164    108.8413    507.2914 300.0643278 +22.5549874     344.8383     69.85285      1.248     2.36     -3.65244     19.70761     49.04131         6     0.715     0.588  72.71   0
       165    716.4435    501.1423 300.2553399 +22.7354936     212.7586     69.85285      1.143     2.94    -2.905235     19.70761     44.55183         5     0.730     0.468  72.64   0
       166    657.7078    496.6766 300.2384977 +22.7166017     348.3409     69.99504      1.157     2.87    -2.895347     19.70761     74.47786        10     0.943     0.776 -80.53   0
       167    972.2853    489.5385 300.3388491 +22.8088412     369.0675     69.97729      1.140     2.17    -3.646952     19.70761     64.67497         6     0.764     0.504  47.26   0
       168    718.3356    489.0688 300.2598531 +22.7325945     601.6116      69.9062      1.290     3.00    -2.903544     19.70761     70.92515         7     0.706     0.686 -43.37   0
       169    875.6465    485.2932 300.3100990 +22.7786628     529.5812     69.87064      1.137     2.01    -3.172138     19.70761      86.1031        10     0.769     0.727  37.62   0
       170    859.8914    481.9747 300.3062665 +22.7729879     366.0938     69.79945      1.204     3.26    -3.085125     19.70761     58.40538         7     0.929     0.555 -29.54   0
       171    840.8010    482.3377 300.3001985 +22.7673707     134.2249     69.81725      0.969     3.36    -3.018159     19.70761     32.61305         5     0.752     0.438 -16.92   0
       172    604.2942    479.8483 300.2273345 +22.6957555     1843.466     69.87064      1.265     2.44    -2.905118     19.70761     242.5571        17     0.970     0.887  -3.29   0
       173    964.6222    478.4477 300.3400639 +22.8033591     428.9042     69.87064      1.077     2.45    -3.646502     19.70761     60.25411         6     0.828     0.444 -18.71   0
       174    163.0571    470.6904 300.0930662 +22.5607647     1144.751      69.9062      0.557     0.90    -3.510297     19.70761      665.681         5     0.466     0.312 -79.91   0
       175    444.0509    466.7652 300.1817125 +22.6439442     288.9939     69.87064      1.342     3.66    -2.934534     19.70761      40.6194         6     0.835     0.617  87.83   0
       176   1015.3373    458.6978 300.3622984 +22.8128799      762.286     69.94176      1.093     2.06    -3.699294     19.70761     125.7593        10     0.751     0.729 -18.89   0
       177    887.5339    458.6377 300.3224667 +22.7745693     339.7898     69.83505      1.085     2.87    -3.268542     19.70761     51.40753        10     0.830     0.821 -28.78   0
       178    973.7736    457.3874 300.3497615 +22.8000509     594.1025     69.85285      1.182     2.50    -3.629609     19.70761     101.3488        10     0.830     0.754  87.49   0
       179    714.6609    453.6254 300.2702260 +22.7213166     615.9095     69.85285      1.194     2.70    -2.886576     19.70761      86.9879        12     0.895     0.823   7.42   0
       180    510.9995    454.4331 300.2065521 +22.6604843     348.7293     69.81725      1.353     2.08    -2.877901     19.70761     52.38705         5     0.708     0.524 -89.93   0
       181    218.6617    451.9699 300.1164297 +22.5720821     352.1732     69.87064      1.303     3.23     -3.29264     19.70761     52.80315         8     0.926     0.785  62.92   0
       182    281.2586    447.8688 300.1372212 +22.5896877     1985.651     69.87064      1.279     2.39    -3.206646     19.70761     264.7593        20     1.077     0.914 -80.94   0
       183   1014.1529    445.9740 300.3660635 +22.8088693     2570.516     69.87064      1.145     1.75    -3.654233     19.70761     544.2666        20     0.914     0.834  62.98   0
       184    369.2433    436.8065 300.1681756 +22.6129092     2806.111     69.87064      1.316     2.35    -2.938844     19.70761     353.9381        22     1.026     0.970 -78.80   0
       185    994.1301    436.9979 300.3627352 +22.8002919     1174.166     69.79945      1.180     2.14    -3.608806     19.70761     207.1799        12     0.833     0.752  -7.37   0
       186    613.3960    433.4079 300.2452583 +22.6851535     10802.97     69.69254      1.302     2.36    -2.959245     19.70761     1335.978        37     1.119     1.062  85.81   0
       187    228.5124    442.7329 300.1224926 +22.5723885     4404.876     69.94176      1.287     2.32    -3.206475     19.70761     613.3979        27     1.091     0.980  72.21   0
       188    630.1706    433.8537 300.2503366 +22.6903108     482.3866     69.85285      1.811     4.50    -2.915662     19.70761     31.90537         8     0.846     0.681  51.19   0
       189    233.4541    420.1875 300.1313531 +22.5674045     227.3138     69.87064      1.611     3.43    -3.003569     19.70761     30.07769         5     0.764     0.445  68.98   0
       190    946.8963    415.7820 300.3548988 +22.7800455     386.3232     69.76383      1.162     2.17    -3.554079     19.70761     73.91063         7     0.697     0.640  27.21   0
       191    168.1671    413.7087 300.1131666 +22.5459565     1127.154     69.79945      1.267     2.28    -3.050142     19.70761     177.5339        16     0.972     0.905  42.68   0
       192    967.6444    402.8943 300.3655557 +22.7825587     703.2591     69.87064      1.172     2.56    -3.532735     19.70761       105.93        10     0.979     0.601  88.10   0
       193    554.0738    402.8528 300.2367168 +22.6585958     3833.193     69.87064      1.363     2.50    -2.924453     19.70761     495.5572        26     1.076     1.027  76.90   0
       194    269.1226    402.1754 300.1482925 +22.5729388     293.2468     69.87064      1.246     2.37     -2.92037     19.70761     55.46838         8     0.767     0.654 -34.01   0
       195    126.4442    394.9805 300.1062857 +22.5280652     263.9565     69.87064      1.223     3.74    -3.291285     19.70761     39.10283         6     0.809     0.497  89.08   0
       196    667.7249    393.1569 300.2752526 +22.6898845     311.7856     69.83505      1.299     4.25    -2.862354     19.70761     41.39137         6     0.973     0.528 -21.81   0
       197    758.1489    391.7134 300.3038883 +22.7165730     677.1921     69.85285      1.330     2.67    -2.924707     19.70761     90.60947        13     0.946     0.847  25.25   0
       198    460.6840    389.2047 300.2120858 +22.6266746     3437.683     69.78165      1.331     2.34    -2.993307     19.70761     459.4005        28     1.128     1.025  58.20   0
       199    949.8240    383.9429 300.3661553 +22.7717750     305.7919     69.85285      1.354     3.77    -3.457682     19.70761     52.28675         6     0.995     0.651 -69.50   0
       200    852.5966    383.3937 300.3360229 +22.7424868     778.3574      69.6747      1.236     2.29    -3.030213     19.70761     99.84596        11     0.853     0.732  86.04   0
       201    445.3288    377.8821 300.2109860 +22.6188202     425.3364     69.97729      1.645     4.46    -2.996839     19.70761     39.34318         7     0.878     0.643  59.22   0
       202    527.3273    376.2723 300.2370259 +22.6429462     329.4074      69.9062      1.590     4.35    -2.938209     19.70761     38.59232         6     0.854     0.761  76.80   0
       203    825.2441    370.7614 300.3316014 +22.7306621     292.5594     69.94176      1.238     2.80    -2.972705     19.70761     50.01311         6     0.732     0.609  46.37   0
       204    348.2755    368.5845 300.1838157 +22.5870446     1508.269     69.85285      1.366     2.60     -2.96857     19.70761     173.2791        18     1.078     0.886  25.20   0
       205     66.8933    366.0114 300.0971948 +22.5018865      592.196     69.79945      1.225     2.19     -3.45539     19.70761     93.26555         9     0.733     0.726   5.30   0
       206    317.6031    357.9844 300.1777200 +22.5748031     17350.56     69.71037      1.386     2.37    -2.936392     19.70761     2460.983        56     1.230     1.144 -88.48   0
       207    852.1495    355.0242 300.3450987 +22.7342032     834.7241     69.87064      1.353     3.00    -2.997527     19.70761     115.5982        14     1.028     0.908 -88.30   0
       208     14.0133    345.8792 300.0873092 +22.4802436     2871.404     69.83505      1.295     2.23    -3.763939     19.70761     450.1899        24     1.041     0.959 -72.06   0
       209    767.2290    344.0123 300.3222115 +22.7055939     295.3432     69.85285      1.266     2.86      -2.9345     19.70761     57.71518         8     0.811     0.742 -68.63   0
       210    191.8764    344.3508 300.1430623 +22.5331759     244.2708     69.85285      1.138     3.90    -2.986813     19.70761     37.83668         6     0.998     0.436  12.43   0
       211    416.2949    343.1485 300.2132342 +22.6001446     288.4424     69.92398      1.280     3.89    -2.977815     19.70761     40.14399         6     0.750     0.635 -19.76   0
       212    727.7429    337.4926 300.3120273 +22.6918882     1166.424      69.9062      1.334     2.45    -2.931345     19.70761     150.0716        17     1.023     0.921 -60.54   0
       213    943.2720    330.1928 300.3815710 +22.7543680     274.3571     69.81725      1.071     2.53    -3.236673     19.70761     61.35324         7     0.823     0.562   9.67   0
       214    389.6129    322.1732 300.2117458 +22.5861231     1246.042     69.85285      1.570     3.59    -2.889228     19.70761     150.1582        16     1.244     0.798  55.79   0
       215    828.8121    314.8557 300.3508708 +22.7156712      345.913     69.85285      1.291     3.06    -2.920205     19.70761     55.55548         8     0.764     0.706 -69.76   0
       216    465.6133    301.6288 300.2420617 +22.6030151     688.4846     69.85285      1.403     2.47    -2.830197     19.70761     94.72323        12     0.878     0.827 -19.44   0
       217    710.3998    293.3111 300.3209724 +22.6740011     1235.822     69.76383      1.312     2.49    -2.893655     19.70761     144.3315        20     1.097     0.943  70.37   0
       218    971.5408    287.5515 300.4042337 +22.7505815     1860.756      69.9062      1.159     2.18     -3.17697     19.70761     249.9559        19     0.949     0.890 -86.94   0
       219    419.0909    277.2328 300.2355082 +22.5820631     381.3925     69.79945      1.698     5.77    -2.827744     19.70761     38.95408         7     1.109     0.846  41.19   0
       220    124.4989    271.9037 300.1456486 +22.4921791     333.2108     70.03055      1.157     2.20    -2.960256     19.70761     55.39315         6     0.733     0.500  89.79   0
       221     93.5859    271.7442 300.1360962 +22.4828590       665.49     69.83505      1.313     3.26    -2.969982     19.70761     100.7089        13     1.098     0.760 -38.09   0
       222    987.4738    267.9922 300.4155536 +22.7497319     331.8213     69.81725      1.208     2.12    -3.077549     19.70761     55.80817         6     0.732     0.498  86.07   0
       223    177.5744    263.5381 300.1648572 +22.5057012     429.4622     69.85285      1.668     3.79    -2.891109     19.70761     36.92234         6     0.957     0.430  17.19   0
       224    782.0576    254.5912 300.3558691 +22.6843497     437.9503     69.83505      1.494     2.78    -2.866362     19.70761     55.33537         8     0.850     0.648 -56.44   0
       225    872.7992    247.8006 300.3863541 +22.7095824     244.5648     69.63902      1.110     4.17    -2.886563     19.70761     37.59213         6     0.762     0.651 -83.51   0
       226    880.0846    243.6756 300.3899644 +22.7105793     1247.301     69.95952      1.242     2.42    -2.875819     19.70761     184.1708        14     0.935     0.770  38.29   0
       227    298.6620    241.2656 300.2097287 +22.5356276     1232.682     69.88843      1.349     2.66    -2.752676     19.70761     155.4792        16     1.071     0.859 -77.69   0
       228    376.7198    236.4749 300.2355595 +22.5576590     581.3763     69.95952      1.457     2.69     -2.62914     19.70761     81.54303         9     0.962     0.594 -80.03   0
       229    128.6813    236.2349 300.1585272 +22.4832010     214.7148     69.81725      1.439     4.28    -2.799609     19.70761     25.72592         5     0.957     0.546  38.39   0
       230    778.6619    235.1826 300.3611120 +22.6777562     346.0269     69.83505      1.513     4.74    -2.848358     19.70761      44.6699         7     0.893     0.713  19.56   0
       231    193.5074    228.4828 300.1811886 +22.5004220      489.507     69.99504      1.363     3.03    -2.800253     19.70761     58.25359         8     0.879     0.666 -46.09   0
       232    731.1694    225.2191 300.3495496 +22.6606648     959.1252     69.85285      1.311     3.11    -2.640803     19.70761     101.6597        13     1.040     0.784  71.28   0
       233    796.0443    224.7324 300.3699209 +22.6799612     294.9456     69.83505      1.164     3.11    -2.920947     19.70761      52.8806         5     0.789     0.474  46.07   0
       234    214.8927    222.1044 300.1899058 +22.5050059     303.5987     70.03055      1.171     2.05     -2.75838     19.70761     54.32786         6     0.717     0.536 -50.49   0
       235   1002.4106    217.3258 300.4366614 +22.7396415     516.6326     69.87064      1.127     2.36    -2.702852     19.70761     80.51667         9     0.815     0.667  -8.91   0
       236    735.4462    216.8038 300.3536137 +22.6595285     563.4818     69.83505      1.619     3.18    -2.615071     19.70761     62.09229        10     1.008     0.676   4.63   0
       237    655.6191    215.8954 300.3290439 +22.6353488     780.7534     69.76383      1.417     3.12    -2.522447     19.70761     85.83047        14     0.964     0.924   7.93   0
       238    851.1606    207.2775 300.3927643 +22.6914559     897.7234     69.83505      1.306     2.75    -2.769264     19.70761     125.7951        14     0.980     0.828 -66.66   0
       239    581.8289    207.2956 300.3088588 +22.6107656     631.1034     69.79945      1.377     3.97    -2.611566     19.70761     76.69612        13     1.186     0.797  54.52   0
       240    863.0042    206.3578 300.3967544 +22.6947391     469.4209     69.87064      1.195     3.61    -2.757041     19.70761     61.40845         9     0.961     0.690  42.78   0
       241   1023.6719    197.1382 300.4498461 +22.7402044     740.3926     54.38729      0.947     1.91    -2.631629     19.70761     167.1144         8     0.875     0.469 -89.52  24
       242    979.8399    196.6503 300.4363334 +22.7269395     609.1285     69.87064      1.149     2.28    -2.617381     19.70761     97.31916         9     0.753     0.732  83.28   0
       243      3.7016    193.5515 300.1335587 +22.4334618     340.7463     65.44351      1.113     2.53    -2.966425     19.70761      52.7666         6     0.832     0.457  88.05  16
       244    214.2849    190.0684 300.2001147 +22.4956302     463.6009     69.94176      1.363     4.15    -2.363532     19.70761     46.65497        10     1.079     0.843  69.22   0
       245     76.0125    184.9961 300.1587945 +22.4527011     1239.528     69.71037      1.350     2.56    -2.436116     19.70761     173.9267        16     1.038     0.872  45.07   0
       246     25.2935    181.8171 300.1440724 +22.4365737     371.2903     69.78164      1.297     4.19    -2.847478     19.70761     48.59007         7     1.225     0.409 -64.46   0
       247    898.8580    181.5737 300.4159758 +22.6983546     497.1718     69.85285      1.310     2.98    -2.554059     19.70761     66.94195        11     0.992     0.714  53.34   0
       248    233.4215    178.2753 300.2098906 +22.4979847     3369.116     69.83505      1.344     2.43    -2.213714     19.70761     397.4013        27     1.137     1.013  78.83   0
       249     17.5391    172.6631 300.1446348 +22.4316213     759.4982     69.88843      1.343     2.38    -2.930059     19.70761      100.465        12     0.926     0.752  58.57   0
       250    217.1263    169.3921 300.2077080 +22.4905485     357.5012     69.81725      1.363     2.23    -2.104413     19.70761     46.39929         5     0.697     0.455  19.72   0
       251    877.2391    159.4767 300.4164079 +22.6855289     2106.935     69.83505      1.259     2.33    -2.422869     19.70761      292.519        19     1.017     0.889  73.30   0
       252    980.9074    158.1625 300.4491582 +22.7161950     1597.934     69.85285      1.171     2.10    -2.444617     19.70761     264.0878        13     0.893     0.737  71.45   0
       253    427.2513    154.9012 300.2777550 +22.5493887     275.9273     69.94176      1.493     3.03    -2.646374     19.70761     42.34397         7     0.730     0.670 -51.73   0
       254    351.1654    146.7646 300.2567272 +22.5242439     452.3329     69.92398      1.743     3.73    -2.388457     19.70761     45.12973         8     0.896     0.664 -22.13   0
       255    116.8764    143.7295 300.1848810 +22.4531181      242.486     69.95952      1.265     3.78    -2.044215     19.70761     40.60943         8     0.924     0.763  12.00   0
       256    478.3068    142.1641 300.2977744 +22.5610343     1078.406     69.81725      1.329     2.50    -2.629998     19.70761     137.1417        16     1.023     0.868  58.54   0
       257    406.2623    142.9517 300.2751028 +22.5396660     244.8296     69.88843      1.239     3.91    -2.574913     19.70761     39.28226         5     0.833     0.525  35.12   0
       258    912.8215    125.2700 300.4386015 +22.6863522      188.331     69.85285      1.524     5.26    -2.252062     19.70761     26.22908         6     1.119     0.698 -81.81   0
       259    252.2832    122.1727 300.2339590 +22.4875378     3450.948     69.85285      1.371     2.64    -1.997658     19.70761     384.6657        26     1.147     1.005 -88.86   0
       260    103.2453    121.6504 300.1878097 +22.4426942     440.7449     69.87064      1.349     3.46    -2.122172     19.70761     60.28735         7     0.985     0.534  31.61   0
       261     14.1536    111.8607 300.1633119 +22.4131624     315.3932     69.88843      1.241     4.00    -2.961271     19.70761     33.99231         6     0.799     0.572 -38.66   0
       262    498.2940    107.4597 300.3152552 +22.5570575     3506.273     69.94176      1.352     2.49    -2.443228     19.70761     394.3133        24     1.091     0.987 -69.39   0
       263    383.9048    107.2383 300.2797356 +22.5227096     356.7304     69.83505      1.293     2.48    -2.301725     19.70761     49.22479         7     0.691     0.661  56.81   0
       264    750.7935     96.9517 300.3972905 +22.6296883     380.2239     69.85285      1.271     4.32    -2.173077     19.70761     51.69337         7     0.786     0.675  62.08   0
       265    843.1424     95.4246 300.4265642 +22.6569075     263.6833     69.85285      0.990     2.17    -2.186383     19.70761     55.71705         6     0.712     0.577 -57.73   0
       266    191.3026     91.2805 300.2250259 +22.4603857      363.668     69.97729      1.513     2.74    -2.037054     19.70761     40.59687         5     0.806     0.623  55.47   0
       267    626.6794     87.3917 300.3617333 +22.5897619     3669.262     69.79945      1.353     2.56    -1.968719     19.70761     453.9047        27     1.117     1.024  74.07   0
       268    401.6941     86.4236 300.2920224 +22.5220647     735.7625     69.78165      1.277     2.58    -2.327054     19.70761     123.5226        13     0.898     0.869 -78.76   0
       269    667.9679     84.7470 300.3754495 +22.6013712       480.78     69.87064      1.346     4.06    -1.967859     19.70761     57.71173        10     0.975     0.814  53.65   0
       270    683.3751     80.7470 300.3815459 +22.6048373     350.0658     69.87064      1.254     4.32    -1.973507     19.70761     42.41789         6     1.011     0.646  44.00   0
       271    150.6027     78.9401 300.2163805 +22.4446394     403.2708     69.83505      1.261     2.98    -2.121285     19.70761     66.41284         8     0.877     0.726 -49.38   0
       272    953.8066     78.0599 300.4666988 +22.6850513     268.6069     69.79945      1.299     2.75    -2.020839     19.70761     39.01888         5     0.771     0.494  36.85   0
       273    670.8907     72.2021 300.3804296 +22.5986422     1644.102     69.78164      1.409     2.75    -1.966649     19.70761     205.7104        19     1.133     0.925 -64.48   0
       274    311.4204     73.1888 300.2682379 +22.4912050     179.6597     69.83505      1.318     4.46    -1.984817     19.70761     32.02021         7     0.993     0.569  35.39   0
       275    685.5305     71.0809 300.3853531 +22.6027053       482.13     69.95952      1.651     5.17    -1.949745     19.70761     41.26392        10     1.110     0.722  80.93   0
       276    757.3657     63.7393 300.4101131 +22.6221118     911.8757     69.87064      1.312     2.63    -1.882473     19.70761     118.0949        12     0.971     0.750  71.41   0
       277    694.9729     56.8006 300.3929267 +22.6014301     359.7536     69.81725      1.250     2.38    -1.878358     19.70761     56.13062         6     0.714     0.553  38.23   0
       278    501.0184     56.1736 300.3327409 +22.5431430     614.1412     69.88843      1.430     3.35    -2.180611     19.70761     74.65288        13     0.960     0.940  68.64   0
       279     74.2442     56.4508 300.1999509 +22.4152863     310.9865     69.88843      1.356     4.00    -2.336943     19.70761     41.70182         6     1.051     0.435  55.07   0
       280    404.9544     54.2782 300.3034644 +22.5138105     439.9534     69.83505      1.246     4.14    -2.133166     19.70761     54.35331         9     0.985     0.643  58.25   0
       281    786.8921     52.5005 300.4229591 +22.6277243     226.9978     70.01279      1.412     3.08    -1.979364     19.70761     44.25265         5     0.965     0.600  84.56   0
       282    176.1903     44.7367 300.2354268 +22.4424945     2107.431     69.79945      1.294     2.54    -2.277428     19.70761     265.2625        20     1.062     0.878  52.96   0
       283    744.0439     44.6998 300.4121387 +22.6126499     446.8339     69.85285      1.472     2.84    -1.620347     19.70761     65.08984         8     0.930     0.606  -4.13   0
       284    737.2552     36.8835 300.4125590 +22.6083703     489.5432     69.94176      1.247     2.79    -1.467421     19.70761     72.44994        10     0.872     0.751 -67.43   0
       285    292.1133     36.6829 300.2740756 +22.4749357     626.8469     69.95952      1.309     3.32    -1.976957     19.70761     74.30567        11     0.960     0.787  31.22   0
       286    703.6075     36.1752 300.4023067 +22.5980891     109.4487     69.85285      1.257     4.59    -1.717242     19.70761     23.97858         5     0.837     0.716  24.87   0
       287    775.2711     31.7145 300.4260803 +22.6182696     355.5893     69.95952      1.586     4.54    -1.798821     19.70761     40.46164         8     1.135     0.781  77.31   0
       288    795.1761     28.0960 300.4334567 +22.6231903     1287.392     69.74601      1.272     2.46    -2.000818     19.70761     162.6951        19     1.011     0.926  52.83   0
       289    178.7841     23.7392 300.2430431 +22.4372447     554.8503     69.81725      1.294     3.59    -2.387165     19.70761     65.90134        11     1.108     0.719 -74.59   0
       290    970.4648     20.9330 300.4904250 +22.6736118     420.6588      69.9062      1.086     3.15    -1.990983     19.70761     58.94382         7     0.907     0.461 -75.86   0
       291    743.5646     20.5748 300.4198145 +22.6055725     369.5746     69.87064      1.137     2.47     -1.35849     19.70761     75.75751        11     0.855     0.788 -81.78   0
       292    931.9092   1010.9679 300.1566124 +22.9464263      550.922     69.79945      1.164     1.77    -5.480029     19.70761      128.462         9     0.794     0.670 -71.71   0
