#   1 NUMBER                 Running object number                                     
#   2 X_IMAGE                Object position along x                                    [pixel]
#   3 Y_IMAGE                Object position along y                                    [pixel]
#   4 ALPHA_J2000            Right ascension of barycenter (J2000)                      [deg]
#   5 DELTA_J2000            Declination of barycenter (J2000)                          [deg]
#   6 FLUX_APER              Flux vector within fixed circular aperture(s)              [count]
#   7 FLUXERR_APER           RMS error vector for aperture flux(es)                     [count]
#   8 FLUX_RADIUS            Fraction-of-light radii                                    [pixel]
#   9 FWHM_IMAGE             FWHM assuming a gaussian core                              [pixel]
#  10 BACKGROUND             Background at centroid position                            [count]
#  11 THRESHOLD              Detection threshold above background                       [count]
#  12 FLUX_MAX               Peak flux above background                                 [count]
#  13 ISOAREA_IMAGE          Isophotal area above Analysis threshold                    [pixel**2]
#  14 A_IMAGE                Profile RMS along major axis                               [pixel]
#  15 B_IMAGE                Profile RMS along minor axis                               [pixel]
#  16 THETA_IMAGE            Position angle (CCW/x)                                     [deg]
#  17 FLAGS                  Extraction flags                                          
         1    595.1028     15.1493 300.3787668 +22.5570588     424.5802     70.09894      1.351     4.14    -2.475348     19.75692      51.6166         9     0.992     0.798 -30.73   0
         2    204.7034     12.5411 300.2581856 +22.4393190     339.4462     70.09894      1.634     4.31     -2.66547     19.75692      39.0342         6     1.141     0.464  47.22   0
         3    758.5109     10.0857 300.4312952 +22.6045444     401.8974     70.18797      1.335     3.08    -1.572086     19.75692     52.55478         9     1.001     0.627  20.01   0
         4    566.8622      8.3129 300.3721931 +22.5466345     1057.061     70.11675      1.401     2.53    -2.442546     19.75692     139.1906        17     1.130     0.914 -57.57   0
         5    289.6331      6.1075 300.2866702 +22.4629298     349.8533     69.97409      1.308     4.09    -2.764106     19.75692     42.73195        10     1.055     0.751  77.82  16
         6      4.2071      4.5039 300.1985108 +22.3768952     419.5396     65.34017      1.273     4.51    -1.846916     19.75692      49.8011        10     0.968     0.731  87.14  16
         7    524.2004      2.2392 300.3608850 +22.5321088     690.6362     59.24441      1.303     2.92    -2.399161     19.75692     76.28868        13     0.942     0.861  47.98  24
         8    150.5150   1009.7307 299.9173180 +22.7090316     697.8063     70.13457      2.951     2.68     15.00023     19.75692     46.67167         5     0.764     0.452 -14.97   3
         9    236.7108   1001.0672 299.9469190 +22.7324443     1171.562     70.15237      8.227    19.10     2.468823     19.75692     37.03898        30     4.086     2.480 -48.26  19
        10    242.4083   1019.7849 299.9425946 +22.7395182     4658.699     69.70582      9.998    35.06     3.445179     19.75692     115.2565       354     8.816     4.985  20.37  26
        11    204.3282   1023.2618 299.9296298 +22.7290748     781.5878     56.72404      6.379     6.66     9.998593     19.75692     39.40306        13     1.609     0.774   2.03  24
        12    113.2803   1018.9936 299.9027367 +22.7004973     1548.419     69.95624     13.718    20.91     17.47774     19.75692     58.43105        73     4.397     2.761  42.52  27
        13     66.4339    981.9625 299.9002460 +22.6758154     1817.544     70.06329     14.880    21.25     2.768447     19.75692     49.55899        96     5.653     2.219 -76.54   3
        14     81.4313   1006.4880 299.8969178 +22.6873458     2845.828     69.99194     22.848    80.62     10.10747     19.75692     77.53392      1554    14.945    12.067 -58.49  26
        15    564.9019    994.7914 300.0510211 +22.8291972     901.3535     69.90266      1.046     1.82    -5.112577     19.75692     188.0973        10     0.775     0.654 -74.08   0
        16    110.5804    994.4416 299.9098925 +22.6926540     825.6829     70.06329      3.570     3.88     11.79002     19.75692      36.2967         5     1.069     0.403 -73.29   3
        17    113.6055    989.8149 299.9123384 +22.6922378       1364.5     69.90266     11.191    11.74     10.88044     19.75692     39.14567        28     2.016     1.961  49.45   3
        18    458.5395    991.3473 300.0190505 +22.7962780     615.7908     70.08112      1.049     2.05    -5.199194     19.75692     120.8229         8     0.806     0.587  88.35   0
        19    389.4234    989.4782 299.9981637 +22.7749889     3819.735     70.00979      1.038     1.95    -5.221528     19.75692     611.0603        19     0.903     0.806 -70.59   0
        20    107.9360    990.1166 299.9104794 +22.6906208     762.1754     70.13456      3.436     3.98     10.86847     19.75692     36.91148         5     1.322     0.343  63.15   1
        21     82.5239    972.7104 299.9082545 +22.6780000      2150.73     70.18797     18.255    26.48     4.457288     19.75692     58.58385       160     5.990     3.250  -6.88   3
        22    421.9188    976.0746 300.0126333 +22.7809048     207.2661     70.13456      1.126     2.71    -5.232997     19.75692     62.74436         7     0.831     0.543  50.74   0
        23    149.0989   1006.7224 299.9178577 +22.7077445     1070.816     70.15237      5.593     6.96     14.41195     19.75692     38.96038        13     1.518     0.895  -7.89   3
        24    935.4614    967.9297 300.1751798 +22.9326842     1312.613     70.06329      1.082     1.87    -5.217474     19.75692     250.5862        15     0.978     0.721 -65.52   0
        25    656.3580   1004.1072 300.0764543 +22.8593198     3986.811     70.04546      1.140     1.92    -5.475638     19.75692     700.3323        25     0.969     0.927  61.26   0
        26    724.6813    957.1308 300.1130245 +22.8663512     422.5503     70.13457      1.532     5.09    -5.304402     19.75692     68.71233        11     1.541     0.523  59.33   0
        27    134.0300   1005.1946 299.9136745 +22.7027795     1160.867     70.02763      5.990     7.74     14.12435     19.75692     43.24282        10     1.472     1.140  88.47   0
        28    759.4138    951.0330 300.1258271 +22.8750237       646.67     70.02763      1.067     1.70    -5.352705     19.75692     144.1493        10     0.782     0.705 -45.91   0
        29    536.5620    952.1495 300.0560864 +22.8084642     201.2599     70.02763      1.120     2.22     -5.16858     19.75692     52.60349         5     0.707     0.432 -64.22   0
        30    781.4598    944.7360 300.1347442 +22.8798319     6492.754     70.06329      1.036     1.86    -5.392028     19.75692     1189.013        28     0.950     0.860 -87.25   0
        31    972.4089    944.4410 300.1943455 +22.9370250     298.5195     70.02763      1.122     2.86    -5.124081     19.75692     49.83582         6     0.819     0.492  89.36   0
        32    827.0452    944.6740 300.1489656 +22.8934901     364.3527     70.00979      1.462     2.86    -5.374929     19.75692     41.81754         7     0.746     0.624  14.65   0
        33     92.7397    936.5966 299.9231834 +22.6707251     529.8878     70.00979      1.321     1.79    -1.934849     19.75692     79.07648         5     0.659     0.454  22.86   0
        34    833.2151    932.4171 300.1548783 +22.8918244     194.8321     69.99194      0.954     3.32    -5.279062     19.75692     41.55316         5     1.104     0.289 -54.77   0
        35    486.5092    932.5057 300.0469086 +22.7878070     284.6632     70.18797      1.360     3.18    -5.181479     19.75692     42.13313         5     0.890     0.538  46.10   0
        36     82.8231    928.0747 299.9228777 +22.6653048     331.3098     70.06329      1.058     1.89    -3.845748     19.75692     68.79485         5     0.713     0.464  38.14   0
        37    790.0311    926.7482 300.1432703 +22.8772430     908.1224     70.04546      1.008     1.87    -5.255809     19.75692     208.9815        10     0.796     0.664  82.74   0
        38    973.1348    925.7783 300.2006478 +22.9318865     178.8535     70.00978      0.914     1.77    -5.121443     19.75692     78.36739         6     0.701     0.506 -48.10   0
        39    828.0845    920.3004 300.1572244 +22.8868088     445.1867     70.18797      1.002     2.08    -5.250588     19.75692     107.8083         9     0.865     0.587 -73.16   0
        40    936.6195    917.4719 300.1919688 +22.9185516     242.9446     70.06329      1.009     3.22    -5.208553     19.75692     49.41998         5     0.924     0.519 -46.29   0
        41    876.5302    911.3092 300.1752469 +22.8987607     316.0204     70.18797      1.154     3.00    -5.225669     19.75692     48.01777         5     0.731     0.452  68.43   0
        42    728.0620    910.5117 300.1292543 +22.8539931     441.3228     70.09894      1.049     2.89    -5.115482     19.75692     78.20009         8     0.894     0.618  29.93   0
        43    440.5363    907.0773 300.0408854 +22.7667159     2380.737     70.09894      1.062     1.82    -4.943597     19.75692     438.6999        15     0.838     0.774 -74.96   0
        44    738.9670    907.5007 300.1336307 +22.8564012      252.001     70.00978      0.940     1.67    -5.108273     19.75692     69.05262         6     0.677     0.495  -8.60   0
        45    218.8429    895.8233 299.9756277 +22.6969226     278.3675     70.08112      1.214     3.54    -4.188702     19.75692     32.17435         6     0.744     0.579  50.92   0
        46    165.6671    892.8267 299.9600816 +22.6800928     508.6126     70.00978      1.188     1.98    -3.050422     19.75692     83.24017         7     0.741     0.569 -67.19   0
        47    142.9727    889.8774 299.9539916 +22.6724311     881.1974     70.02763      1.201     1.92    -3.402982     19.75692     172.6063        13     0.898     0.758  77.22   0
        48     74.3245    891.2560 299.9322221 +22.6522046     358.2078     70.06329      1.398     3.36     -4.32092     19.75692      39.8538         5     0.904     0.424  -7.55   0
        49     17.6587    879.6732 299.9183972 +22.6318628     200.0016     70.06329      1.081     3.20    -4.779285     19.75692     55.66589         7     0.896     0.596  57.21   0
        50   1014.4780    878.5739 300.2289046 +22.9307346     1226.478     70.02763      0.981     1.92    -5.032404     19.75692     221.5326        14     0.779     0.746 -34.63   0
        51    968.8000    877.0250 300.2151668 +22.9165934     1155.714     69.93839      1.015     1.66    -5.128041     19.75692     294.1489         9     0.695     0.649 -77.43   0
        52    752.1660    871.1353 300.1495783 +22.8499282     334.6207     70.02763      1.078     1.92    -5.100675     19.75692     80.74676         8     0.781     0.572 -41.83   0
        53    174.8993    871.4183 299.9699170 +22.6767315     231.7823     69.93839      0.896     1.94    -4.244634     19.75692     51.82957         5     0.673     0.455 -22.59   0
        54    620.4711    865.0900 300.1105396 +22.8086812     2744.207     70.18797      1.078     1.85    -5.090376     19.75692     477.1353        19     0.885     0.831  63.88   0
        55    110.0464    866.0840 299.9515077 +22.6557239     290.5674     70.00978      1.033     2.20    -4.456643     19.75692     63.20734         5     0.743     0.478 -64.66   0
        56    422.5313    862.2506 300.0498751 +22.7484592     378.0016     70.00979      1.030     2.71    -4.383467     19.75692     73.78159         5     0.725     0.441  66.04   0
        57    170.7077    859.1208 299.9726166 +22.6719488     825.3882     70.15237      1.099     2.03    -4.529122     19.75692     142.4564         9     0.772     0.657  22.56   0
        58    641.1386    857.6072 300.1194086 +22.8127364     454.9175     70.00978      1.055     2.56    -5.061829     19.75692      88.2253         9     0.885     0.661  50.09   0
        59    557.7749    848.1582 300.0965362 +22.7850107     316.1805     70.08112      1.530     3.50    -5.084183     19.75692     30.95828         5     1.027     0.344  45.31   0
        60    796.3380    844.7742 300.1719169 +22.8556149     2513.057     70.02763      1.093     1.87    -5.012999     19.75692     404.8006        20     0.902     0.867 -27.46   0
        61   1013.3761    844.7715 300.2395628 +22.9207004     742.0276     70.02763      1.029     1.99    -4.915592     19.75692     136.5582        10     0.801     0.657  63.63   0
        62    513.4141    837.6515 300.0861516 +22.7686845     353.0467     70.06329      1.040     2.43    -4.772772     19.75692     55.94324         6     0.663     0.622  18.21   0
        63    159.9124    835.5092 299.9769461 +22.6619406     596.1501     70.18797      1.130     2.21    -4.609117     19.75692     105.9929         7     0.803     0.532  46.47   0
        64    309.5363    827.5742 300.0260248 +22.7045957     31480.38     70.00979      1.107     1.98    -4.561667     19.75692     4910.396        57     1.084     1.020  81.16   0
        65    574.8716    830.1832 300.1077063 +22.7849859     228.1042     70.02763      0.892     2.37    -4.971823     19.75692     67.71516         5     0.886     0.326  46.81   0
        66    567.3389    826.3501 300.1066092 +22.7816260     804.2155     70.08112      1.123     2.17    -4.950613     19.75692     124.8523        12     0.808     0.779  33.35   0
        67    980.1602    825.6711 300.2354220 +22.9052582     585.9423     70.00978      1.180     1.91    -4.811364     19.75692     93.30743         7     0.660     0.615 -83.67   0
        68    596.2513    822.4828 300.1168661 +22.7891925     500.0626     70.04546      1.093     2.25    -4.934743     19.75692     81.79676         8     0.759     0.645 -48.05   0
        69    607.3617    820.4577 300.1209833 +22.7919454     344.0538     70.02763      0.890     1.98    -4.929977     19.75692      79.6422         5     0.666     0.459  73.04   0
        70    927.5861    817.8138 300.2215894 +22.8872389     164.5576     69.95624      1.082     2.59    -4.752053     19.75692     46.11708         6     0.724     0.614 -21.19   0
        71    750.2059    807.5563 300.1696582 +22.8310978      447.932     70.02763      1.126     2.97    -4.876261     19.75692     69.51977         7     0.892     0.553  23.75   0
        72    359.2261    804.7917 300.0488858 +22.7129819     18154.75     70.02763      1.180     2.05    -4.326311     19.75692     2905.638        47     1.075     1.032  86.48   0
        73    373.5318    805.3989 300.0531365 +22.7174504     1198.703     69.99194      1.161     2.06    -4.337577     19.75692     205.6705        12     0.819     0.759 -77.73   0
        74    882.2596    800.4570 300.2131101 +22.8686651     1720.357     70.09894      1.072     1.91    -4.504594     19.75692     301.4478        15     0.820     0.787 -70.78   0
        75    370.3633    799.2734 300.0541442 +22.7147430     460.6962     69.97409      1.453     3.65    -4.332151     19.75692     55.10059         7     0.957     0.566 -66.38   0
        76    241.7134    796.5667 300.0150330 +22.6753440     475.7202     69.99194      1.069     2.38    -4.714376     19.75692     79.90193         8     0.840     0.619  -6.45   0
        77    640.2681    796.4666 300.1390330 +22.7949362     553.8022     70.08112      1.007     2.26     -4.80621     19.75692     105.6263         8     0.815     0.612  18.98   0
        78    487.5646    791.3029 300.0931901 +22.7476346     438.1428     70.02763      1.121     2.60    -4.511352     19.75692     72.51881         8     0.862     0.600 -64.69   0
        79     46.3367    792.2330 299.9557518 +22.6154282     223.1391     70.02763      0.997     2.92    -4.753054     19.75692     53.49219         5     0.734     0.446  74.35   0
        80    433.1934    786.2570 300.0779184 +22.7298697     296.9229     70.00979      1.254     3.90    -4.384228     19.75692     38.61856         6     0.770     0.566  48.12   0
        81     74.8997    785.9499 299.9666652 +22.6222070     285.9612     70.11675      1.272     1.90    -4.758884     19.75692     63.10368         6     0.703     0.528  53.58   0
        82    239.4050    781.0924 300.0193498 +22.6702154     385.4225     69.93839      1.034     2.07    -4.641711     19.75692     56.62735         6     0.725     0.485 -82.04   0
        83    532.2763    769.6848 300.1141346 +22.7548516     477.4731     70.13457      1.331     2.27    -4.604599     19.75692     56.67128         6     0.719     0.518 -46.38   0
        84    441.5688    768.7877 300.0862067 +22.7273737     201.7556     70.02763      1.218     3.48     -4.36961     19.75692     34.39286         5     0.771     0.454  71.39   0
        85    554.1265    767.0360 300.1217957 +22.7606481     751.1292     69.97409      1.189     2.07    -4.642484     19.75692     134.5794        10     0.810     0.691 -84.92   0
        86    948.6129    765.7126 300.2450963 +22.8785865     2637.559     69.97409      1.074     1.87    -4.435946     19.75692     449.6129        19     0.940     0.839 -71.02   0
        87    635.6713    761.7632 300.1488923 +22.7836009     232.7922     70.00979      1.005     4.15    -4.639794     19.75692     29.70595         6     0.731     0.672 -19.47   0
        88    937.1177    757.1123 300.2443108 +22.8726710     1118.474     70.13456      1.204     1.75     -4.32808     19.75692     219.9917        15     0.950     0.766  45.22   0
        89    300.1356    751.1443 300.0479675 +22.6798626     412.1433     70.08112      1.262     2.40     -4.65999     19.75692     74.16158         7     0.819     0.523  52.54   0
        90    763.2445    748.5379 300.1929206 +22.8180720      1455.37     70.04546      1.103     2.09    -4.495665     19.75692     225.8086        15     0.861     0.806 -65.75   0
        91    968.2344    747.1758 300.2572439 +22.8791468     931.4009     70.04546      1.061     1.77    -4.469253     19.75692      193.456        11     0.871     0.659 -68.83   0
        92    148.7896    734.9834 300.0061932 +22.6297910     358.0229     69.97409      1.115     2.73     -4.72353     19.75692     57.68558         8     0.744     0.700 -71.19   0
        93    845.9898    734.4581 300.2232795 +22.8388446     343.0027     69.99194      1.157     3.69    -4.049584     19.75692     44.38588         6     0.793     0.494   6.15   0
        94    881.8492    725.4099 300.2373974 +22.8469992     86643.77     70.04546      1.109     1.86    -3.968546     19.75692     14952.37       102     1.146     1.100 -88.33   0
        95    734.2156    725.5984 300.1913411 +22.8027824     484.0151     69.88478      1.153     3.19    -4.497155     19.75692     66.16799        10     0.941     0.760  27.69   0
        96     45.3016    725.1544 299.9772490 +22.5958968     95.46785     70.04546      0.975     3.26    -4.679823     19.75692     40.25717         5     0.750     0.435  76.10   0
        97    914.6337    717.9487 300.2500423 +22.8546863      391.967     70.04546      1.126     2.12    -3.975013     19.75692      63.8077         5     0.700     0.436  68.01   0
        98    568.0025    714.4009 300.1432353 +22.7497118     965.7707     69.81326      1.294     2.32    -4.206009     19.75692     147.6804        17     1.028     0.840  14.02   0
        99    231.4619    713.8879 300.0387408 +22.6485655     240.0981     70.11675      1.306     3.48    -4.338252     19.75692      42.3719         5     1.187     0.295  35.57   0
       100    749.3589    711.5229 300.2006358 +22.8032844     5543.701     70.00979      1.139     2.09    -4.357741     19.75692     794.5413        30     1.025     0.940 -87.69   0
       101    250.9756    706.9134 300.0470734 +22.6524240      2919.55     69.97409      1.238     2.07    -4.396392     19.75692     491.8061        20     0.950     0.909 -74.43   0
       102    333.0023    704.9675 300.0732039 +22.6764879     702.1027     69.99194      1.267     2.22    -4.367565     19.75692     105.9025         9     0.741     0.721 -87.45   0
       103    208.3156    702.7560 300.0351685 +22.6384254     227.4595     69.99194      1.030     2.54     -4.29849     19.75692     47.97803         6     0.726     0.540 -47.93   0
       104    540.9602    700.4288 300.1393638 +22.7375903      383.221     70.04546      1.244     3.16    -3.955688     19.75692     66.14561         9     0.890     0.716  15.26   0
       105    532.8337    692.5647 300.1393926 +22.7328961     1830.408     70.08112      1.208     2.16    -3.855883     19.75692      264.059        20     1.026     0.887 -66.15   0
       106    523.0275    686.2279 300.1384020 +22.7281361     759.4208     69.99194      1.114     2.06    -3.767308     19.75692     134.1466         8     0.760     0.616  40.30   0
       107    916.7812    683.5618 300.2618959 +22.8454569      361.377     70.02763      1.275     1.87    -3.723623     19.75692     61.16434         5     0.681     0.456 -22.66   0
       108    186.4507    682.4647 300.0349733 +22.6260442     288.5925     70.08112      1.259     3.04    -4.126285     19.75692     48.49961         6     0.874     0.438 -71.74   0
       109    200.5347    680.9850 300.0398305 +22.6298482     345.5741     70.00979      1.243     3.11    -4.171213     19.75692     54.45304         8     0.848     0.653   2.46   0
       110    257.3642    677.7643 300.0585382 +22.6459844     363.0022     70.09894      1.952     5.07     -4.29201     19.75692     32.44462         7     1.143     0.648 -32.99   0
       111    226.4160    677.7906 300.0489116 +22.6367019     392.1982     69.95624      1.150     2.69    -4.252827     19.75692     51.63682         5     0.732     0.430 -66.08   0
       112    969.9149    677.0862 300.2805655 +22.8595246     230.9372     70.15237      0.958     1.81    -3.995601     19.75692     70.81371         6     0.699     0.511 -29.45   0
       113    448.0156    675.9737 300.1183996 +22.7026882     1039.305     70.04546      1.258     2.25    -4.021629     19.75692     165.8032        15     0.956     0.837 -77.08   0
       114    101.8956    671.1441 300.0123877 +22.5974125     11575.53     70.08112      1.244     2.03    -4.197183     19.75692     1929.998        41     1.121     0.993  88.81   0
       115     22.7103    672.8003 299.9872596 +22.5741092     411.0522     69.93839      1.203     3.36    -4.432158     19.75692     55.25034         9     1.032     0.665  79.94   0
       116   1023.5026    673.0864 300.2985754 +22.8744373      367.071      55.5672      0.945     1.93    -4.391249     19.75692     83.83969         6     0.708     0.493  80.58  24
       117    533.0243    671.2716 300.1463764 +22.7268444     504.4957     70.06329      1.103     2.17    -3.565686     19.75692      91.3084         7     0.724     0.593 -11.95   0
       118    950.7551    657.2641 300.2810386 +22.8480894      615.058     70.04546      1.019     1.59    -3.737772     19.75692     138.3106         8     0.735     0.581  -0.47   0
       119    114.5484    656.0130 300.0212375 +22.5968743     271.8549     70.06329      1.335     3.32    -3.990627     19.75692      49.3758         5     0.791     0.577  -1.40   0
       120     47.6032    655.0087 300.0007735 +22.5764854     929.0848     69.84903      1.551     4.04    -4.299612     19.75692     104.9729        15     1.230     0.864 -83.04   0
       121    817.4316    655.2374 300.2401466 +22.8075398     247.8375     70.02763      0.977     3.45    -3.846131     19.75692       38.334         5     0.742     0.465  72.75   0
       122    496.2774    652.1753 300.1411521 +22.7103414     213.9158     70.04546      1.174     3.32    -3.542666     19.75692     40.75944         5     0.920     0.351 -43.34   0
       123    891.2338    649.9047 300.2648786 +22.8281342     530.7036     70.00978      1.565     2.64    -3.588533     19.75692     64.75503         9     0.871     0.674  19.40   0
       124    452.8546    644.1566 300.1302507 +22.6950131     396.5918     70.02763      1.259     3.31    -3.691757     19.75692     60.73383        10     0.993     0.709  43.87   0
       125    647.8340    640.8837 300.1919928 +22.7525629     288.8945     69.99194      1.380     3.85    -3.791761     19.75692     40.27157         8     0.983     0.690 -20.07   0
       126    618.4916    640.7274 300.1829089 +22.7437176     340.5404     70.18797      1.268     4.08    -3.657465     19.75692     43.53225         7     1.005     0.474  79.66   0
       127    497.2126    639.9908 300.1454048 +22.7071263     506.6216     69.92052      1.273     3.07     -3.47982     19.75692     68.23988         7     0.851     0.644 -81.52   0
       128    930.7344    635.3830 300.2819126 +22.8358047     1880.647     70.00979      1.113     2.03    -3.560535     19.75692     310.2863        15     0.854     0.808  49.89   0
       129    462.6068    635.4612 300.1361115 +22.6954445       973.56     69.99194      1.198     2.36    -3.558644     19.75692     154.5569        14     0.914     0.846  33.07   0
       130     24.6371    629.3705 300.0019778 +22.5622410     2989.396     70.04546      1.187     2.13    -4.406297     19.75692     447.2961        22     0.995     0.919  52.93   0
       131    970.2943    624.9992 300.2976216 +22.8446796     149.6722     69.90266      0.796     2.73    -3.629925     19.75692     49.14656         5     0.758     0.405 -71.00   0
       132    326.0946    622.3556 300.0979185 +22.6507235     5201.238     70.04546      1.301     2.35    -3.653844     19.75692       660.52        29     1.066     1.031 -44.94   0
       133    448.4457    619.3031 300.1369597 +22.6865605     5304.119     70.04546      1.322     2.34     -3.47731     19.75692      673.495        33     1.153     1.054 -85.10   0
       134    853.3918    617.2090 300.2637166 +22.8074021     142.9832     69.88478      1.626     4.43    -3.546155     19.75692     21.60216         5     1.174     0.476  32.13   0
       135    860.0865    613.0164 300.2671659 +22.8082051     945.2761     69.99194      1.205     2.31    -3.515757     19.75692     166.6001        12     0.910     0.756 -63.76   0
       136    944.6707    610.4537 300.2943625 +22.8328225     7135.452     70.04546      1.130     2.02    -3.507267     19.75692     1070.325        31     1.011     0.951 -73.01   0
       137    509.0441    608.8701 300.1592040 +22.7017467     6657.792     69.99194      1.323     2.36    -3.321095     19.75692     928.9458        35     1.157     1.031 -89.55   0
       138    678.4068    604.8438 300.2132294 +22.7513875     230.6956     70.04546      1.151     1.65    -3.658726     19.75692     66.56197         5     0.740     0.626 -28.74   0
       139    236.5019    604.5419 300.0758608 +22.6187266      874.774     70.11675      1.353     3.23    -3.538879     19.75692     103.5626        14     1.112     0.854  21.54   0
       140    440.7200    597.0521 300.1417902 +22.6778591     2645.792     70.02763      1.370     2.30    -3.371088     19.75692     375.2012        26     1.084     1.032 -83.73   0
       141    783.4866    597.0620 300.2484864 +22.7806606     395.6065     70.11675      1.165     2.68    -3.705588     19.75692     68.83926        11     0.981     0.685  44.56   0
       142    418.9795    595.5980 300.1355007 +22.6709194     720.0034     69.95624      1.282     2.48       -3.401     19.75692     100.9828        10     0.813     0.779 -49.40   0
       143    173.0972    594.8190 300.0593195 +22.5969074     463.0925     69.95624      1.332     3.06    -3.530825     19.75692     65.03666         8     0.879     0.732 -76.37   0
       144    860.5337    592.3627 300.2740200 +22.8024084     1035.771     70.00979      1.356     2.74    -3.502848     19.75692     113.4589        16     1.114     0.806 -29.71   0
       145    740.7222    589.3231 300.2376814 +22.7656174     407.2518     70.13457      1.153     3.21    -3.817089     19.75692     61.23527         8     0.929     0.655 -54.92   0
       146    557.2813    584.5830 300.1821099 +22.7092466     120029.6     70.02763      1.326     2.43    -3.220685     19.75692     14973.65       146     1.381     1.291 -58.01   0
       147    243.4686    584.6566 300.0844899 +22.6151150     1937.493     70.04546      1.225     2.25    -3.528078     19.75692      302.146        19     1.007     0.873  82.98   0
       148    809.5704    580.4444 300.2620147 +22.7837090     258.8422     70.06329      1.187     3.76    -3.622505     19.75692     45.91875         6     0.942     0.432  73.21   0
       149    292.3694    567.4894 300.1052693 +22.6248668     228.4435     69.99194      1.144     3.42    -3.481451     19.75692     35.59651         5     1.078     0.313  69.15   0
       150    447.8058    565.0724 300.1543896 +22.6708097     1538.857     69.97409      1.426     2.59    -3.312045     19.75692     208.9302        22     1.224     0.920  83.77   0
       151    678.6312    560.8010 300.2276164 +22.7388123     300.8012     69.99194      1.854     4.60    -3.585431     19.75692     25.05627         5     0.837     0.717 -22.15   0
       152    844.8369    550.8354 300.2826278 +22.7857781     987.5413     70.09894      1.281     2.55    -3.540068     19.75692      132.845        14     1.046     0.764  88.89   0
       153    716.0862    548.5694 300.2432558 +22.7465310      1517.79     70.00978      1.320     2.55    -3.624971     19.75692     208.1818        19     1.037     0.981  24.82   0
       154    960.3326    546.0080 300.3201953 +22.8190057     328.7544     70.02763      1.255     2.60    -3.512233     19.75692     47.99944         5     0.736     0.422  69.61   1
       155    503.2647    544.8446 300.1782176 +22.6816412     411.4888     70.02763      1.474     2.32    -3.199396     19.75692     60.70282         6     0.830     0.570  21.99   0
       156    973.1788    542.4791 300.3253475 +22.8218415     676.8806     70.02763      1.195     2.36    -3.523664     19.75692      120.071        13     0.955     0.759  17.63   0
       157    959.1257    541.6464 300.3212367 +22.8173912     474.3287     70.02763      1.262     2.63    -3.515573     19.75692     67.64395         7     0.866     0.546 -78.30   0
       158    845.0981    541.2903 300.2858117 +22.7831152     1285.943     70.20576      1.340     2.54    -3.537449     19.75692     164.5529        16     1.013     0.830 -86.92   0
       159    598.3903    539.0316 300.2097108 +22.7085021     401.3581     70.02763      1.468     2.83     -3.04554     19.75692     50.67915         7     0.738     0.683 -56.32   0
       160    883.2117    536.0897 300.2993795 +22.7930450     2372.889     69.97409      1.241     2.20    -3.497302     19.75692      385.735        20     0.974     0.893  78.86   0
       161    543.5529    532.3384 300.1948187 +22.6901357     170.8402     70.06329      0.942     3.86    -3.039409     19.75692     31.62036         6     0.903     0.473  -0.59   0
       162    975.0230    526.5526 300.3310989 +22.8178190     376.9053     70.04546      1.172     2.43    -3.542276     19.75692     71.09048         8     0.862     0.640 -81.37   0
       163    115.4578    526.7341 300.0635419 +22.5600842     591.6153     70.06329      1.321     2.72    -3.602215     19.75692      79.4882        10     0.845     0.790 -62.51   0
       164    656.8824    506.8393 300.2383824 +22.7168001      437.252     69.99194      1.267     2.15    -3.074756     19.75692      70.6452         8     0.790     0.596 -50.23   0
       165    971.1606    498.9956 300.3388506 +22.8087451     286.7726     70.04546      0.991     2.24    -3.574179     19.75692     60.10616         7     0.799     0.618 -25.25   0
       166    717.3301    498.7413 300.2598371 +22.7325976     532.9575     70.04546      1.569     2.94    -3.207076     19.75692     70.97329        10     0.958     0.746 -29.66   0
       167    874.7305    494.9213 300.3101157 +22.7786788     677.7944     70.13457      1.435     2.62    -3.504738     19.75692     79.58533        11     0.875     0.794  35.87   0
       168    858.9478    491.1401 300.3064259 +22.7728629     376.9621     70.08112      1.243     3.96    -3.495983     19.75692     51.24998         6     0.738     0.607 -46.59   0
       169    603.2451    489.4587 300.2273320 +22.6957282     1990.449     70.06329      1.382     2.61    -2.980578     19.75692      217.944        19     1.004     0.966 -87.74   0
       170     79.5349    480.7772 300.0673172 +22.5361242     112.3652     70.00979      1.094     3.41    -3.747396     19.75692     28.55616         5     0.754     0.445  68.31   0
       171   1014.5606    468.2400 300.3623774 +22.8129114     766.1073     70.09894      1.060     1.97    -3.595809     19.75692     119.5889        11     0.847     0.668  46.65   0
       172    886.4140    468.4455 300.3223602 +22.7745750     197.7491     70.04546      1.171     4.59    -3.529077     19.75692     35.38847         7     0.854     0.707  58.95   0
       173    972.7495    467.0481 300.3497274 +22.8000426       590.54     70.06329      1.165     2.00    -3.595809     19.75692     103.5979         7     0.682     0.643 -65.30   0
       174    713.8200    463.3486 300.2702443 +22.7213827     567.5043     70.00978      1.335     2.77      -2.9705     19.75692     76.50719        11     0.966     0.727 -33.31   0
       175    217.6572    461.8852 300.1163648 +22.5721574     353.3698     70.13457      1.418     4.44     -3.56037     19.75692      53.8496         6     1.006     0.556 -21.55   0
       176    280.2399    457.5444 300.1372259 +22.5896895     2205.828     70.00979      1.351     2.68    -3.352992     19.75692     269.3109        22     1.073     0.990  84.76   0
       177   1013.1756    455.6334 300.3660417 +22.8088741     2555.969     70.04546      1.201     2.01    -3.595809     19.75692      452.184        22     1.081     0.860 -82.32   0
       178    227.4305    452.3496 300.1224999 +22.5723547      4302.91     70.06329      1.361     2.50    -3.528694     19.75692     498.2726        28     1.123     1.028 -89.43   0
       179    993.1928    446.7262 300.3627045 +22.8003283     1076.437     69.97409      1.246     2.09    -3.595809     19.75692      182.151        16     0.979     0.849 -69.79   0
       180    368.2630    446.4913 300.1681837 +22.6129243      2781.87     70.11675      1.381     2.63    -3.135232     19.75692     331.3245        25     1.127     1.003  87.18   0
       181    612.3774    443.0630 300.2452492 +22.6851469     10539.75     70.00979      1.415     2.69    -2.793777     19.75692     1226.407        41     1.184     1.151  70.94   0
       182    630.0623    443.2429 300.2506963 +22.6905006     425.1616     70.02763      2.252     5.03     -2.77323     19.75692     44.43237         7     1.494     0.479 -20.78   0
       183    232.5342    430.7218 300.1311119 +22.5676818     258.1638     70.11675      0.966     3.39    -3.520618     19.75692     43.57033         5     0.780     0.428 -66.78   0
       184    945.9327    425.4535 300.3548809 +22.7800574     449.0697     70.04546      1.416     3.09    -3.595809     19.75692     55.39526        10     0.945     0.699 -60.51   0
       185    170.2786    423.9399 300.1139696 +22.5470568      6448.58     70.06329      1.232     5.54    -3.753231     19.75692     1735.284        24     1.662     0.520   6.78   0
       186    553.0394    412.5500 300.2366921 +22.6585961     3804.499     70.04546      1.434     2.75    -2.853878     19.75692     395.3873        29     1.162     1.090  80.99   0
       187    966.5767    412.6473 300.3654772 +22.7825625     783.4986     70.04546      1.249     2.28    -3.592454     19.75692     111.1316        12     0.850     0.791  77.37   0
       188    267.6611    411.8640 300.1481551 +22.5728103     412.5999     70.06329      1.370     3.13    -3.418828     19.75692     59.00976         8     0.921     0.595  75.44   0
       189    125.7343    405.3623 300.1061654 +22.5283618     363.3501     70.00979      1.532     3.21    -3.754577     19.75692     45.82424         6     0.732     0.635  58.95   0
       190    757.1124    401.3893 300.3038572 +22.7165650     662.1145     69.97409      1.383     3.65    -3.019322     19.75692     76.31983        12     1.031     0.845 -41.77   0
       191    666.6114    402.2932 300.2753784 +22.6896991     224.3295     69.97409      1.264     3.44    -2.678846     19.75692     30.83534         5     0.765     0.446 -71.61   0
       192    241.1981    400.8336 300.1435128 +22.5617068     2241.368     69.99194      0.592     0.81    -3.421229     19.75692     1397.009         7     0.442     0.434 -60.77   0
       193    459.6910    398.8975 300.2120808 +22.6266863     3397.468     70.20576      1.458     2.66    -2.899542     19.75692     440.7393        26     1.116     1.033  75.17   0
       194    195.1952    398.1078 300.1301021 +22.5471230     1922.269     69.93839      0.530     0.90    -3.597439     19.75692     1249.882         6     0.427     0.365  13.98   0
       195    851.4933    393.0860 300.3359597 +22.7424626     754.7025     70.20576      1.210     2.58    -3.496729     19.75692     107.0849        11     0.883     0.769  77.90   0
       196    948.7186    393.1244 300.3662515 +22.7716029     379.9128     70.13457      1.168     2.71    -3.585215     19.75692     60.75005         7     0.801     0.613 -13.95   0
       197    444.8206    387.5120 300.2111529 +22.6189590     258.9604     69.95624      0.981     2.27    -2.897655     19.75692     41.93692         5     0.702     0.457  22.32   0
       198    347.2848    378.1236 300.1838678 +22.5870131     1576.129     70.13457      1.399     2.87    -3.072839     19.75692     174.6931        21     1.104     1.031  45.63   0
       199     65.7932    375.5831 300.0972193 +22.5018334     532.7074     69.97409      1.184     2.62    -3.715608     19.75692     99.68852        10     1.010     0.614  86.28   0
       200    316.5468    367.6003 300.1777284 +22.5747738     17136.85     69.97409      1.428     2.60       -3.102     19.75692     2163.552        51     1.269     1.137  88.65   0
       201    851.1979    364.7340 300.3450765 +22.7342288     849.6952     70.02763      1.270     2.50    -3.474753     19.75692     129.5274        12     0.912     0.762 -74.40   0
       202     12.9278    355.6045 300.0872913 +22.4802387     2817.455     69.97409      1.320     2.32    -3.709744     19.75692     406.6657        24     1.069     1.031  72.23   0
       203    765.9996    353.7661 300.3220935 +22.7055491     308.6877     69.99194      1.454     3.45    -2.817657     19.75692     45.63256         7     0.885     0.694  85.52   0
       204    414.9232    352.6450 300.2131770 +22.5999855     323.2613     70.00979      1.505     4.24     -2.90962     19.75692     32.89103         6     1.043     0.491  57.75   0
       205    190.7468    353.2311 300.1432941 +22.5329141     336.6562     70.04546      1.391     3.88    -3.486956     19.75692     44.25611         6     0.810     0.532 -44.63   0
       206    726.9784    347.0076 300.3121339 +22.6919142     1093.932     70.00978      1.433     2.70    -2.813449     19.75692     132.5934        18     1.072     0.967  85.13   0
       207    941.7239    339.8655 300.3813689 +22.7542031     272.3907     70.11675      1.123     3.62    -3.471747     19.75692     44.00817         6     1.003     0.400 -77.49   0
       208    388.6428    331.8945 300.2117416 +22.5861486     1209.062     70.02763      1.626     4.40    -2.942229     19.75692     105.4663        20     1.320     1.019  52.59   0
       209    827.4971    324.4692 300.3507673 +22.7155594     351.0211     70.15237      1.259     3.12    -3.038739     19.75692     49.87691         8     0.963     0.589  46.13   0
       210    710.1500    322.3735 300.3148923 +22.6797952     216.9248     70.04546      1.283     4.58    -2.867529     19.75692     42.16268         7     0.987     0.605 -85.23   0
       211    464.6335    311.1541 300.2421132 +22.6029804     665.0953     70.06329      1.354     2.75    -2.905741     19.75692     88.54935        13     0.944     0.855 -73.28   0
       212    709.4257    303.0206 300.3209508 +22.6740191     1036.742     70.00979      1.310     2.71    -2.933602     19.75692     145.3607        17     1.039     0.895 -73.42   0
       213    970.4974    297.2787 300.4041687 +22.7505821     1902.938     70.13457      1.232     2.45     -3.17604     19.75692     236.0429        16     0.982     0.835 -72.37   0
       214    418.0359    287.0546 300.2354423 +22.5820906     338.0527     70.04546      1.428     3.27    -2.909571     19.75692     55.24574         6     0.736     0.698  69.56   0
       215     92.4415    281.2500 300.1361249 +22.4827709     767.6238     70.04546      1.581     3.61     -3.19796     19.75692     75.44948        16     1.084     1.060 -75.21   0
       216    123.3593    281.2767 300.1457200 +22.4920542     179.5006     69.99194      1.171     3.33    -3.144899     19.75692     46.03418         7     0.803     0.640 -65.73   0
       217    986.3631    277.3513 300.4155858 +22.7496059     259.7904     70.02763      1.052     3.08    -3.162784     19.75692     56.36295         5     0.735     0.448  72.64   0
       218    176.8062    273.7266 300.1647758 +22.5059211      221.479     69.97409      1.338     3.74    -3.084543     19.75692     43.75066         5     0.849     0.484  47.51   0
       219    781.1948    264.7295 300.3557378 +22.6845228     359.3242     69.99194      1.282     3.33    -2.922888     19.75692     44.38206         7     0.858     0.581  26.85   0
       220    879.1688    253.3704 300.3899544 +22.7106082     1165.737     70.02763      1.351     2.71     -2.93863     19.75692     141.5786        15     0.974     0.879  86.46   0
       221    297.6736    251.0343 300.2097074 +22.5356596     1366.221     70.00978      1.500     2.76    -2.770285     19.75692     146.7812        20     1.137     1.010 -58.77   0
       222    375.6294    246.0981 300.2355488 +22.5576181     616.8644     69.95624      1.742     3.49    -2.989141     19.75692     57.63953        13     1.116     0.848 -80.25   0
       223    777.4745    244.9532 300.3609988 +22.6777260     318.5281     70.02763      1.511     5.28    -2.918703     19.75692     41.80565         7     1.299     0.619  60.85   0
       224    192.3850    238.3164 300.1811107 +22.5004329     478.4251     69.99194      1.377     4.11    -3.013371     19.75692     55.90354         6     0.719     0.681  -8.23   0
       225    730.2626    234.9227 300.3495483 +22.6606994     989.1689     70.09894      1.358     2.96    -3.039022     19.75692     111.5939        14     0.995     0.838 -84.08   0
       226    795.0442    234.7403 300.3697878 +22.6800549     366.8619     70.04546      1.423     4.25    -2.846292     19.75692     38.98188         7     0.727     0.709  37.31   0
       227    213.8137    231.5552 300.1899643 +22.5049196     318.8235     70.04546      1.333     3.42    -3.001173     19.75692     51.31199         5     0.934     0.444  15.80   0
       228   1001.5421    227.0168 300.4366594 +22.7396820      506.988     70.00979      1.308     2.76    -3.201222     19.75692     74.75869        10     0.898     0.740 -41.79   0
       229    734.1102    226.3562 300.3535273 +22.6593909     518.6745     70.04546      1.626     3.48    -3.047614     19.75692     57.73243         8     0.976     0.616  -2.74   0
       230    654.7428    225.5860 300.3290607 +22.6353890     704.3065     70.00979      1.355     2.77    -2.923466     19.75692     98.40325        14     0.954     0.875  34.32   0
       231    850.1780    217.1126 300.3926889 +22.6915043     839.3799     69.95624      1.332     2.85    -2.887484     19.75692     104.0093        14     1.040     0.801  37.61   0
       232    581.0621    217.4800 300.3087537 +22.6109808     590.0909     70.11675      1.299     2.45    -2.901251     19.75692     73.43267         9     0.828     0.671  57.68   0
       233    862.3683    216.0332 300.3968383 +22.6948454     483.1447     70.04546      1.416     3.51    -2.903613     19.75692     62.18966         9     0.959     0.727   4.99   0
       234   1023.0586    206.8682 300.4499093 +22.7403319     919.9526     57.77134      1.146     2.04    -3.337516     19.75692     167.3827        10     0.792     0.715  85.83  24
       235    978.7585    206.4046 300.4362454 +22.7269340     634.8404     70.04546      1.238     2.73    -3.103681     19.75692     85.26617        11     0.892     0.765  15.82   0
       236      2.7452    203.3688 300.1335486 +22.4335181      327.141     61.66185      1.350     3.19    -2.251353     19.75692     49.57488         8     0.923     0.628  82.43  16
       237    213.4021    200.1915 300.2000154 +22.4957948     374.1171     69.84903      1.136     2.13    -2.850232     19.75692     59.84355         5     0.691     0.454  69.07   0
       238     75.0619    194.6603 300.1588313 +22.4527145     1298.791     70.06329      1.349     2.22    -2.697822     19.75692     191.4111        18     0.988     0.947 -63.40   0
       239    898.0348    191.3885 300.4159533 +22.6984440     477.3056     70.02763      1.461     3.46    -2.781554     19.75692     52.15906         8     0.926     0.669  78.27   0
       240     24.4752    191.4626 300.1441594 +22.4366216     265.7763     70.08112      1.015     2.83    -2.399158     19.75692     55.76316         6     0.898     0.394  22.27   0
       241    821.9855    189.5519 300.3928489 +22.6751391      1897.53     70.06329      0.653     2.53    -2.857891     19.75692     801.8972         8     0.570     0.336 -88.10   0
       242    232.3202    187.9451 300.2098690 +22.4979532      3323.04     70.06329      1.455     2.70    -2.752284     19.75692     391.6823        27     1.196     1.035  82.02   0
       243     16.5170    182.4591 300.1446099 +22.4316511     518.2628     70.11675      1.090     2.17    -2.372426     19.75692     105.0604        13     0.896     0.786  58.23   0
       244    215.8360    179.0821 300.2076220 +22.4904661     458.1152     69.99194      2.003     3.58    -2.731323     19.75692     47.61892         7     0.995     0.791  80.89   0
       245    876.2732    169.1120 300.4164001 +22.6855236     1944.069     70.17017      1.344     2.69    -2.802091     19.75692     229.9721        24     1.252     0.979 -70.23   0
       246    980.0526    167.8030 300.4491769 +22.7162237      1650.05     70.02763      1.296     2.26    -3.030573     19.75692      247.771        17     0.916     0.910 -31.48   0
       247    178.5035    165.3380 300.2004807 +22.4753257     158.4092     70.11675      1.277     4.18    -2.652025     19.75692     33.70606         5     0.962     0.517 -46.56   0
       248    425.9491    164.4358 300.2777025 +22.5492564     315.9823     70.02763      1.265     4.17    -2.555557     19.75692     44.41111         6     0.833     0.672  34.09   0
       249    540.1879    162.3947 300.3139088 +22.5829092     313.3713     69.90266      1.675     3.68     -2.92422     19.75692     26.96158         5     1.016     0.383 -85.18   0
       250    350.0458    156.2090 300.2567653 +22.5241407     349.4752     70.04546      1.448     4.75    -2.468952     19.75692     37.06492         7     0.837     0.785  60.36   0
       251    477.3772    152.0284 300.2977275 +22.5611077      1145.42     70.02763      1.451     3.58    -2.836149     19.75692     119.5148        19     1.217     0.981  72.42   0
       252    405.2558    152.6341 300.2750953 +22.5396646     196.4913     70.04546      1.253     4.18    -2.462143     19.75692     34.60184         6     0.729     0.685  83.91   0
       253    116.0522    153.5909 300.1848897 +22.4532246     324.0442     70.02763      1.160     3.62    -2.631369     19.75692     49.57198         6     0.953     0.491   1.18   0
       254    251.2527    131.9028 300.2339376 +22.4875433     3378.664     70.09894      1.398     2.74    -2.584597     19.75692     421.4787        25     1.157     1.013  81.12   0
       255    102.3304    131.4267 300.1878183 +22.4427486     370.4233     70.02763      1.247     3.19    -2.601623     19.75692     43.00234         5     0.714     0.465  17.99   0
       256    880.5355    129.0555 300.4307265 +22.6752854      199.432     70.08112      1.261     3.74    -2.545585     19.75692     37.11736         5     0.731     0.642 -14.60   0
       257     13.3200    121.4813 300.1634014 +22.4131968     313.8146     70.15237      1.707     4.68    -2.406952     19.75692     38.34619         6     1.730     0.360 -60.52   0
       258    497.2729    117.0506 300.3152666 +22.5570239     3650.935     70.04546      1.460     2.95    -2.609324     19.75692     358.7572        26     1.159     1.056 -82.49   0
       259    382.8910    116.8968 300.2797343 +22.5226983     382.0558     70.20576      1.560     4.69    -2.448082     19.75692     43.00481         9     1.102     0.651 -44.35   0
       260    749.6264    106.7171 300.3971843 +22.6296592     498.8651     70.00979      1.512     3.39    -2.408536     19.75692     51.59594         6     0.858     0.495 -44.86   0
       261    842.1720    105.2619 300.4264902 +22.6569573     391.3581     70.02763      1.521     3.83    -2.403346     19.75692     40.29704         7     0.864     0.596 -24.47   0
       262    189.9693    101.0182 300.2249110 +22.4603022     342.0652     70.00978      1.655     4.72    -2.634844     19.75692     37.93133         7     1.023     0.618  28.91   0
       263    625.6086     97.0836 300.3616883 +22.5897411     3527.261     69.97409      1.429     2.81    -2.390638     19.75692     391.8573        28     1.152     1.080  89.06   0
       264    549.0957     99.5987 300.3370553 +22.5675396     252.2518     69.93839      1.356     3.43    -2.483913     19.75692     34.87405         5     0.781     0.436 -20.20   0
       265    400.5888     96.1429 300.2919714 +22.5220428     775.6093     69.99194      1.385     3.12    -2.419703     19.75692     94.75055        15     1.062     0.874 -87.00   0
       266    666.8500     94.5032 300.3753663 +22.6013544     490.3174     70.09894      1.510     3.70    -2.303213     19.75692     57.28064         9     1.006     0.601 -53.51   0
       267    736.8217     92.1402 300.3979247 +22.6216346     240.4264     70.00979      1.323     4.81    -2.244968     19.75692      27.9383         6     1.124     0.584 -18.60   0
       268    952.5319     87.7695 300.4665643 +22.6849722     174.4444     70.00979      1.077     3.15    -2.452263     19.75692      37.0483         5     0.732     0.444  67.05   0
       269    149.4037     88.0651 300.2165084 +22.4444202     405.5134     70.04546      1.469     4.44    -2.591521     19.75692     40.16571         6     0.860     0.652  58.59   0
       270    721.8041     86.1952 300.3951757 +22.6154279     326.3049     69.86691      1.270     2.09    -2.222915     19.75692     50.90763         6     0.681     0.562 -37.15   0
       271    310.9745     82.9465 300.2683848 +22.4913920     248.9681     70.04546      1.179     4.79    -2.545763     19.75692      35.5509         6     1.343     0.485 -77.10   0
       272    669.9473     81.8665 300.3804301 +22.5986509     1442.276     70.06329      1.346     2.90    -2.324801     19.75692     185.5653        19     1.049     0.956  87.56   0
       273    684.9575     80.9291 300.3854084 +22.6028778     606.3411     69.99194      1.899     5.64    -2.290276     19.75692     49.84101        10     1.271     0.707  39.49   0
       274    756.3387     73.6194 300.4100122 +22.6221568      867.169     69.99194      1.335     2.74    -2.108418     19.75692     98.86667        14     0.969     0.850 -79.27   0
       275    500.0402     66.2068 300.3326210 +22.5432480     601.1578     70.06329      1.279     2.45    -2.439616     19.75692     92.99057        10     0.870     0.705  81.33   0
       276    693.7903     66.2639 300.3929163 +22.6013089     522.7109     69.99194      1.593     4.62    -2.249472     19.75692     63.90749         8     1.048     0.700  50.85   0
       277     72.5638     66.1806 300.1997372 +22.4150963     302.1125     70.04546      1.405     4.78     -2.27221     19.75692     39.79456         6     0.915     0.708  -0.75   0
       278    403.7294     64.0485 300.3033588 +22.5137665     584.1324     70.00979      1.578     5.89    -2.380294     19.75692     56.03392        13     1.063     0.922 -70.81   0
       279    786.0067     62.9174 300.4227262 +22.6279655     216.8462     69.95624      0.980     2.22    -2.027664     19.75692     40.68841         5     0.620     0.561  89.54   0
       280    175.2885     54.5724 300.2354143 +22.4425674     2190.048     70.00979      1.401     2.61    -2.601272     19.75692     230.6288        24     1.124     1.055  57.24   0
       281    743.1713     54.7922 300.4120175 +22.6128017     254.8747     70.02763      1.133     2.15    -1.945867     19.75692     54.87183         6     0.701     0.553 -39.81   0
       282    736.3713     46.4630 300.4126009 +22.6083711     476.2637     70.02763      1.299     2.84    -1.879313     19.75692     60.71913        11     0.904     0.793 -78.26   0
       283    290.9084     46.5456 300.2739528 +22.4749245      736.153     70.08112      1.474     3.83    -2.668075     19.75692     81.11362        13     1.069     0.932 -86.43   0
       284    774.2567     41.0323 300.4261640 +22.6181558     301.3919     70.04546      1.227     3.92    -1.834122     19.75692     47.53194         9     0.991     0.638  31.92   0
       285    697.5946     41.2698 300.4022079 +22.5952649     413.0161     69.99194      1.671     3.57    -2.184056     19.75692     43.23607         5     0.791     0.463 -75.33   0
       286    794.1816     37.7834 300.4334253 +22.6231884      1207.15     70.00978      1.309     2.58    -1.809599     19.75692     162.1093        18     1.075     0.933  59.31   0
       287    499.9803     36.8004 300.3421401 +22.5347821     205.2923     69.95624      1.047     2.21    -2.415302     19.75692     48.33853         5     0.762     0.463  59.13   0
       288    177.6184     33.2389 300.2430569 +22.4371414     502.0557     70.04546      1.281     3.20    -2.592463     19.75692     56.26214         9     0.883     0.732  63.39   0
       289    969.0201     31.3380 300.4900098 +22.6736802     411.8802     69.99194      1.342     3.55    -2.544219     19.75692     51.95895         8     0.855     0.693  51.73   0
       290    742.4802     30.0780 300.4198180 +22.6054909     425.7636     70.13457      1.162     4.05    -1.740811     19.75692     66.91714         8     0.908     0.750  65.36   0
       291    327.1596     20.3252 300.2937270 +22.4782605     352.3281     70.00978      1.596     4.51    -2.532581     19.75692     28.95659         5     1.202     0.480  56.19   0
       292    930.9798   1020.4092 300.1566930 +22.9463980     483.1463     68.40347      1.011     1.96    -5.227571     19.75692     108.6452         9     0.817     0.599 -67.86  16
       293    247.4471    998.8054 299.9509918 +22.7350213     354.8049     70.00978      1.071     2.58     1.088991     19.75692     63.47039         7     0.743     0.627 -60.30   0
       294    169.4926   1020.9850 299.9195486 +22.7179569     1381.871     66.66489      5.358     9.91     15.67801     19.75692     48.51773        24     1.749     1.567  50.44  26
       295    234.0802   1017.9415 299.9406069 +22.7364884     1744.689     70.08112      2.754     9.18     4.472934     19.75692     90.11429        29     2.286     1.066  48.71  19
       296    807.9992    998.0070 300.1256660 +22.9030760     354.5352     69.84903      1.362     2.76    -5.979098     19.75692     47.44798         6     0.719     0.690   7.40   0
       297     84.4041    958.6154 299.9134270 +22.6745278      2135.76     69.88478     13.110    25.83      1.93633     19.75692     56.18584       161     6.251     2.964 -20.19   3
