#   1 NUMBER                 Running object number                                     
#   2 X_IMAGE                Object position along x                                    [pixel]
#   3 Y_IMAGE                Object position along y                                    [pixel]
#   4 ALPHA_J2000            Right ascension of barycenter (J2000)                      [deg]
#   5 DELTA_J2000            Declination of barycenter (J2000)                          [deg]
#   6 FLUX_APER              Flux vector within fixed circular aperture(s)              [count]
#   7 FLUXERR_APER           RMS error vector for aperture flux(es)                     [count]
#   8 FLUX_RADIUS            Fraction-of-light radii                                    [pixel]
#   9 FWHM_IMAGE             FWHM assuming a gaussian core                              [pixel]
#  10 BACKGROUND             Background at centroid position                            [count]
#  11 THRESHOLD              Detection threshold above background                       [count]
#  12 FLUX_MAX               Peak flux above background                                 [count]
#  13 ISOAREA_IMAGE          Isophotal area above Analysis threshold                    [pixel**2]
#  14 A_IMAGE                Profile RMS along major axis                               [pixel]
#  15 B_IMAGE                Profile RMS along minor axis                               [pixel]
#  16 THETA_IMAGE            Position angle (CCW/x)                                     [deg]
#  17 FLAGS                  Extraction flags                                          
         1    568.4858     18.7392 300.3722450 +22.5465910     1046.538     70.08202      1.475     3.21    -1.672996     19.74212     115.3053        17     1.088     0.966  77.13   0
         2      5.9577     14.8961 300.1985921 +22.3768988     438.3159     69.99297      1.409     3.94    -1.835972     19.74212     53.90279        10     0.978     0.832  70.66  16
         3    525.8929     12.6671 300.3609566 +22.5320877     642.7272      70.1176      1.437     2.95    -1.578562     19.74212     91.62428        15     1.005     0.939  15.13   0
         4    631.0278      9.2889 300.3947819 +22.5626069     805.3386     69.95733      1.390     3.04    -1.674087     19.74212     97.53052        13     0.979     0.845   6.33   0
         5    226.4405      8.7665 300.2690808 +22.4412387     279.1862      70.0286      1.193     3.46    -3.019793     19.74212     34.95938         5     0.749     0.463 -72.20   0
         6    451.4920      3.1383 300.3408943 +22.5070611     1335.901     63.41124      1.548     3.26    -2.077394     19.74212     133.9235        21     1.203     1.086 -21.92  24
         7     98.6542      1.6074 300.2316931 +22.4008773     572.9995     56.01754      1.100     2.46    -1.720885     19.74212      118.295        10     0.921     0.673  -6.07  24
         8    658.0583   1014.5074 300.0764814 +22.8593168     3996.869      70.0286      1.043     1.79    -4.980531     19.74212     763.1457        21     0.918     0.800  49.92   0
         9    237.2911   1010.1531 299.9470102 +22.7317424     1037.707     69.97515      6.289     8.54     1.057541     19.74212     43.78811        15     1.484     1.375  63.82   3
        10    229.5078   1016.8538 299.9424091 +22.7313244     1349.719      70.0286      7.278     9.61      2.42266     19.74212     51.16917        25     2.205     1.169 -23.73  19
        11    241.7939   1021.7596 299.9446297 +22.7364203     2353.818     63.78384      7.460    19.31      1.25621     19.74212     80.57369       105     3.959     3.175  26.16  27
        12    109.5634   1002.1061 299.9099463 +22.6910691     1410.181     69.95733     15.528    24.55     9.337805     19.74212     54.24313        95     6.728     2.487 -23.58  19
        13     85.6516    969.4387 299.9131567 +22.6745279     1897.479     69.97515     11.392    28.68     2.239922     19.74212     47.05617       125     7.896     2.892 -12.99   3
        14     76.7093    975.1168 299.9085306 +22.6734679     1818.739     70.09981      8.791    16.28      1.95799     19.74212     52.67308        67     3.713     1.984 -81.03   3
        15     85.5577    982.3835 299.9089126 +22.6782077     2282.094     69.99297     16.647    27.30     4.174566     19.74212     51.06332       186     7.073     2.925 -14.01  19
        16     86.1180   1011.6013 299.8995721 +22.6867451     3216.509     69.86813     18.141    62.22     8.639127     19.74212     66.71026       966    13.533     7.937  43.48  27
        17     97.9990    988.0543 299.9109301 +22.6835698     1174.095     69.90382      5.538     6.68     6.877896     19.74212     78.23465        14     1.832     0.683 -58.12   3
        18     68.2131   1019.6284 299.8913974 +22.6836647      2805.43     69.88598      9.334    20.96     5.364685     19.74212     57.85862       136     3.768     3.387  42.69  27
        19    423.5089    986.6721 300.0125547 +22.7809324     337.6142     70.13538      1.306     2.87    -5.960306     19.74212     46.80979         5     0.712     0.464 -69.87   0
        20    809.8303   1007.6237 300.1259952 +22.9028822     306.3844     69.97515      1.221     3.99    -6.025879     19.74212     53.18678         6     0.931     0.561 -70.80   0
        21    937.2443    978.4047 300.1752212 +22.9327170     1206.172     69.97515      0.998     1.56    -5.654109     19.74212     305.5702        11     0.756     0.669  75.51   0
        22    435.4271    974.3757 300.0202661 +22.7809855     274.5317     69.95733      1.178     3.42    -5.803822     19.74212     44.59685         5     0.741     0.456  70.90   0
        23    725.8401    967.1759 300.1130041 +22.8660803     453.2382     70.01079      1.430     4.47    -4.995644     19.74212     66.90424         8     1.149     0.495  59.57   0
        24    760.8342    961.4435 300.1257708 +22.8749347     660.1365      70.0286      1.058     1.92    -5.151247     19.74212     144.5834        12     0.989     0.694 -60.38   0
        25    538.3845    962.6660 300.0561123 +22.8085338     208.3504     69.95733      1.203     3.46     -5.68903     19.74212     37.19865         5     0.739     0.467 -76.26   0
        26    783.0787    955.1162 300.1347608 +22.8797928     6560.509     70.09981      1.034     1.60    -5.236689     19.74212      1637.14        22     0.829     0.825  81.45   0
        27    828.6882    955.1423 300.1489628 +22.8934820       210.23     70.04641      0.918     1.95    -5.370032     19.74212     71.67179         5     0.713     0.420 -70.23   0
        28     94.3996    946.9544 299.9231943 +22.6707149     313.1964     69.97515      1.062     3.55   -0.5747554     19.74212     44.68081         7     0.839     0.598  66.47   0
        29    834.8527    942.8544 300.1548850 +22.8918052     254.5561     70.01079      0.988     1.96    -5.233379     19.74212     72.80349         6     0.757     0.551  83.52   0
        30    791.6777    937.2395 300.1432608 +22.8772434     907.7141     69.95733      1.045     1.75    -5.079382     19.74212     170.4766        11     0.886     0.634  12.52   0
        31    643.9531    934.3357 300.0981977 +22.8320904     406.8975     70.01079      1.523     4.01    -4.958369     19.74212     37.85843         6     0.935     0.556 -61.84   0
        32    829.7382    930.6642 300.1572605 +22.8867733     392.1586      70.0108      1.002     2.14    -5.079251     19.74212       95.453         9     0.805     0.642  77.73   0
        33    878.3531    921.7389 300.1753167 +22.8987930     408.4818      70.0108      1.191     2.92      -5.1186     19.74212      83.6293         7     1.002     0.457 -51.63   0
        34    729.5038    921.0577 300.1291619 +22.8539494     442.9269     70.04641      1.013     1.92    -4.915011     19.74212     86.24578         8     0.713     0.654   2.95   0
        35    740.8455    917.9256 300.1337143 +22.8564532       366.11     69.95733      1.041     1.95    -4.905377     19.74212     88.79246         6     0.700     0.538  49.61   0
        36    442.1941    917.4564 300.0409038 +22.7666986     2492.414     69.95733      1.082     1.88    -5.294309     19.74212     432.1671        20     0.981     0.827  49.56   0
        37    220.3952    906.1478 299.9756234 +22.6968651     372.4143     69.97515      1.175     3.84    -4.573153     19.74212     41.46593         5     0.998     0.424  74.40   0
        38    167.3092    903.1976 299.9600882 +22.6800773     541.8066     69.90382      1.121     2.39    -3.628672     19.74212     82.11462         9     0.786     0.718 -33.56   0
        39    144.4986    900.3096 299.9539415 +22.6723989       975.82     70.15316      1.110     1.99    -3.737108     19.74212     162.2302        13     0.849     0.742 -11.69   0
        40    566.6084   1005.1736 300.0510531 +22.8291937     919.0783     69.97515      0.986     1.67    -5.688325     19.74212     182.5348         9     0.718     0.626  13.33   0
        41   1016.0326    888.9127 300.2289276 +22.9306547     1306.054     69.95733      1.074     1.61    -5.804857     19.74212     326.1949        10     0.740     0.661 -78.12   0
        42    970.4537    887.5377 300.2151625 +22.9165947     1247.062      70.0286      0.978     1.87    -5.379935     19.74212     228.1424        13     0.811     0.716  40.35   0
        43    176.4051    882.1185 299.9697757 +22.6767685     279.1415     69.90382      1.192     2.48    -4.276438     19.74212     67.30392         5     0.882     0.353 -43.97   0
        44    754.1454    881.4125 300.1497442 +22.8499667      317.071     69.97515      0.917     1.39    -4.767237     19.74212     88.41394         5     0.604     0.454  28.61   0
        45    622.0740    875.5455 300.1105255 +22.8086622     2610.685     69.97515      1.070     1.93    -4.830843     19.74212     480.1623        19     0.900     0.821  76.48   0
        46    111.4700    876.3348 299.9514851 +22.6556095     169.3827      70.0108      1.258     4.14    -4.453346     19.74212     41.66388         5     1.130     0.433  51.99   0
        47    424.1914    872.7693 300.0498508 +22.7484820     256.2929     69.97515      1.110     2.61    -5.081116     19.74212     59.44796         8     0.786     0.677  57.76   0
        48    172.1354    869.3889 299.9725924 +22.6718383     811.1849     69.90382      1.072     2.95    -4.569846     19.74212     126.5751        12     0.959     0.712  83.71   0
        49    642.3906    867.9807 300.1193132 +22.8125877     410.1765     69.95733      1.187     3.39    -4.800053     19.74212     61.46576         7     0.740     0.678 -64.55   0
        50   1015.0762    855.1201 300.2396300 +22.9206661     835.9363     70.08202      1.235     1.78    -5.556531     19.74212     160.4295        13     0.931     0.791  -6.99   0
        51    798.0961    855.2523 300.1719518 +22.8556424     2438.958     70.04641      1.081     1.83    -4.659937     19.74212     483.0933        17     0.821     0.784  79.09   0
        52    206.2723    849.7347 299.9895964 +22.6764564     291.5889      70.0108      1.142     3.02    -4.678258     19.74212     43.69104         7     0.816     0.612  58.99   0
        53    515.0581    847.7842 300.0862530 +22.7685880     361.2299     69.95733      1.131     3.18    -4.985594     19.74212     60.94485         8     0.862     0.720  73.91   0
        54    161.3393    846.0016 299.9768497 +22.6618939     550.8914      69.9395      1.156     2.65    -4.680457     19.74212     100.3907        11     1.015     0.666  78.84   0
        55    311.1715    838.0724 300.0259973 +22.7046079     31281.24     69.97515      1.189     1.98    -4.681385     19.74212     5525.802        58     1.101     1.014  72.87   0
        56    576.6526    841.1635 300.1075772 +22.7851713     333.2504     69.99297      1.198     2.45    -4.712574     19.74212     61.64691         5     0.731     0.433 -70.37   0
        57    569.0180    836.9916 300.1065587 +22.7816839      881.549     69.92166      1.064     1.93    -4.693733     19.74212     181.8704         9     0.730     0.677  85.85   0
        58    981.8511    835.9180 300.2355194 +22.9051925     494.7383     69.99297      0.989     1.69    -5.017724     19.74212       134.14         8     0.724     0.600 -67.57   0
        59    239.2879    836.4865 300.0041685 +22.6825723      256.319      70.1176      1.159     2.85    -4.679406     19.74212     39.27777         5     0.710     0.463  20.38   0
        60     18.3879    835.2085 299.9359620 +22.6158681     149.0315     69.86813      1.076     3.50    -5.453288     19.74212     26.71158         5     0.809     0.436  71.37   0
        61    598.0648    832.8420 300.1169506 +22.7892087     427.7896     69.95733      1.140     2.36    -4.611075     19.74212     113.9575        10     0.872     0.670 -66.40   0
        62    608.7556    831.3759 300.1207558 +22.7919956     336.6938      70.0108      0.981     2.44    -4.579564     19.74212     60.48511         5     0.698     0.463 -15.95   0
        63    714.3213    827.5499 300.1548719 +22.8225659     255.0908     69.97515      1.054     2.85    -4.565436     19.74212     50.23991         5     0.700     0.488 -11.10   0
        64    751.9532    817.9588 300.1697147 +22.8311009     331.9445      70.0286      1.028     1.88    -4.531303     19.74212     93.87563         5     0.584     0.568  -5.74   0
        65    360.8975    815.2446 300.0488876 +22.7129898     18250.97     69.99297      1.216     2.05    -4.631777     19.74212     3142.628        45     1.109     0.987  89.00   0
        66    375.0779    815.6929 300.0531515 +22.7173746     1093.625      70.1176      1.160     2.26    -4.631778     19.74212       186.78        14     0.931     0.791  44.36   0
        67    883.9305    810.8501 300.2131514 +22.8686379     1539.448     69.97515      1.095     1.85    -4.651558     19.74212     345.6035        13     0.888     0.689 -85.58   0
        68    371.9382    809.8699 300.0540700 +22.7147625     412.0831     70.01079      1.417     4.17    -4.601938     19.74212     47.98765         8     0.969     0.666  28.77   0
        69    641.8445    807.0014 300.1389897 +22.7949293     590.6951     69.97515      1.188     2.62    -4.415836     19.74212     106.3167        10     0.913     0.769  89.65   0
        70    243.4155    807.0128 300.0150425 +22.6753628     487.2498     69.92166      1.046     2.94    -4.675162     19.74212     91.33215        10     0.926     0.778  85.40   0
        71     48.1578    803.0511 299.9556701 +22.6155957     421.0945     69.99297      1.559     3.31    -5.248687     19.74212     60.76091         6     1.035     0.526 -74.23   0
        72    488.9937    801.9076 300.0930727 +22.7476086     553.5541     69.88598      1.222     2.55      -4.4945     19.74212     84.40992        11     0.843     0.802 -12.85   0
        73    890.0841    798.8931 300.2189606 +22.8670505     276.8593     70.15316      0.910     2.84    -4.599484     19.74212     57.46635         6     0.873     0.464 -60.23   0
        74    346.9816    797.6059 300.0503000 +22.7037552     191.6333      69.9395      1.157     2.79    -4.554322     19.74212     37.12969         5     0.851     0.487   3.57   0
        75     76.6745    796.5300 299.9666480 +22.6222913     313.8154     70.04641      1.058     2.88    -5.071813     19.74212     48.25586         6     0.845     0.467  86.83   0
        76    867.9340    793.1365 300.2139303 +22.8587567     324.5009      70.0286      1.136     2.61    -4.582211     19.74212     48.35196         5     0.631     0.568  83.08   0
        77    240.8824    791.3573 300.0193493 +22.6701144     283.7705      69.9395      1.260     2.37    -4.674751     19.74212     56.52242         6     0.714     0.594  58.24   0
        78    533.9758    779.9869 300.1142029 +22.7548178     476.4507     69.97515      1.415     2.89     -4.26567     19.74212     55.43596         8     0.793     0.663 -59.73   0
        79    555.8620    777.3937 300.1218582 +22.7606403     906.7769     69.95733      1.173     1.95    -4.234043     19.74212      144.789        11     0.854     0.670 -79.14   0
        80    950.2829    776.1454 300.2451290 +22.8785673     2648.331      70.0286      1.074     1.72    -4.466729     19.74212     583.4135        19     0.868     0.800  81.86   0
        81    938.7313    767.5850 300.2443131 +22.8726465     967.1394     69.99297      1.029     1.93    -4.384582     19.74212     180.9473        12     0.844     0.668  64.87   0
        82    301.5517    761.7155 300.0478524 +22.6798282     472.3458     69.95733      1.130     2.15    -4.511605     19.74212     103.2705         8     0.875     0.555  17.19   0
        83    765.1398    758.9185 300.1930346 +22.8181112     1484.295     70.06422      1.222     1.99    -4.386693     19.74212     284.8165        18     1.090     0.816   3.85   0
        84    969.8779    757.6703 300.2572501 +22.8791362     958.8477     70.08202      1.090     1.76    -4.527409     19.74212     197.5758        10     0.739     0.681 -82.34   0
        85    150.5462    745.6489 300.0061485 +22.6298904      474.749      70.0108      1.262     3.19    -4.709374     19.74212     61.47354         9     0.872     0.791  -5.33   0
        86    883.5125    735.8637 300.2374211 +22.8469851     85465.08     70.08202      1.108     1.90    -4.127165     19.74212      14598.4        98     1.144     1.052  69.38   0
        87    735.7845    736.2786 300.1912561 +22.8028100     503.6996     69.99297      1.290     2.28    -4.583328     19.74212     83.72096         8     0.759     0.730 -61.25   0
        88    569.8167    724.6643 300.1433566 +22.7496986     988.6861     69.95733      1.199     2.14    -3.951404     19.74212     173.0533        12     0.888     0.710  71.02   0
        89    750.9364    722.0245 300.2006131 +22.8032623     5455.405     69.95733      1.216     2.09    -4.353543     19.74212     935.9767        26     1.009     0.919  77.80   0
        90    252.6230    717.3523 300.0470742 +22.6524216     2874.533     69.99297      1.214     2.16    -4.608431     19.74212     406.5668        21     1.065     0.848  81.06   0
        91    334.6063    715.2330 300.0732508 +22.6764199     725.7872     69.97515      1.182     2.37    -4.117621     19.74212     105.9936        11     0.907     0.695  49.32   0
        92    542.7726    710.9376 300.1394046 +22.7376475     422.7967     69.97515      1.239     2.46    -3.863842     19.74212     66.87923         7     0.735     0.627  86.40   0
        93    534.5280    702.9550 300.1394354 +22.7328839     1891.839     69.95733      1.251     2.27    -3.838313     19.74212     286.5926        18     0.969     0.895 -89.07   0
        94    524.7675    696.6502 300.1384486 +22.7281469     806.8446     70.01079      1.191     2.22    -3.832731     19.74212     141.6411        10     0.818     0.743 -84.33   0
        95    188.0718    692.9788 300.0349403 +22.6260569     421.5242     69.97515      1.444     2.95    -4.694337     19.74212     76.71152        10     0.982     0.724  -0.75   0
        96    202.0460    691.1778 300.0398686 +22.6297352     438.9148     70.01079      1.237     4.09    -4.699735     19.74212     59.60885         7     0.971     0.563  35.67   0
        97    228.1227    688.3542 300.0488910 +22.6367529     378.3543     69.95733      1.205     2.78    -4.694358     19.74212     49.17766         9     0.887     0.644 -70.28   0
        98    971.5922    687.5520 300.2805960 +22.8595139     304.9174     69.99297      1.212     4.04    -4.120806     19.74212     36.68145         6     1.021     0.457 -55.68   0
        99    258.8168    687.7455 300.0586292 +22.6457912     199.1953     69.95733      1.603     4.29    -4.527782     19.74212     34.20944         5     1.155     0.454  61.55   0
       100    449.4933    686.4763 300.1183362 +22.7026455     1092.749      70.1176      1.320     2.35    -3.904839     19.74212     143.6543        13     0.936     0.786  69.13   0
       101    103.5607    681.6695 300.0123623 +22.5974441      11787.9      69.9395      1.196     2.15    -4.680591     19.74212     1771.214        38     1.097     0.985  82.87   0
       102     24.4942    683.0402 299.9873607 +22.5740973     364.5212     69.99297      1.224     2.26    -4.275201     19.74212     63.97326         6     0.740     0.487  78.23   0
       103    534.3458    681.6199 300.1463181 +22.7267077     573.3293     69.95733      1.260     2.58       -3.744     19.74212     71.12792        11     0.873     0.759 -87.51   0
       104    569.8285    680.9413 300.1575824 +22.7371564     240.6156     69.97515      1.278     3.83    -3.788033     19.74212     27.93262         5     0.808     0.521 -32.04   0
       105    952.4194    667.8947 300.2810118 +22.8481221     571.9317     69.90382      1.122     2.81    -3.996953     19.74212     111.3788         9     0.863     0.689 -58.78   0
       106     49.5374    666.1339 300.0006355 +22.5767711     854.5812     70.01079      1.732     5.52    -4.333561     19.74212     94.33674        14     1.524     0.673 -83.89   0
       107    819.3055    665.7769 300.2402099 +22.8076136     260.7824     69.86813      1.262     3.27    -3.929817     19.74212     49.92781         8     0.919     0.614 -71.49   0
       108    115.6837    665.8718 300.0212656 +22.5965549     265.7335     70.09981      1.416     4.49    -4.626451     19.74212     30.08682         6     1.015     0.564  25.04   0
       109    497.4953    662.3302 300.1411242 +22.7101188     258.5137     70.08202      1.290     3.00    -3.804436     19.74212     52.80697         6     0.968     0.541  56.34   0
       110    892.6264    660.4384 300.2647968 +22.8280596     377.1003     69.99297      1.203     3.11    -3.990885     19.74212     62.25723         6     0.891     0.428 -73.25   0
       111    454.5325    654.7293 300.1302289 +22.6950497     419.1313      70.0108      1.489     3.52    -3.861951     19.74212     49.51393         7     0.856     0.645 -13.65   0
       112    649.6537    651.6534 300.1919587 +22.7526919     264.3018      70.0108      1.541     3.95    -3.808077     19.74212     36.44123         6     0.845     0.551 -44.97   0
       113    620.3898    651.6501 300.1828483 +22.7439150     310.7608     69.99297      1.128     3.47    -3.808077     19.74212     47.58059         5     0.756     0.461 -74.54   0
       114    498.6172    650.4403 300.1453400 +22.7070439     466.7333     69.99297      1.252     2.60    -3.764682     19.74212     70.17282        10     0.891     0.760 -87.38   0
       115    932.4019    645.9238 300.2819167 +22.8358127     1965.649     69.88598      1.120     1.92     -3.93712     19.74212      333.897        18     0.912     0.854  82.07   0
       116    464.2960    645.9638 300.1361169 +22.6954638     1028.551     69.97515      1.277     2.71    -3.836808     19.74212     126.7318        12     0.907     0.762   6.95   0
       117     26.3005    639.7934 300.0019848 +22.5622442     2933.033     69.86813      1.249     2.32     -4.20451     19.74212     412.7938        23     1.054     0.879  72.71   0
       118    494.0089    636.7738 300.1483503 +22.7017402     150.1464     69.97515      1.235     3.89    -3.746798     19.74212     27.29012         5     0.839     0.517  53.12   0
       119    327.6496    632.8851 300.0978690 +22.6507144     5373.515     69.95733      1.323     2.38    -4.157114     19.74212     786.4811        31     1.142     1.010  75.07   0
       120    450.1401    629.8008 300.1369688 +22.6865799     5108.378      69.9395      1.307     2.57    -3.830362     19.74212     651.4969        25     1.070     0.950  73.50   0
       121    861.6980    623.5742 300.2671457 +22.8082029     1045.593     69.92166      1.103     1.91    -3.858864     19.74212     204.1287        13     0.860     0.747  49.48   0
       122    946.2935    620.9349 300.2943741 +22.8327988     7154.674     70.08202      1.157     1.96    -3.832651     19.74212      1270.37        26     0.977     0.905  78.83   0
       123    510.6685    619.3804 300.1591902 +22.7017464      6668.14     69.95733      1.345     2.46     -3.63859     19.74212     864.0184        33     1.146     1.038  70.10   0
       124    238.0722    615.1068 300.0758023 +22.6187347     793.4042     70.09981      1.266     2.34     -4.42241     19.74212     114.7819        10     0.847     0.695 -85.31   0
       125    679.9164    615.2059 300.2132346 +22.7513045     206.5854     69.90382      1.108     2.65    -3.663988     19.74212     41.99954         6     0.742     0.549 -42.18   0
       126    485.4729    612.2533 300.1536675 +22.6921439     251.6068     69.99297      1.337     2.88    -3.709707     19.74212     37.67791         5     0.786     0.668 -34.48   0
       127    442.2992    607.6450 300.1417336 +22.6778709     2562.977     69.99297      1.303     2.36    -3.815898     19.74212     363.2954        20     0.968     0.960 -58.49   0
       128    785.1274    607.2580 300.2485910 +22.7805655     557.0463     70.01079      1.485     1.83    -3.811287     19.74212      80.7798         6     0.699     0.514  49.04   0
       129    420.5937    606.0140 300.1355117 +22.6708916     751.8181     69.86813      1.381     2.71    -3.857584     19.74212     94.82841        12     0.940     0.804  74.59   0
       130    175.1425    605.2950 300.0594357 +22.5970345     425.2351     70.04641      1.145     2.81    -4.215644     19.74212     55.15293         7     0.717     0.656  37.58   0
       131    861.9444    602.9191 300.2739389 +22.8023451      908.745     70.01079      1.339     2.36      -3.7779     19.74212     139.9414        14     1.022     0.889  51.71   0
       132    382.4205    601.6426 300.1250597 +22.6581855      223.496      70.0108      1.184     3.85    -3.932139     19.74212     41.46324         6     0.880     0.510  45.41   0
       133    742.4938    599.8475 300.2377188 +22.7656570     510.0793     69.99297      1.383     2.61    -3.805414     19.74212     69.41292        10     0.833     0.798  59.39   0
       134    558.9101    595.0790 300.1821053 +22.7092412     119371.6     70.09981      1.362     2.61    -3.492845     19.74212     14724.19       142     1.331     1.315  77.43   0
       135    245.0940    595.2762 300.0844322 +22.6151546     2080.046     70.09981      1.346     2.51    -4.176608     19.74212     247.0859        18     1.061     0.853  74.35   0
       136    384.7314    593.1004 300.1285557 +22.6564281     997.6947     70.06422      0.623     1.38    -3.852395     19.74212     513.5484         5     0.579     0.300  -1.10   0
       137    810.7141    590.6872 300.2619512 +22.7834770     331.2179     70.09981      1.252     2.14    -3.680804     19.74212     46.81018         5     0.700     0.443  14.63   0
       138    430.2632    589.5977 300.1438570 +22.6690822     1060.874     69.97515      0.738     0.97    -3.718782     19.74212      495.996         5     0.516     0.453 -49.22   0
       139    449.6063    575.6967 300.1543937 +22.6708958     1534.276     69.86813      1.454     2.76    -3.591331     19.74212     187.4677        22     1.367     0.893 -89.04   0
       140    846.4426    561.2997 300.2826394 +22.7857461     1007.179     69.95733      1.269     2.47    -3.547686     19.74212     127.4778        15     0.989     0.841 -77.40   0
       141    717.5808    559.1895 300.2431774 +22.7465147     1558.966      69.9395      1.363     2.67    -3.448769     19.74212     180.0112        20     1.049     0.951  47.63   0
       142    927.4552    555.7620 300.3096914 +22.8084332     233.9293     69.97515      0.945     3.26    -3.747944     19.74212     45.22573         5     1.095     0.283  36.15   0
       143    505.0642    555.3159 300.1782746 +22.6816807     364.4106     70.06422      1.273     3.24     -3.43188     19.74212     53.98857         9     0.891     0.691  66.46   0
       144    974.7789    553.0981 300.3253124 +22.8218478     655.2111     69.90382      1.223     1.87    -3.390683     19.74212     137.3622        12     0.908     0.809  47.17   0
       145    846.6998    551.4790 300.2859122 +22.7830026     1298.978     70.09981      1.462     3.00    -3.496499     19.74212     155.1122        19     1.386     0.864  75.44   0
       146    960.6727    551.9470 300.3212882 +22.8172905     453.7269     69.97515      1.143     2.25    -3.495409     19.74212      70.5834         7     0.703     0.635 -60.74   0
       147    600.4821    549.8091 300.2097633 +22.7087138     348.8764     69.92166      1.620     3.76    -3.429828     19.74212     39.28052         6     0.973     0.497 -86.71   0
       148    884.8258    546.6427 300.2993672 +22.7930393     2447.547     70.01079      1.208     2.26    -3.593879     19.74212     373.7565        18     0.942     0.854  87.87   0
       149    438.6101    548.4099 300.1598432 +22.6597675     249.4735     69.86813      1.336     4.88    -3.415206     19.74212     33.10244         6     0.978     0.691  24.22   0
       150    976.7146    536.9433 300.3311677 +22.8177865     411.2138     70.08202      1.095     2.22    -3.349366     19.74212     79.95026         6     0.706     0.570  40.10   0
       151    116.9972    537.1635 300.0635179 +22.5600461     570.6117     70.01079      1.275     2.66     -3.59142     19.74212     74.36948        10     0.861     0.747 -27.00   0
       152    109.9853    527.1766 300.0645856 +22.5550778     249.4984     69.97515      1.293     4.45    -3.584529     19.74212     31.44497         7     0.872     0.664 -56.45   0
       153    973.0362    526.1339 300.3335344 +22.8135789     308.6883     69.97515      1.157     1.97    -3.415598     19.74212     69.26334         5     0.731     0.468 -57.78   0
       154    606.3102    518.6463 300.2217071 +22.7015154     278.5981     69.95733      1.859     4.00    -3.254543     19.74212      35.4033         6     0.994     0.462 -87.93   0
       155    658.4051    517.0604 300.2384427 +22.7166785     482.6808      69.9395      1.569     2.42    -3.158433     19.74212     49.64355         7     0.711     0.641 -80.11   0
       156    719.1361    509.4516 300.2598295 +22.7326991     447.6849      70.0286      1.424     4.56    -3.085472     19.74212     43.68024         8     0.849     0.694  88.05   0
       157    972.8378    509.1528 300.3389922 +22.8086405     391.8243     70.01079      1.392     2.82    -3.469423     19.74212     45.38094         6     0.727     0.568 -55.68   0
       158    876.2421    505.3633 300.3101097 +22.7786096       697.95     70.04641      1.386     2.57    -3.540707     19.74212     78.46016        12     0.926     0.759  59.52   0
       159    860.4868    502.0590 300.3062731 +22.7729393     370.7563     70.06422      1.393     5.21     -3.49766     19.74212     42.45655         9     1.141     0.673 -66.56   0
       160    604.9509    500.0148 300.2273394 +22.6957590     1996.763     70.01079      1.421     2.86    -3.134643     19.74212     206.7161        21     1.084     0.991  74.30   0
       161    965.4344    498.4826 300.3401518 +22.8033568     430.3097      69.9395      1.325     2.74    -3.529724     19.74212     50.53186         6     0.850     0.452 -73.63   0
       162    444.2629    487.3500 300.1814473 +22.6439401     252.3876      70.0286      1.428     4.55    -2.994889     19.74212     33.83746         5     0.829     0.710 -52.35   0
       163   1016.1102    478.6490 300.3624009 +22.8128387     783.5075     69.97515      1.161     2.05    -3.493038     19.74212     141.1523        10     0.789     0.736  26.46   0
       164    974.4616    477.6364 300.3497418 +22.8000715     601.2908     69.99297      1.070     2.59    -3.531272     19.74212     89.30368        13     0.955     0.782 -82.92   0
       165    887.8083    478.6935 300.3223828 +22.7744139     308.4022     69.88598      1.216     3.81    -3.530687     19.74212     45.66804         9     0.912     0.735  86.59   0
       166    715.3533    473.7248 300.2702624 +22.7213057     524.8317     69.97515      1.362     3.33    -2.885878     19.74212      69.5244        12     1.037     0.780  88.40   0
       167    219.7045    472.6725 300.1163902 +22.5723691     352.0244     70.09981      1.482     3.12    -3.229954     19.74212     46.15222         8     0.883     0.644 -83.44   0
       168    281.8070    468.0298 300.1372029 +22.5896683     2001.597     69.97515      1.367     2.61    -3.127091     19.74212      287.149        20     1.098     0.936  80.19   0
       169   1014.7214    466.0795 300.3660527 +22.8088106     2409.658     70.09981      1.167     2.09    -3.392565     19.74212      424.461        18     0.926     0.843  86.17   0
       170    229.1164    462.8661 300.1225020 +22.5723797     4345.349     70.08202      1.348     2.61    -3.162362     19.74212     532.0907        28     1.146     0.990  82.31   0
       171    369.8537    457.0239 300.1681566 +22.6129205     2800.468     69.99297      1.399     2.82    -2.836056     19.74212     320.4268        25     1.151     1.025  89.44   0
       172    994.8230    457.2131 300.3627284 +22.8003023      981.556     69.95733      1.205     2.17    -3.336609     19.74212     164.3987        15     1.025     0.752  87.34   0
       173    614.0267    453.5525 300.2452639 +22.6851400     10844.34     69.99297      1.431     2.79    -2.959045     19.74212     1183.695        40     1.201     1.112  74.53   0
       174    631.6272    453.6443 300.2507140 +22.6904425     337.9085     69.99297      1.550     3.81     -2.93421     19.74212     32.25278         5     0.966     0.431  75.34   0
       175    240.7371    451.0901 300.1299402 +22.5724876     264.0418     70.06422      2.077     4.44    -3.072616     19.74212        32.98         5     1.222     0.460 -34.39   0
       176    947.6653    435.8632 300.3549612 +22.7800409     471.9413     70.01079      1.155     4.05    -3.181005     19.74212     62.20638         9     0.963     0.688  65.34   0
       177    168.8428    433.9690 300.1131596 +22.5460065      1217.08     70.01079      1.345     2.58    -3.018803     19.74212     178.2417        17     1.057     0.878  85.85   0
       178    554.6269    423.0910 300.2366704 +22.6585866     3921.909     69.92166      1.485     2.80    -2.978918     19.74212     444.1678        31     1.220     1.080  62.29   0
       179    968.2256    423.1396 300.3655062 +22.7825435     626.6236     69.97515      1.172     2.21    -3.061613     19.74212      111.386         9     0.791     0.676 -32.83   0
       180    269.4501    422.9127 300.1480204 +22.5730165     289.8219     69.97515      1.301     3.14    -2.862242     19.74212     50.42669         6     0.795     0.658  51.49   0
       181    668.2545    413.2310 300.2752500 +22.6898161      378.595     69.99297      1.417     3.03    -2.977451     19.74212      46.1693         8     0.892     0.624  -6.05   0
       182    758.7482    411.8068 300.3038992 +22.7165273     729.9495     69.97515      1.631     3.37    -2.995225     19.74212     68.66171        12     0.946     0.861  39.06   0
       183    461.2665    409.3818 300.2120711 +22.6266597     3514.991     69.95733      1.461     2.76    -3.001985     19.74212     400.5928        28     1.180     1.093  41.88   0
       184    853.1729    403.5278 300.3360115 +22.7424417     887.8631     69.95733      1.380     3.01    -2.944375     19.74212     101.8557        13     0.942     0.888  49.79   0
       185    950.6706    403.5685 300.3663912 +22.7716609     439.0937     69.97515      1.221     3.09    -3.015496     19.74212     60.63293         6     0.870     0.470 -89.08   0
       186    528.2338    395.8597 300.2373027 +22.6428557     257.5608     70.01079      1.414     3.53    -2.995348     19.74212     30.87821         5     1.049     0.342  45.54   0
       187    825.8624    391.3264 300.3314643 +22.7307538     366.3283     70.01079      1.305     3.73    -2.989461     19.74212      51.4314         7     1.000     0.517  26.82   0
       188    348.7423    388.6564 300.1838026 +22.5869682     1525.021     70.04641      1.501     2.80    -2.752334     19.74212     195.3395        19     1.129     0.944  57.19   0
       189     67.2901    385.8796 300.0972327 +22.5017418     591.2636     70.09981      1.320     3.30    -3.291601     19.74212     72.23613         9     0.862     0.723  69.00   0
       190    318.1912    378.1721 300.1777081 +22.5747969     17670.68     69.97515      1.438     2.77     -2.75255     19.74212     1904.642        54     1.257     1.208  67.90   0
       191    852.6604    375.3104 300.3450187 +22.7341807     789.2378     70.06422      1.343     2.80    -2.965264     19.74212     95.22415        14     0.991     0.844 -59.02   0
       192     14.5924    366.0634 300.0873031 +22.4802452      3089.96     69.95733      1.388     2.47    -3.827965     19.74212      380.329        29     1.141     1.073  -1.40   0
       193    767.7432    364.2708 300.3221439 +22.7055672     515.5813     69.99297      1.958     3.36    -3.053518     19.74212     43.54826         6     0.725     0.637  72.69   0
       194    728.5448    357.4334 300.3121537 +22.6918576     1068.753     69.99297      1.413     3.08    -3.081291     19.74212     125.8252        16     1.007     0.952 -85.16   0
       195    536.7370    352.8445 300.2539216 +22.6330538     333.1949     69.99297      1.587     5.12    -2.993704     19.74212     28.08062         6     1.083     0.685   0.95   0
       196    943.8467    350.2174 300.3815948 +22.7542845     372.0936     70.01079      1.337     3.10     -3.01403     19.74212     61.40234         6     0.734     0.585 -58.63   0
       197    390.4745    342.5031 300.2117726 +22.5862349     1280.041     70.09981      1.665     3.40    -2.809854     19.74212     130.5276        19     1.162     1.007  66.48   0
       198    602.5720    340.8197 300.2783204 +22.6493339     203.2498     69.97515      1.419     4.45    -3.049872     19.74212     28.24409         5     1.161     0.486 -84.81   0
       199    829.6213    335.0067 300.3509299 +22.7156980     277.8807     69.95733      1.418     3.71    -3.007302     19.74212     36.23721         5     0.789     0.572  -0.81   0
       200    711.9999    333.0003 300.3149360 +22.6798812     161.3248     69.76094      1.052     3.67    -3.095111     19.74212     28.13139         5     0.665     0.584  90.00   0
       201    466.3349    321.7392 300.2421154 +22.6030178     742.1674      70.0108      1.543     3.54    -2.983556     19.74212     81.27394        15     1.076     0.932  36.18   0
       202    710.9705    313.4185 300.3209749 +22.6739474     1185.797     69.97515      1.467     2.96    -3.105529     19.74212     136.9845        18     1.085     0.967  56.20   0
       203    972.1017    307.7393 300.4042013 +22.7505373     1746.442     70.04641      1.259     2.48    -3.094619     19.74212      260.063        18     0.935     0.916  -8.07   0
       204    419.8011    297.2924 300.2355769 +22.5820483     464.8397     69.86813      1.590     3.18    -2.984509     19.74212     50.18932         6     0.762     0.564 -54.54   0
       205     94.2309    291.7830 300.1361590 +22.4828314     835.8833     69.95733      1.596     3.99    -3.032536     19.74212     90.40157        14     1.202     0.872 -77.76   0
       206    125.2441    291.5136 300.1458811 +22.4920573     208.2236     69.95733      1.141     3.39     -3.09941     19.74212      42.1725         5     0.753     0.442  22.48   0
       207    782.8523    274.6541 300.3559558 +22.6843454      370.408     70.01079      1.460     3.18    -3.059803     19.74212     53.01667         8     0.901     0.723 -37.81   0
       208    880.7064    263.7248 300.3899998 +22.7105147     1194.616      70.1176      1.321     2.63    -2.959855     19.74212     158.3702        14     0.942     0.861  76.70   0
       209    299.2882    261.4832 300.2097242 +22.5356358     1173.566     70.08202      1.312     2.69      -2.7172     19.74212     159.8844        17     1.024     0.929  -3.92   0
       210    377.2982    256.7085 300.2355333 +22.5576541     539.6338     70.15316      1.390     2.65     -2.50363     19.74212     68.44907         8     0.903     0.588  69.12   0
       211    779.2379    255.4570 300.3610627 +22.6777462     307.1585     69.97515      1.208     2.87    -3.052415     19.74212      51.7393         8     0.915     0.586 -70.09   0
       212    194.0489    248.9273 300.1810870 +22.5004735     415.9828     69.97515      1.406     2.61    -2.904216     19.74212     51.79776         7     0.830     0.539 -39.60   0
       213    796.4489    245.1648 300.3697670 +22.6799441     314.6335     70.01079      1.463     5.31     -3.03175     19.74212     31.11036        10     1.026     0.776  50.27   0
       214    731.7303    245.4004 300.3495274 +22.6606249     469.9375     69.90382      1.370     3.03    -3.081701     19.74212     107.4519        15     1.070     0.861  60.06   0
       215    216.0113    241.7962 300.1902277 +22.5050132     301.8004     69.81456      1.418     3.75     -2.75161     19.74212     34.86293         5     0.819     0.494 -64.95   0
       216   1003.3312    237.5688 300.4367254 +22.7397158     460.3368     69.95733      1.129     2.42    -3.207666     19.74212     78.59631         9     0.833     0.701  -6.70   0
       217    735.9281    236.9488 300.3535789 +22.6594539     459.7325     69.97515      1.562     4.03    -3.071492     19.74212     42.91362         8     1.043     0.527  54.42   0
       218    656.1018    236.0233 300.3290168 +22.6352726     766.1681     69.90382      1.559     4.25    -3.081842     19.74212     70.34222        18     1.259     1.058  87.32   0
       219    851.7053    227.3933 300.3927562 +22.6913866      755.974     69.86813      1.345     2.96    -2.978586     19.74212     95.89178        13     0.971     0.853 -89.15   0
       220    583.0461    227.8590 300.3089209 +22.6110371     595.5828     70.01079      1.512     3.27    -2.920022     19.74212     71.54607         8     0.977     0.574 -67.55   0
       221    863.8018    226.6332 300.3967732 +22.6947908     566.2231      69.9395      1.486     3.48    -2.968303     19.74212     65.81507        11     0.935     0.837 -88.87   0
       222   1023.6992    217.2816 300.4496642 +22.7399807     476.8542     54.39088      0.936     2.40    -3.155308     19.74212     115.5397         7     0.873     0.549  75.53  24
       223    980.5105    216.9624 300.4362984 +22.7269586     627.8745     69.95733      1.248     2.43     -3.04424     19.74212     88.51531        10     0.884     0.683  24.22   0
       224      4.6707    213.8302 300.1336495 +22.4335996     281.7798     68.57082      1.381     3.93      -2.7848     19.74212     45.16843         6     1.033     0.429 -78.17  16
       225    214.6290    210.2852 300.2000268 +22.4955542     427.7102     69.97515      1.427     2.96      -2.6835     19.74212     56.42412        10     0.861     0.820  38.51   0
       226     76.5769    205.1464 300.1588000 +22.4526773     1195.484     69.99297      1.320     2.70    -2.783324     19.74212     165.6574        16     1.025     0.872  78.62   0
       227    899.5845    201.7711 300.4159979 +22.6983599     286.2441     69.99297      1.468     2.48    -2.850302     19.74212     53.66521         5     0.748     0.667  43.19   0
       228     26.3089    201.6635 300.1443179 +22.4365998     318.4879     70.06422      1.455     2.59    -2.736593     19.74212     52.92267         5     0.902     0.463  -7.02   0
       229    233.9689    198.4180 300.2098899 +22.4979469     3274.105     69.95733      1.426     2.68    -2.613642     19.74212      402.035        24     1.100     1.039  67.36   0
       230     18.3356    192.6951 300.1447526 +22.4316349     643.2536     70.06422      1.291     2.90    -2.686626     19.74212     87.00937        10     0.895     0.721 -64.10   0
       231    217.4418    189.1953 300.2077463 +22.4903439     383.8236     69.99297      1.359     3.45    -2.661321     19.74212     51.26148         5     0.740     0.466  72.65   0
       232    877.9378    179.6039 300.4164455 +22.6855054     1988.908     69.97515      1.335     2.67    -2.809832     19.74212     259.9194        22     1.069     0.997 -54.77   0
       233    981.5710    178.3917 300.4491494 +22.7161860     1602.649     69.97515      1.305     2.63    -2.600567     19.74212     180.5215        18     1.012     0.896  48.42   0
       234    180.7603    176.0123 300.2006246 +22.4755608     242.0746     69.97515      1.493     4.41    -2.749579     19.74212     32.59945         5     0.924     0.652  59.89   0
       235    351.9800    167.0369 300.2567663 +22.5243171     459.6386     69.99297      1.794     2.40    -2.508728     19.74212     53.12999         7     0.832     0.526 -45.53   0
       236    117.8396    164.2977 300.1848755 +22.4533300     438.4972     69.97515      1.563     4.26    -2.715544     19.74212     43.18889         7     1.085     0.477  67.21   0
       237    478.9428    162.3343 300.2977883 +22.5610193      851.694      70.0286      1.402     2.94    -2.652677     19.74212     97.72409        17     1.035     0.967 -87.01   0
       238    767.4668    151.5398 300.3911275 +22.6443556     269.6261      70.0108      1.617     3.65    -2.750754     19.74212     33.82892         6     0.978     0.393 -69.93   0
       239    252.9509    142.3354 300.2339912 +22.4875380     3467.396     69.99297      1.421     2.70    -2.588274     19.74212     405.7745        26     1.206     0.991  79.03   0
       240    104.0862    141.6776 300.1879430 +22.4427134     405.3737     70.09981      1.282     3.34    -2.659092     19.74212     53.28954         9     0.879     0.693  73.40   0
       241    498.8917    127.4708 300.3153097 +22.5569826     3426.496      70.1176      1.492     2.80    -2.589628     19.74212     425.4749        28     1.203     1.091  69.72   0
       242    384.5656    127.5331 300.2797204 +22.5227397     309.1985     69.97515      1.243     2.89    -2.567771     19.74212     54.49081         8     1.002     0.494  87.25   0
       243    751.1989    117.2066 300.3972007 +22.6296152     565.8582     69.79669      1.561     2.53    -2.520468     19.74212     58.06677         8     0.805     0.625 -34.65   0
       244    550.5559    110.4529 300.3369113 +22.5675733     350.9721     69.99297      1.720     3.77    -2.434317     19.74212     38.49104         6     0.910     0.700 -81.45   0
       245    627.2107    107.5414 300.3617201 +22.5897008     3614.671      69.9395      1.489     2.95     -2.26751     19.74212     374.2695        28     1.240     1.070  75.59   0
       246    402.3027    106.4425 300.2920808 +22.5219981     809.7053     69.97515      1.450     3.35    -2.576028     19.74212     85.53393        15     1.092     0.861  63.24   0
       247    668.5500    105.0849 300.3753902 +22.6013776     450.8104     69.95733      1.537     4.48    -2.247468     19.74212     54.23817         8     0.827     0.688 -13.17   0
       248    684.1865    101.1155 300.3815479 +22.6049203     185.1345     69.92166      1.251     4.85    -2.245864     19.74212     27.33058         7     0.852     0.782 -45.83   0
       249    151.0949     98.9350 300.2164166 +22.4445406     388.7292     70.09981      1.381     3.36    -2.624739     19.74212     46.27593         9     0.930     0.672 -76.68   0
       250    954.1688     97.8696 300.4667360 +22.6848282     279.2195     69.97515      1.337     4.48    -2.489499     19.74212     46.20694         7     1.064     0.693  -3.13   0
       251    723.0001     96.1868 300.3952366 +22.6151284     215.6262     69.79669      1.607     3.58    -2.315478     19.74212     34.48701         5     0.802     0.494 -61.89   0
       252    671.4929     92.3632 300.3804344 +22.5986029     1649.732     69.95733      1.491     3.02    -2.159365     19.74212     178.2133        19     1.107     0.990  34.13   0
       253    686.4614     91.2933 300.3854433 +22.6027787     636.8935     70.06422      2.004     4.90    -2.188524     19.74212     41.21743        13     1.154     0.955 -76.69   0
       254    758.0017     83.6188 300.4102182 +22.6219978     862.6531     69.90382      1.396     3.85    -2.321685     19.74212     94.00237        19     1.183     1.065 -48.33   0
       255    695.8890     77.1235 300.3929769 +22.6015296     465.7274      70.1176      1.356     3.27    -2.137511     19.74212     57.02544        10     0.995     0.714  14.09   0
       256    501.5753     76.3796 300.3327216 +22.5431090     619.1541     69.97515      1.513     2.97    -2.297187     19.74212     63.09015        10     0.885     0.766  45.13   0
       257     74.2692     77.0088 300.1996619 +22.4152109     468.2856     69.95733      1.906     2.56    -2.384093     19.74212     49.09704         6     0.849     0.456  51.17   0
       258    405.4014     75.1128 300.3032092 +22.5139278     475.9473     69.90382      1.304     2.99    -2.643701     19.74212     73.44662         8     0.953     0.650 -88.03   0
       259    745.0027     65.2414 300.4121306 +22.6128224     217.3849     69.99297      1.094     2.89    -2.175061     19.74212     46.75218         6     0.838     0.562 -89.90   0
       260    176.7589     64.7541 300.2354802 +22.4424222     2069.666      70.0286      1.426     2.63    -2.436202     19.74212     306.3581        23     1.118     1.063  48.02   0
       261    738.0267     56.9608 300.4126437 +22.6083531       409.19     69.99297      1.335     3.17    -2.114595     19.74212     70.65926         8     0.798     0.701 -40.50   0
       262    292.8192     56.9183 300.2740986 +22.4749621     733.9492     69.95733      1.377     3.22    -2.777733     19.74212     76.81087        12     0.914     0.873 -45.19   0
       263    698.7023     52.0110 300.4019999 +22.5951540     243.0954     69.86813      1.530     4.53    -2.005549     19.74212     31.55618         5     1.060     0.550  12.01   0
       264    795.8327     48.1552 300.4335104 +22.6231307     1360.865      70.0286      1.381     2.83    -2.127628     19.74212     144.9708        19     1.081     0.935  69.50   0
       265    179.1776     43.9792 300.2429707 +22.4371826      693.676     69.97515      1.613     3.52    -2.330559     19.74212     56.79935        11     0.965     0.836  10.18   0
       266    970.7382     41.8065 300.4900914 +22.6736643     355.8752      69.9395      1.234     3.67    -2.644806     19.74212     48.20741         6     0.773     0.539  46.10   0
       267    744.2848     40.8433 300.4198217 +22.6055937     451.4353      69.9395      1.354     3.92     -2.02184     19.74212     55.98706        10     1.006     0.717  35.57   0
       268    597.1354     25.4881 300.3789751 +22.5571118     424.8267     70.06422      1.327     3.07    -1.737205     19.74212     76.06742         8     1.017     0.587 -85.89   0
       269    206.5260     23.1164 300.2582370 +22.4393902     296.0028     70.06422      1.543     4.81    -2.665527     19.74212     33.74939         7     1.005     0.652 -67.17   0
       270    759.6613     20.8483 300.4310978 +22.6044496     435.7666      70.0286      1.479     3.32     -1.90449     19.74212     47.73339         8     0.922     0.648  14.80   0
       271    150.8552   1016.8030 299.9179868 +22.7076838     1588.423     69.92166      8.746    14.55     11.75241     19.74212     53.24141        45     2.890     2.038  35.24  19
       272    291.2076     16.7301 300.2866328 +22.4629372     349.3261     69.95733      1.242     3.75    -3.001778     19.74212     42.25785         7     0.801     0.761  18.52   0
       273    137.9934   1020.3752 299.9128278 +22.7048433     1122.701     68.47982      5.715     8.07     12.32489     19.74212     41.79776        10     2.661     0.685  48.87  19
       274    131.6197   1013.4331 299.9131087 +22.7009399     1184.292     69.97515      5.682     7.35     11.16788     19.74212     38.03332        17     1.485     1.018   1.61  11
       275    460.3253   1001.7423 300.0190992 +22.7963054     663.8959      70.0286      1.113     1.94     -6.06502     19.74212     107.0352         8     0.718     0.623  46.79   0
       276    391.0193    999.8491 299.9981586 +22.7749547     3905.394     69.97515      1.131     1.76    -5.679906     19.74212     837.0079        23     0.927     0.853  70.58   0
       277    232.5965   1022.9855 299.9413720 +22.7340090     1005.803     58.02974      5.777    11.26     2.510412     19.74212     53.05745        28     3.105     1.138   2.80  27
