#   1 NUMBER                 Running object number                                     
#   2 X_IMAGE                Object position along x                                    [pixel]
#   3 Y_IMAGE                Object position along y                                    [pixel]
#   4 ALPHA_J2000            Right ascension of barycenter (J2000)                      [deg]
#   5 DELTA_J2000            Declination of barycenter (J2000)                          [deg]
#   6 FLUX_APER              Flux vector within fixed circular aperture(s)              [count]
#   7 FLUXERR_APER           RMS error vector for aperture flux(es)                     [count]
#   8 FLUX_RADIUS            Fraction-of-light radii                                    [pixel]
#   9 FWHM_IMAGE             FWHM assuming a gaussian core                              [pixel]
#  10 BACKGROUND             Background at centroid position                            [count]
#  11 THRESHOLD              Detection threshold above background                       [count]
#  12 FLUX_MAX               Peak flux above background                                 [count]
#  13 ISOAREA_IMAGE          Isophotal area above Analysis threshold                    [pixel**2]
#  14 A_IMAGE                Profile RMS along major axis                               [pixel]
#  15 B_IMAGE                Profile RMS along minor axis                               [pixel]
#  16 THETA_IMAGE            Position angle (CCW/x)                                     [deg]
#  17 FLAGS                  Extraction flags                                          
         1    645.3381     17.8072 300.4124653 +22.5514229     1531.992     70.54694      2.002     4.42    -1.649088     19.90851     95.34808        29     1.432     1.334  74.32   0
         2    579.5876      7.7852 300.3952468 +22.5288408     694.0583     70.49299      1.837     4.85    -1.648289     19.90851     60.25616        17     1.199     1.138  47.22  16
         3    369.0422      1.2472 300.3318598 +22.4638589     809.7964     54.47806      1.161     3.10    -2.353443     19.90851     165.0459        10     1.157     0.431  -0.86  24
         4    835.3499   1010.4557 300.1489829 +22.8934969     359.4309     70.60086      1.152     3.07    -4.708749     19.90851     46.72541         5     0.715     0.487  11.38   0
         5    108.7168   1020.7388 299.9196013 +22.6782026     1065.182     68.11387     13.096    16.75   -0.4952921     19.90851     42.06771        29     4.336     1.798 -10.60  19
         6     89.6469   1020.0439 299.9139053 +22.6722716     992.6031     69.82411      3.825     4.05     -1.07339     19.90851     32.00813         5     0.990     0.550 -55.21  19
         7     89.2883   1023.4908 299.9126713 +22.6731512     934.8634     56.01619      4.213     6.58    -1.037976     19.90851      39.5647        13     1.547     0.787   0.02  27
         8     98.7339   1023.4855 299.9156063 +22.6759889      756.745     56.03883      5.443     6.72   -0.4072458     19.90851     40.12764        12     1.453     0.872   1.85  27
         9     95.4445   1022.0486 299.9150528 +22.6745885     1205.765     63.06694      5.367     8.09   -0.6072549     19.90851     45.14571        20     1.975     0.926 -48.28  27
        10    101.4993   1002.8306 299.9231922 +22.6709029     390.7141     70.54694      1.284     3.57    -1.287708     19.90851     55.46686         6     0.782     0.495  83.62   0
        11    841.6332    997.7987 300.1550633 +22.8917508     275.2795     70.52896      1.558     3.15    -4.696698     19.90851     52.65991         5     0.912     0.427  73.90   0
        12     91.3392    994.3291 299.9228056 +22.6654136     281.6708     70.60086      1.585     3.77    -2.009364     19.90851     33.10021         5     1.013     0.403  74.50   0
        13    798.3444    992.6970 300.1432386 +22.8772949     798.2165     70.65473      1.319     2.58    -4.734749     19.90851     96.50983        14     0.972     0.807 -67.20   0
        14    650.9128    989.4341 300.0983888 +22.8321029     379.2031     70.52896      2.023     4.39    -5.441256     19.90851     30.49946         5     1.118     0.492   3.59   0
        15    836.4460    985.9394 300.1573099 +22.8867910     640.5727     70.58289      1.865     3.99    -4.694791     19.90851     52.49416         9     0.939     0.771 -78.80   0
        16    736.0974    976.2974 300.1291916 +22.8539063      479.993     70.76236      1.736     3.82    -4.899687     19.90851     49.41335         8     0.959     0.651 -57.68   0
        17    448.7987    973.0257 300.0408393 +22.7667064     2527.791     70.51098      1.432     2.84    -4.737928     19.90851     273.1382        21     1.124     0.968  44.89   0
        18    109.9918    961.5031 299.9392878 +22.6616150     184.4337     70.45699      1.264     5.60    -3.092657     19.90851     39.72213         6     1.205     0.734  41.82   0
        19    173.7984    959.0068 299.9599202 +22.6800742     337.8764     70.38496      1.285     3.78    -3.258707     19.90851     51.29454        11     0.998     0.808   0.14   0
        20    151.2234    956.1047 299.9538523 +22.6724589     976.3116     70.45699      1.309     2.76    -3.356795     19.90851     110.5645        14     0.976     0.859  50.02   0
        21     81.9225    957.2144 299.9319672 +22.6519504     175.0065     70.58289      1.242     3.98    -3.655601     19.90851     34.17639         6     0.768     0.590 -45.71   0
        22   1022.7658    944.4539 300.2288964 +22.9307865     1163.603     59.76268      1.193     2.27    -4.451089     19.90851     161.3825        13     0.952     0.749 -77.80  24
        23    976.9821    942.8497 300.2151436 +22.9165918     1127.188     70.56492      1.251     2.10    -4.550609     19.90851     191.3174        14     0.901     0.844 -79.18   0
        24    183.2241    937.6977 299.9697868 +22.6768000     140.2418       70.475      1.213     3.88     -4.16174     19.90851     28.70281         5     0.848     0.615 -46.56   0
        25    760.4431    936.5780 300.1497089 +22.8498172     406.2334     70.61882      1.481     3.14    -4.724658     19.90851     51.20809         8     0.868     0.721 -42.54   0
        26    628.7401    930.9070 300.1105460 +22.8086579     2722.354     70.63678      1.458     2.85    -4.651026     19.90851     304.3137        27     1.190     1.056  77.45   0
        27    431.2694    928.0012 300.0500485 +22.7485320     293.5266     70.51098      1.274     4.04    -4.745508     19.90851     45.80368         9     0.993     0.660 -57.30   0
        28    179.0158    925.0541 299.9725960 +22.6719121     821.3193     70.52896      1.431     2.89    -4.538349     19.90851     102.0576        12     0.973     0.794  65.39   0
        29    649.6037    923.3399 300.1195049 +22.8127502     402.8842     70.54694      1.284     3.49    -4.593955     19.90851     54.15245         8     0.975     0.642 -54.86   0
        30    198.3085    921.6023 299.9797138 +22.6767195     222.8724       70.475      1.064     3.41    -4.516448     19.90851     38.93075         5     0.755     0.447 -19.15   0
        31    804.7789    910.5701 300.1719881 +22.8556593     2371.959     70.56492      1.434     2.67    -4.610482     19.90851      255.606        24     1.182     0.967  70.92   0
        32   1021.5392    910.6116 300.2395341 +22.9207022     704.0435     65.18327      1.236     2.13    -4.391508     19.90851     90.14391        11     0.825     0.717 -46.78  16
        33    213.5668    904.7410 299.9899441 +22.6764712     407.1786     70.58289      1.705     6.00    -4.425696     19.90851     32.62969        12     1.183     0.857 -26.67   0
        34    521.8052    903.1099 300.0863166 +22.7685802      240.759       70.475      1.259     4.05    -4.448311     19.90851     36.99271         6     1.016     0.674  71.57   0
        35    168.3243    901.5961 299.9769115 +22.6619769     597.8437       70.475      1.551     3.65    -4.566103     19.90851     65.43137         9     1.035     0.723 -85.95   0
        36    317.9276    893.5638 300.0260175 +22.7046171     30815.81     70.52896      1.530     2.86    -4.402599     19.90851       3007.5        67     1.342     1.271  69.82   0
        37    583.5851    896.3013 300.1077584 +22.7851753     207.2803       70.475      1.336     3.47    -4.335295     19.90851     32.86745         5     0.768     0.451 -71.48   0
        38    575.7325    892.4359 300.1065729 +22.7817091      1011.67     70.56492      1.565     3.20    -4.301844     19.90851     96.40816        15     1.041     0.890  39.04   0
        39    988.5975    891.2759 300.2355584 +22.9052698     444.8581       70.475      1.186     2.93    -4.350562     19.90851     79.70987        10     1.047     0.619  88.35   0
        40    604.7946    888.6088 300.1168641 +22.7893356     588.0884     70.42098      1.631     3.88    -4.290135     19.90851     64.96249        12     1.073     0.832  44.75   0
        41      3.9342    888.4120 299.9301522 +22.6087995     491.3206     66.87363      1.478     4.64    -3.982902     19.90851     48.43076        11     0.998     0.866  35.75  16
        42    615.6127    886.8867 300.1207921 +22.7920890     346.3374     70.51098      1.409     4.78     -4.27838     19.90851     39.44445         9     0.967     0.670 -17.64   0
        43    721.2088    883.8331 300.1546631 +22.8229074      259.675     70.56492      1.448     5.23    -4.477539     19.90851     36.91071         7     1.231     0.627  74.40   0
        44    367.5419    870.7461 300.0488704 +22.7129762     17890.03     70.61882      1.577     2.95    -4.453711     19.90851     1866.561        55     1.380     1.240  62.64   0
        45    758.2908    873.3706 300.1696181 +22.8310334     484.0865     70.52896      1.527     4.23    -4.500513     19.90851     47.08097         9     1.070     0.617 -30.07   0
        46    381.8882    871.2866 300.0531554 +22.7174396     1265.596      70.7265      1.632     3.30    -4.455207     19.90851     114.2434        21     1.225     1.024   4.18   0
        47    890.4313    866.2697 300.2130995 +22.8686431     1644.612     70.56492      1.494     2.84    -4.332498     19.90851     147.0907        20     1.175     0.962  83.98   0
        48    648.5899    862.5488 300.1389807 +22.7950051     389.5726     70.58289      1.448     3.92    -4.101296     19.90851      49.9228         8     1.033     0.640  -7.81   0
        49    250.7463    862.5202 300.0152414 +22.6755379     449.7885     70.60086      1.474     5.98    -4.168269     19.90851     35.50638        11     1.194     0.842 -30.17   0
        50    485.0273    862.2704 300.0881692 +22.7458244     296.2243     70.54694      1.384     3.85    -4.105494     19.90851     31.12389         5     0.828     0.514 -52.95   0
        51     54.8697    858.1816 299.9558061 +22.6154450     316.0486     70.58289      1.464     2.90      -4.1387     19.90851     44.31049         6     0.892     0.560  68.39   0
        52    496.0342    857.1706 300.0932535 +22.7476663     491.5145     70.58289      1.619     4.41    -4.089078     19.90851     50.35384         9     1.027     0.657  30.13   0
        53    896.3397    853.7185 300.2190267 +22.8668125     350.1198     70.65473      1.747     5.76    -4.289767     19.90851     31.93989         7     1.387     0.674   5.16   0
        54     83.4158    852.2576 299.9665985 +22.6223251     272.2284     70.54694      1.321     3.36    -4.338693     19.90851     38.81628         5     0.764     0.427  67.11   0
        55    247.7341    846.6203 300.0194805 +22.6700750     224.7784     70.54694      1.451     4.30    -4.146797     19.90851     28.92122         5     0.896     0.588 -51.27   0
        56    571.3276    837.4367 300.1231054 +22.7646091     232.4262     70.51098      1.133     3.38    -4.058771     19.90851     33.59162         5     1.020     0.324 -22.86   0
        57    540.8888    835.4678 300.1142739 +22.7549070     408.3013     70.70856      1.742     4.18    -4.050438     19.90851     39.91033         6     1.033     0.484 -60.47   0
        58    956.7097    831.5469 300.2450612 +22.8785556     2614.909     70.60086      1.450     2.79    -4.158519     19.90851     276.1602        27     1.174     1.054  53.21   0
        59    562.5555    832.5853 300.1219545 +22.7605841      669.118     70.58289      1.436     3.95    -4.051934     19.90851     67.72723        14     1.112     0.855  58.88   0
        60    945.3235    822.7750 300.2443670 +22.8726218     903.8519     70.58289      1.471     3.19    -4.157282     19.90851     91.39075        15     1.054     0.881 -79.93   0
        61    308.8447    817.2082 300.0480470 +22.6799968     552.0753     70.58289      1.760     3.34    -4.125774     19.90851     58.28747         9     0.899     0.752 -85.29   0
        62    771.6049    814.2306 300.1930156 +22.8180550     1397.846     70.54694      1.596     3.45    -4.230822     19.90851     123.9429        23     1.254     1.089 -19.23   0
        63    976.4965    812.9313 300.2572891 +22.8791448     955.7766     70.69063      1.524     3.08    -4.079887     19.90851     104.4218        16     1.050     0.939 -72.87   0
        64    157.4058    801.6273 300.0060568 +22.6300433     435.1178     70.56492      2.106     6.04    -4.141053     19.90851     38.00531         9     1.480     0.693  17.89   0
        65    853.6920    799.5306 300.2233738 +22.8384623     401.4684     70.69063      1.653     4.23    -4.197343     19.90851     28.16768         6     1.083     0.470   9.84   0
        66    890.0259    791.2154 300.2374027 +22.8469739     84752.59     70.58289      1.509     2.98    -4.094404     19.90851     7748.204       115     1.435     1.347  76.65   0
        67    922.7836    783.7617 300.2500382 +22.8546592     316.1216     70.58289      1.380     4.29     -4.01445     19.90851     41.10757         7     0.844     0.777 -60.45   0
        68    576.6817    780.2895 300.1433701 +22.7498201     905.2106     70.67268      1.545     3.53    -3.910443     19.90851     77.13947        18     1.153     1.005  75.89   0
        69    757.5103    777.4450 300.2005968 +22.8032673     5287.242     70.54694      1.647     3.45    -4.095485     19.90851     411.3346        39     1.311     1.266  88.13   0
        70    259.2563    772.9613 300.0470318 +22.6524171     2791.588     70.56492      1.635     3.24    -3.881747     19.90851     264.8354        28     1.285     1.130  76.20   0
        71    341.4589    770.7886 300.0732915 +22.6764794     691.4967     70.51098      1.676     3.64    -3.798532     19.90851     70.44808        15     1.176     0.880 -84.85   0
        72    549.6008    766.9562 300.1392808 +22.7378663     497.7251     70.56492      1.797     4.54    -3.819944     19.90851     31.85582         7     1.363     0.430 -66.72   2
        73    541.2363    758.4767 300.1394370 +22.7329228     1798.579     70.52896      1.697     3.64    -3.755929     19.90851     139.4883        22     1.189     1.079  13.91   0
        74    531.0925    752.2739 300.1382987 +22.7280985     814.9988     70.70856      1.767     5.15    -3.700325     19.90851      61.9932        17     1.287     0.969  23.09   0
        75    195.2669    748.7334 300.0350297 +22.6262521       400.55     70.61882      1.480     4.14    -3.996095     19.90851     49.09655         9     0.995     0.824  58.47   0
        76    209.2923    747.6667 300.0397347 +22.6301587     354.1494     70.70856      1.422     3.68    -3.952442     19.90851     41.20594         5     0.910     0.427 -45.68   0
        77    977.6707    743.0246 300.2804047 +22.8594211     299.7088     70.56492      1.255     3.36    -4.081649     19.90851     46.41506         5     0.786     0.415 -70.71   0
        78    456.2894    742.0518 300.1183521 +22.7027123     1124.831     70.58289      1.757     3.90    -3.585468     19.90851     89.41169        23     1.320     1.126  15.71   0
        79    110.2825    737.2403 300.0123683 +22.5974306     11507.53     70.52896      1.578     3.01    -4.085995     19.90851     1119.624        47     1.354     1.218  68.77   0
        80    541.4292    737.6987 300.1462574 +22.7270189     510.6983     70.49299      1.873     6.84    -3.643463     19.90851     39.00545        11     1.346     0.973  84.73   0
        81     31.3275    738.8356 299.9873307 +22.5741688     322.1188     70.52896      1.354     1.96     -3.66049     19.90851     55.08685         5     0.701     0.435 -71.23   0
        82    958.8467    723.0429 300.2810374 +22.8480375     589.6848     70.60086      1.421     3.68    -3.777947     19.90851     60.62971        12     1.047     0.806  66.43   0
        83     56.5058    721.0532 300.0009333 +22.5766360     791.3199     70.63678      1.753     4.91    -3.779007     19.90851     65.03194        15     1.463     0.763  85.57   0
        84    899.3466    715.5348 300.2649333 +22.8280381     437.9458     70.60086      2.073     5.19    -3.546165     19.90851     42.51287         8     1.120     0.679  18.20   0
        85    461.2914    710.5317 300.1301623 +22.6951709     443.6116     70.69063      1.614     4.39    -3.407728     19.90851     43.95319         7     0.883     0.638 -79.91   0
        86    505.4941    705.4170 300.1455779 +22.7069708     561.9518     70.49299      1.737     5.58    -3.318374     19.90851     41.78666         9     1.407     0.624  44.52   0
        87    938.9603    701.1056 300.2819751 +22.8357737     1850.443     70.58289      1.502     3.07    -3.521351     19.90851     146.3002        23     1.158     1.066   5.88   0
        88    471.2181    701.4073 300.1362185 +22.6955326     966.0184     70.52896      1.724     4.23    -3.310206     19.90851      92.2917        18     1.271     1.031  40.74   0
        89     33.0340    695.4689 300.0019671 +22.5622513     2852.508     70.56492      1.507     2.93    -3.636422     19.90851     266.2131        28     1.249     1.072  81.79   0
        90    334.4100    688.4026 300.0979020 +22.6507335     5158.944     70.38496      1.761     3.55    -3.409535     19.90851     429.4521        39     1.396     1.276  47.86   0
        91    456.7695    685.3992 300.1369310 +22.6866029     5108.665     70.52896      1.800     3.77    -3.297021     19.90851     363.3389        40     1.470     1.292  81.78   0
        92    868.1937    678.9711 300.2671191 +22.8081951     1143.004     70.56492      1.805     4.23    -3.449831     19.90851     77.64884        21     1.337     1.050  21.29   0
        93    952.8158    676.2563 300.2943779 +22.8327911     7011.274     70.54694      1.591     3.23    -3.371738     19.90851     553.5663        38     1.259     1.223  83.79   0
        94    517.2910    674.9213 300.1591680 +22.7017606     6510.091     70.70856      1.798     3.88    -3.101592     19.90851     470.8384        42     1.431     1.324  84.45   0
        95    244.6568    670.6000 300.0757932 +22.6186793     782.3659       70.475      1.743     4.64    -3.363925     19.90851     61.98493        16     1.189     1.061  85.93   0
        96    449.0683    663.1659 300.1417669 +22.6779121      2438.33     70.56492      1.830     3.94    -3.280203     19.90851     181.1786        29     1.343     1.233  65.86   0
        97    791.7722    663.2309 300.2484276 +22.7807551      446.904     70.56492      1.654     6.04    -3.436821     19.90851     45.87091        10     1.151     0.891  16.93   0
        98    427.4151    661.5739 300.1355496 +22.6709562     770.4402     70.58289      1.873     5.61    -3.415288     19.90851     58.70008        18     1.395     1.114  80.88   0
        99    181.9837    661.0104 300.0594370 +22.5971095     283.6505     70.51098      1.518     5.19    -3.587615     19.90851     32.26591         9     0.947     0.804  10.35   0
       100    868.3878    658.1193 300.2739621 +22.8022650     872.7678     70.54694      1.828     4.75    -3.418089     19.90851     59.65882        17     1.243     0.994 -78.61   0
       101    749.1653    655.5716 300.2376468 +22.7657762     372.4904     70.58289      1.590     3.00    -3.475374     19.90851     40.62471         5     0.727     0.459 -19.06   0
       102    565.5354    650.6547 300.1820737 +22.7092739     114648.5     70.61882      1.864     3.99    -3.162927     19.90851     7411.435       143     1.663     1.598  74.41   0
       103    251.6927    650.5703 300.0844940 +22.6150473     1945.003     70.52896      1.750     3.94    -3.344676     19.90851     147.0647        27     1.368     1.163  45.11   0
       104    456.3238    631.2360 300.1544081 +22.6709277     1520.366     70.52896      1.972     4.74    -3.211134     19.90851     114.8092        25     1.488     1.122 -75.81   0
       105    853.1190    616.9692 300.2825872 +22.7858679     990.7714     70.56492      1.757     4.24     -3.38733     19.90851     66.09486        20     1.219     1.097 -60.72   0
       106    724.1938    614.5810 300.2432002 +22.7465165         1445     70.52896      1.813     4.46    -3.419098     19.90851     91.13753        23     1.288     1.190  43.85   0
       107    512.5736    610.6026 300.1786177 +22.6818867     418.0551     70.51098      1.700     4.09    -3.059763     19.90851     40.79075         5     0.966     0.494 -87.80   0
       108    967.2849    608.3826 300.3209641 +22.8176317     563.1782     70.52896      2.063     5.34    -3.125623     19.90851     42.41847         8     1.579     0.511  59.87   0
       109    981.4502    608.5358 300.3253307 +22.8219223     654.6711     70.61882      1.597     3.70      -3.1276     19.90851      59.5097        15     1.061     0.941  49.48   0
       110    853.1490    607.3198 300.2857345 +22.7831054     1357.171     70.56492      2.046     4.57    -3.365985     19.90851     80.23035        23     1.406     1.086  71.39   0
       111    606.8006    604.3296 300.2099824 +22.7083580      402.961     70.51098      2.098     4.77    -3.182253     19.90851      28.5937         6     1.197     0.539  65.59   0
       112    891.4166    601.9762 300.2993979 +22.7930450     2502.408     70.56492      1.760     3.63    -3.240326     19.90851     171.5982        30     1.310     1.241  51.20   0
       113    124.1476    592.8716 300.0636265 +22.5602018     577.0397     70.56492      1.636     4.01    -3.646852     19.90851     53.98845        12     1.117     0.877  86.73   0
       114    983.3380    592.5248 300.3311258 +22.8178882     387.8876     70.61882      1.447     3.54    -3.099818     19.90851     58.32188        12     1.050     0.909 -49.44   0
       115    979.3846    564.4114 300.3390344 +22.8086257     216.6593     70.51098      1.299     3.43    -3.046759     19.90851     31.08766         5     1.122     0.303 -69.36   0
       116    726.0105    565.1478 300.2598396 +22.7328667      359.873     70.56492      1.787     3.94    -3.206724     19.90851     29.87692         5     0.847     0.525 -54.68   0
       117    882.6401    560.9633 300.3099981 +22.7786325     549.5483     70.63678      1.640     5.74    -3.024313     19.90851     46.99619        13     1.229     0.931  31.74   0
       118    611.5073    555.5020 300.2273231 +22.6957524     1281.429     70.74443      1.469     4.58    -2.995843     19.90851     104.8002        32     1.463     1.400  72.63   0
       119    971.1895    554.3233 300.3397593 +22.8032706     276.2675     70.56492      1.366     3.82    -3.022187     19.90851     36.08953         5     1.101     0.451  57.63   0
       120   1022.3949    534.1387 300.3622880 +22.8128186     706.8059     61.51955      1.578     4.64    -3.065355     19.90851     65.10635        15     1.203     0.926 -89.60  24
       121    894.0481    534.1756 300.3222625 +22.7743571     269.7946     70.56492      1.579     4.72     -2.91606     19.90851     30.52749         7     1.326     0.476 -18.94   0
       122    981.2260    533.0255 300.3498126 +22.8001594     465.3956     70.52896      1.642     5.65    -3.017444     19.90851     52.25802        11     1.251     0.848 -24.18   0
       123    721.5901    528.8723 300.2702560 +22.7211236     559.8569     70.56492      2.045     7.44    -2.954945     19.90851     35.35601        11     1.290     1.200 -24.99   0
       124    288.5078    523.6680 300.1371960 +22.5896954     2040.647     70.69063      1.860     3.90    -3.208313     19.90851     161.7352        31     1.415     1.268  55.04   0
       125   1021.2950    521.4247 300.3660781 +22.8088352     2520.504     66.09145      1.717     3.61    -3.077398     19.90851     200.7045        28     1.290     1.147  63.27  24
       126    235.8277    518.4736 300.1225106 +22.5723924     4216.248     70.56492      1.832     3.75    -3.124545     19.90851     298.6862        38     1.385     1.362 -87.28   0
       127    376.3176    512.6420 300.1680809 +22.6128850     2725.129     70.52896      1.947     4.06    -2.986205     19.90851     204.2019        35     1.425     1.408   4.26   0
       128   1001.1817    512.8123 300.3626058 +22.8003321     1100.534     70.52896      1.738     3.81      -3.0539     19.90851     74.14445        19     1.153     1.075   2.76   0
       129    620.5071    509.0604 300.2452216 +22.6851178     10340.03     70.63678      1.971     4.35    -2.696601     19.90851     629.3875        58     1.590     1.521  36.42   0
       130    638.7974    509.1410 300.2508895 +22.6906269     399.0995     70.52896      1.707     5.40    -2.698012     19.90851      36.1296         8     1.146     0.718 -59.75   0
       131     29.1733    493.5166 300.0664267 +22.5031900     8598.273     70.54694      0.726     1.00    -3.164731     19.90851     3261.505        11     0.566     0.479 -78.13   0
       132    953.7031    491.6004 300.3546974 +22.7800063     484.1982       70.439      2.048     6.11    -2.973639     19.90851     37.05739         9     1.468     0.716 -61.24   0
       133    175.4876    489.4941 300.1131791 +22.5459655     1111.839     70.74443      1.855     4.46    -3.217789     19.90851     88.24604        21     1.342     1.059 -81.06   0
       134    561.2083    478.5460 300.2366817 +22.6585695     3658.932     70.56492      2.022     4.33    -2.480316     19.90851     246.8138        38     1.528     1.399 -79.12   0
       135    974.6750    478.7418 300.3654152 +22.7825968     772.2598     70.61882      1.700     3.97    -2.997787     19.90851     59.10397        16     1.099     0.989 -84.05   0
       136    276.9825    477.8686 300.1484987 +22.5730949      489.313     70.56492      2.239     5.23    -3.025273     19.90851     31.20197         8     1.028     0.751  21.75   0
       137    765.1467    467.1315 300.3038904 +22.7164513      584.735     70.58289      1.794     6.33    -2.533876     19.90851     48.40498        14     1.254     0.898  34.09   0
       138    467.8410    464.8958 300.2120655 +22.6266421     3444.102     70.56492      1.994     4.44    -2.544687     19.90851     213.3929        38     1.498     1.395 -84.59   0
       139    957.2026    458.1744 300.3666523 +22.7714496     349.3826     70.51098      2.059     5.04    -2.792324     19.90851     34.45555         6     1.379     0.521 -70.51   0
       140    859.9230    458.9455 300.3360799 +22.7425131     697.5701     70.60086      1.756     5.21    -2.658671     19.90851      48.0844        12     1.017     0.894   1.27   0
       141    873.3063    450.9869 300.3428370 +22.7442382      2581.31     70.49299      0.509     0.84    -2.654256     19.90851      1701.69         6     0.461     0.288  -2.88   0
       142    883.0532    450.5968 300.3460015 +22.7470477     1027.543     70.54694      0.638     0.77    -2.670013     19.90851     584.2241         6     0.495     0.379 -77.48   0
       143    355.6294    444.2976 300.1838586 +22.5870623     1406.598     70.49299      1.838     4.24    -2.544863     19.90851     105.2536        24     1.280     1.224  84.26   0
       144     74.1643    442.2437 300.0970590 +22.5019934     540.5508     70.61882      1.742     4.76    -3.180298     19.90851     49.90939        12     1.156     0.924 -69.91   0
       145    324.8042    433.7409 300.1777044 +22.5747829     16726.55     70.52896      1.972     4.06    -2.648814     19.90851      1152.99        68     1.640     1.520  86.17   0
       146    859.3354    430.8130 300.3450389 +22.7342538     687.2172     70.52896      1.847     4.62    -2.583493     19.90851     48.16751        15     1.166     1.068  27.23   0
       147     21.4391    421.7904 300.0873316 +22.4802970     2830.911     70.56492      1.756     3.22    -3.171562     19.90851     274.1166        33     1.331     1.285 -65.74   0
       148    735.0051    413.0136 300.3120876 +22.6918681     1003.769       70.439      1.944     6.86    -2.386033     19.90851     55.43245        21     1.369     1.101 -42.34   0
       149    949.7119    405.8889 300.3813073 +22.7541781     371.2313      70.7265      1.730     4.87    -2.499522     19.90851     25.54574         7     0.991     0.678  81.36   0
       150    397.0131    397.8840 300.2118080 +22.5861563     1144.452     70.51098      1.983     5.88    -2.371985     19.90851     69.26544        22     1.353     1.228 -61.66   0
       151    472.8597    377.1195 300.2421464 +22.6029471     653.5671     70.61882      1.890     6.78    -2.456813     19.90851     42.29424        13     1.393     0.926 -74.38   0
       152    717.5361    369.0743 300.3209220 +22.6740080     1093.231     70.60086      1.841     5.01    -2.355593     19.90851     87.02637        22     1.313     1.226  15.12   0
       153    978.5746    363.2606 300.4041555 +22.7505742     1722.329     70.56492      1.715     3.79    -2.456763     19.90851     132.0264        26     1.334     1.163 -80.99   0
       154    101.0787    347.8785 300.1360730 +22.4830017     712.3338     70.69063      1.832     4.71    -2.642956     19.90851     54.55425        17     1.479     1.018 -47.75   0
       155    185.0419    339.1795 300.1649828 +22.5057047     263.2558     70.60086      1.647     5.49    -2.655117     19.90851     26.28894         5     1.484     0.573 -19.63   0
       156    789.3334    330.4680 300.3558269 +22.6844376     453.7516     70.61882      1.897     4.26    -2.536203     19.90851     37.78233         6     1.276     0.405 -13.93   0
       157    887.0771    319.4351 300.3898681 +22.7105600     1074.756     70.52896      1.799     4.48    -2.591974     19.90851     96.03923        20     1.280     1.128 -73.99   0
       158    306.1626    316.9261 300.2098550 +22.5356601     1202.815     70.51098      1.978     4.91    -2.573284     19.90851     76.08607        27     1.491     1.281 -69.52   0
       159    384.5746    312.6488 300.2356256 +22.5579546      403.843     70.58289      1.733     4.66     -2.49127     19.90851     32.17467         8     0.970     0.636  73.89   0
       160    201.3184    304.4019 300.1813348 +22.5006081     406.6254       70.475      2.146     4.94    -2.620103     19.90851     33.88645         8     1.330     0.519  69.81   0
       161    738.3867    301.0577 300.3495086 +22.6607160     1005.702     70.52896      1.987     5.48    -2.302896     19.90851     55.82074        19     1.352     1.144  68.59   0
       162   1009.9913    293.2266 300.4366997 +22.7398526     436.3592     70.56492      1.408     4.40    -2.385634     19.90851     45.59639         9     1.097     0.682  -9.13   0
       163    663.2211    291.6241 300.3291638 +22.6354738     706.1713     70.56492      2.075     6.03    -2.668478     19.90851     46.67035        13     1.394     0.940  82.33   0
       164    742.4103    292.8325 300.3534330 +22.6595585     355.1674     70.56492      1.393     3.48    -2.310394     19.90851     38.15119         5     0.957     0.365   5.06   0
       165    858.4394    282.6991 300.3928738 +22.6914195      791.465     70.56492      1.883     5.10    -2.541341     19.90851     56.47771        18     1.260     1.211 -40.70   0
       166    589.3618    283.4528 300.3088232 +22.6109834     600.7869     70.58289      1.871     6.35    -2.720182     19.90851     45.56444        12     1.101     1.028 -16.08   0
       167    870.6237    282.8121 300.3966343 +22.6951030     357.7937     70.56492      1.744     3.58    -2.543449     19.90851     31.81128         6     0.729     0.644 -22.61   0
       168    986.8138    271.9908 300.4363687 +22.7268037     627.7525       70.475      1.738     4.98    -2.430708     19.90851     43.28791        13     1.113     0.854 -10.04   0
       169    221.9303    265.5475 300.2003567 +22.4956405       443.41     70.54694      2.074     5.98    -2.581959     19.90851     37.24472         7     1.371     0.733 -89.88   0
       170     83.0906    260.9106 300.1587271 +22.4526487     1238.006      70.7265      1.873     4.49    -2.671947     19.90851     87.17646        25     1.425     1.151 -62.61   0
       171     33.0482    258.1217 300.1440917 +22.4368297      213.967     70.56492      1.261     3.94    -2.788394     19.90851     29.21671         5     0.833     0.534 -56.42   0
       172    240.5339    254.1051 300.2098536 +22.4979373      3282.56     70.69063      1.987     3.91     -2.57809     19.90851     225.7273        38     1.487     1.428   4.75   0
       173     24.8106    248.6350 300.1446137 +22.4316353     824.1251     70.56492      1.781     4.55    -2.807025     19.90851      79.1805        12     1.119     0.911 -58.79   0
       174    223.7735    246.1337 300.2072327 +22.4906207     363.5858     70.54694      2.694     6.76    -2.564479     19.90851     34.68645        10     1.772     0.724  88.16   0
       175    884.2193    235.1337 300.4163533 +22.6854710     1925.508     70.52896      1.888     4.68     -2.53458     19.90851     122.8588        27     1.344     1.247  16.58   0
       176    987.8799    233.7455 300.4491197 +22.7161262     1547.167     70.60086      1.860     4.32    -2.440543     19.90851     102.5554        24     1.342     1.174  83.26   0
       177    485.5899    218.0292 300.2977708 +22.5610764      943.146     70.56492      1.935     5.50    -2.641533     19.90851     69.14573        18     1.332     1.131 -11.09   0
       178    259.6024    197.8721 300.2340356 +22.4875138     3161.952     70.51098      1.929     4.23    -2.377154     19.90851       225.39        37     1.552     1.339 -81.16   0
       179     21.9729    188.5614 300.1632331 +22.4135457     302.9888     70.58289      1.240     3.73    -2.465186     19.90851     29.39157         6     0.808     0.494  -3.72   0
       180    505.2874    183.2142 300.3152011 +22.5569813     3626.559     70.51098      2.094     4.80    -2.433188     19.90851     216.9918        43     1.571     1.525  70.20   0
       181    391.2700    182.6888 300.2799022 +22.5226433     443.2106      70.7265      2.206     6.01    -2.659292     19.90851     32.51923         7     1.600     0.634  66.21   0
       182    757.3600    173.0103 300.3969925 +22.6296022     469.3593     70.56492      2.086     5.14    -2.262802     19.90851     37.80988         6     1.089     0.687 -84.31   0
       183    633.6987    163.0150 300.3617258 +22.5896704     3464.259       70.475      2.108     4.64     -2.54267     19.90851     210.1115        41     1.579     1.502  84.38   0
       184    408.5779    162.4531 300.2918533 +22.5220213     864.0626     70.58289      1.982     4.81    -2.659292     19.90851     64.16473        18     1.219     1.110  33.06   0
       185    690.2267    157.7557 300.3810344 +22.6051003     404.2962     70.58289      2.288     4.00    -2.312494     19.90851     38.06892         6     0.819     0.559 -50.12   0
       186    677.9390    148.0093 300.3803711 +22.5986167     1542.897     70.51098      1.986     4.81    -2.301702     19.90851     104.0288        30     1.501     1.315  86.75   0
       187    764.7632    139.9443 300.4100308 +22.6223156     801.0376     70.56492      1.911     5.55    -2.228342     19.90851     56.06382        16     1.339     0.997 -79.83   2
       188    762.3077    139.0701 300.4095496 +22.6213286     344.5198     70.69063      1.177     3.45    -2.229234     19.90851     40.46281         5     1.157     0.298 -66.35   3
       189    703.1646    133.0214 300.3930910 +22.6018682     379.4359     70.58289      1.808     3.90    -2.256708     19.90851     32.33679         5     0.924     0.628  59.32   0
       190    508.7809    132.8415 300.3326370 +22.5435569     524.7481     70.58289      1.752     5.64    -2.177943     19.90851     35.47672        11     1.303     0.687 -32.50   0
       191     81.1878    132.7066 300.1997492 +22.4152832     185.3298     70.51098      1.257     4.30    -2.050777     19.90851     34.31203         5     0.738     0.715  61.70   0
       192    412.5179    131.0495 300.3032704 +22.5141823     313.2426     70.58289      1.673     4.63    -2.386895     19.90851     30.18755         7     1.269     0.480 -51.73   0
       193    183.4133    120.6144 300.2354308 +22.4424786     2076.052     70.49299      1.913     3.67     -2.04466     19.90851     186.4298        30     1.393     1.271 -16.85   0
       194    299.2530    113.2153 300.2738360 +22.4750967     741.0011     70.54694      2.032     4.28    -2.253946     19.90851      53.5905        14     1.137     0.985 -13.49   0
       195    744.4435    112.5976 300.4125758 +22.6083661     452.3315     70.56492      1.819     6.18    -2.224807     19.90851     38.80268         8     1.152     0.931  67.51   0
       196    802.1975    103.7623 300.4334350 +22.6231290     1248.107     70.58289      1.997     5.11     -2.10276     19.90851     74.76911        22     1.325     1.185  63.94   0
       197    185.7297     99.8275 300.2428953 +22.4372050     535.9702     70.54694      1.858     5.33    -2.088234     19.90851     54.35384         8     1.316     0.609  61.88   0
       198    977.0363     97.4343 300.4899836 +22.6736772     424.0182     70.63678      1.850     4.23    -2.546491     19.90851     28.04698         6     0.949     0.539 -73.22   0
       199    750.8217     97.3663 300.4195051 +22.6058984     483.2034     70.58289      2.106     4.08    -2.197393     19.90851     31.24802         6     0.809     0.588 -37.88   2
       200    603.0690     82.0395 300.3784677 +22.5572195     543.1667     70.52896      1.963     5.40    -2.113222     19.90851     36.70074         8     1.191     0.690 -81.59   0
       201    766.5675     77.1234 300.4309783 +22.6047960      287.716     70.56492      1.325     4.14    -2.106869     19.90851     42.68666         6     0.961     0.554  21.90   0
       202    575.0103     74.3342 300.3722335 +22.5465961     1061.518     70.52896      1.961     5.51    -1.918697     19.90851     83.12833        21     1.358     1.245  43.14   0
       203    297.6991     72.4364 300.2865839 +22.4629189     391.7229     70.56492      1.449     4.11     -2.23374     19.90851      33.3158         5     1.005     0.481  -7.85   0
       204     12.7961     71.3762 300.1984091 +22.3771598     379.8256     70.52896      1.629     4.37    -1.666796     19.90851     38.27766         6     1.026     0.530 -66.11   0
       205    532.0046     68.6571 300.3606905 +22.5320755     677.2631     70.52896      2.015     5.57    -1.760919     19.90851     53.15427        16     1.487     0.962 -21.64   0
       206    637.4933     64.5707 300.3948526 +22.5625145     747.4071     70.49299      1.929     5.95     -1.99475     19.90851     54.66725        17     1.437     1.252  30.57   0
       207    232.6242     64.3806 300.2689690 +22.4410908     259.9644     70.56492      1.365     3.43    -2.172609     19.90851     28.46144         5     1.066     0.320  21.07   0
       208    458.1841     58.9398 300.3408732 +22.5071565     1199.403     70.52896      1.995     5.25    -2.105607     19.90851     78.32333        25     1.502     1.221 -82.53   0
       209    105.5976     57.1792 300.2318359 +22.4009242     773.5115     70.51098      1.540     3.61    -2.146967     19.90851      76.8607        15     1.143     0.860 -78.57   0
       210    166.2428     38.3805 300.2567747 +22.4137164     746.6529     70.58289      1.925     6.05    -2.222776     19.90851     53.26256        13     1.330     0.955  49.27   0
       211    767.6151   1016.8046 300.1258141 +22.8749881     673.7341     70.42098      1.613     4.25    -4.898129     19.90851     66.43083        11     1.113     0.769 -34.67  16
       212    741.9541     17.7960 300.4425579 +22.5803648      634.082     70.54694      2.186     5.79    -2.032026     19.90851     37.73899        11     1.117     0.846  63.39   0
       213    789.7248   1010.5342 300.1347436 +22.8798256     6381.757     70.63678      1.299     2.30    -4.787996     19.90851     808.5847        35     1.160     1.041  68.03   0
