#   1 NUMBER                 Running object number                                     
#   2 X_IMAGE                Object position along x                                    [pixel]
#   3 Y_IMAGE                Object position along y                                    [pixel]
#   4 ALPHA_J2000            Right ascension of barycenter (J2000)                      [deg]
#   5 DELTA_J2000            Declination of barycenter (J2000)                          [deg]
#   6 FLUX_APER              Flux vector within fixed circular aperture(s)              [count]
#   7 FLUXERR_APER           RMS error vector for aperture flux(es)                     [count]
#   8 FLUX_RADIUS            Fraction-of-light radii                                    [pixel]
#   9 FWHM_IMAGE             FWHM assuming a gaussian core                              [pixel]
#  10 BACKGROUND             Background at centroid position                            [count]
#  11 THRESHOLD              Detection threshold above background                       [count]
#  12 FLUX_MAX               Peak flux above background                                 [count]
#  13 ISOAREA_IMAGE          Isophotal area above Analysis threshold                    [pixel**2]
#  14 A_IMAGE                Profile RMS along major axis                               [pixel]
#  15 B_IMAGE                Profile RMS along minor axis                               [pixel]
#  16 THETA_IMAGE            Position angle (CCW/x)                                     [deg]
#  17 FLAGS                  Extraction flags                                          
         1    643.8857     10.8366 300.4125247 +22.5514714     1489.928     70.10516      1.885     4.04    -1.646998     19.78383      110.867        27     1.345     1.250  50.92   0
         2    740.5895     10.9754 300.4425995 +22.5804834     567.7475     70.12302      1.991     5.18     -1.33444     19.78383     53.93095         8     0.970     0.782   0.99   0
         3    577.8004      1.4290 300.3950000 +22.5289657     457.7622     55.07728      1.237     2.98    -2.294925     19.78383     75.77298         9     1.102     0.487  -5.20  24
         4    731.3993   1015.5563 300.1132120 +22.8661985     358.0756     70.12302      1.433     5.52    -5.276177     19.78383     45.16042         9     1.262     0.681  62.70  16
         5    102.9401   1022.7935 299.9153848 +22.6794879     629.8653     59.17715      3.104     4.79   -0.7040573     19.78383     33.15606         5     1.493     0.436  22.49  25
         6     84.2677   1020.9752 299.9101776 +22.6733544     1838.003     66.84946      4.889    15.10    -1.526055     19.78383     58.73005        52     3.043     2.083  43.10  27
         7     94.2990   1018.5751 299.9140748 +22.6756823     1802.662     70.05154      6.911    17.06    -1.030479     19.78383     53.83375        71     3.883     2.082 -75.71  19
         8     88.8149   1018.5583 299.9123770 +22.6740290     1801.634     70.14088      5.172    13.74    -1.310782     19.78383     44.34362        48     2.960     1.773  75.70  19
         9    765.9953   1010.1537 300.1257479 +22.8750342     659.9797     70.10516      1.369     3.07    -5.224562     19.78383     79.14686        11     0.966     0.719 -81.41   0
        10    104.2378   1015.0216 299.9183190 +22.6776519     1093.234     70.14088      8.144    11.60    -1.028348     19.78383     36.83984        16     2.812     1.332 -40.38  19
        11    788.1274   1003.6813 300.1347507 +22.8798209     6572.099     70.24793      1.255     2.20    -5.191401     19.78383     940.8619        36     1.091     1.029 -51.79   0
        12    833.8364   1003.5316 300.1490411 +22.8934973     332.7356     70.12302      1.099     2.32    -5.426056     19.78383     50.04131         5     0.711     0.430  26.63   0
        13     99.6927    995.7792 299.9231738 +22.6707741     394.5331     70.05154      1.117     2.29    -1.796593     19.78383     61.07214         7     0.796     0.553 -60.90   0
        14    493.0007    991.9961 300.0466722 +22.7878594     239.5279     69.90836      1.223     2.56     -5.34945     19.78383     35.44261         5     0.615     0.592  89.99   0
        15    796.7302    985.5492 300.1433364 +22.8772015     872.7878     70.12302      1.282     2.29    -5.158932     19.78383     124.0587        12     0.859     0.782 -65.91   0
        16    979.5156    984.7975 300.2005515 +22.9318370     243.1386     70.05154      0.997     1.75    -4.997582     19.78383     59.38188         5     0.654     0.467 -67.13   0
        17    834.5063    979.1826 300.1571802 +22.8867126     458.8579     70.05154      1.182     3.06    -5.318381     19.78383     62.85575         7     0.809     0.633  26.17   0
        18    883.3245    970.3097 300.1752834 +22.8988170     329.7165     70.28358      1.250     3.70    -5.310619     19.78383     57.37105         9     0.968     0.883 -89.49   0
        19    734.6648    969.6605 300.1291768 +22.8540142     440.1879     70.15873      1.217     2.58    -5.058866     19.78383     72.64764         8     0.865     0.591 -11.17   0
        20    447.5266    966.4205 300.0408536 +22.7668698     2765.433     70.12302      1.603     6.74    -5.096296     19.78383     399.4389        24     1.320     0.965  42.59   0
        21    490.4583    953.9528 300.0582697 +22.7761889     90.94158     70.17658      1.373     4.09    -4.977829     19.78383     27.17441         5     0.764     0.626  -7.72   0
        22     89.3914    953.7602 299.9336564 +22.6556416     54.62777     70.12302      1.063     3.49    -3.626683     19.78383     28.31429         5     0.771     0.457 -73.94   0
        23    172.5462    951.8194 299.9601198 +22.6800755     545.2426     70.10516      1.179     2.67    -3.610606     19.78383     65.67227        10     0.877     0.729  -5.12   0
        24    149.6756    948.9471 299.9539494 +22.6723799     916.4447     70.14088      1.476     2.83    -3.650633     19.78383     126.4938        18     1.158     0.985  -3.26   0
        25     80.5428    950.1725 299.9320763 +22.6519545     139.6455     70.12302      0.959     3.03    -3.873846     19.78383     32.83408         5     0.732     0.460 -70.31   0
        26   1021.1504    937.3971 300.2289711 +22.9307225     1227.908     66.19045      1.126     2.17    -4.924637     19.78383     196.2518        14     0.870     0.803 -69.77  16
        27    975.3442    936.1210 300.2151028 +22.9166150     1124.123     70.15873      1.121     2.15    -5.006478     19.78383     204.8217        12     0.820     0.763 -60.18   0
        28    681.2800    936.6553 300.1232986 +22.8285219      273.982     70.15873      1.892     6.01    -5.022587     19.78383     32.38495         5     1.212     0.838 -48.33   0
        29    181.9257    930.5544 299.9699575 +22.6768010     225.5301     70.10516      1.397     4.65    -4.389681     19.78383     36.69597         6     0.956     0.641 -27.39   0
        30    759.0953    929.9888 300.1497050 +22.8499663     270.9499     70.06941      1.371     5.23     -4.93995     19.78383     41.33845         7     1.023     0.754  25.44   0
        31    627.1621    924.1279 300.1105273 +22.8086827     2732.856     70.08729      1.377     2.61     -4.81709     19.78383     317.5105        23     1.094     0.988 -37.74   0
        32    116.8570    924.8624 299.9515957 +22.6556173     273.5747     70.17658      1.423     4.54    -4.509672     19.78383     36.29717         7     1.016     0.576 -14.67   0
        33    429.1075    921.5049 300.0497487 +22.7484613     354.1655     70.28358      1.482     2.82    -4.698377     19.78383     43.04313         6     0.767     0.498  -3.98   0
        34    177.6354    918.1727 299.9726554 +22.6719641     841.0775     70.14088      1.407     2.92     -4.50452     19.78383     83.92308        13     1.001     0.800  17.68   0
        35    647.8470    916.3734 300.1194921 +22.8126681     391.5296     70.15873      1.381     3.79    -4.850239     19.78383     55.18836        10     1.012     0.768 -60.44   0
        36   1020.0450    903.9576 300.2395146 +22.9207917     687.4061     69.42294      1.224     1.98    -4.861876     19.78383     129.7038        12     0.987     0.679  84.00  16
        37    803.1205    903.7989 300.1719476 +22.8556643     2448.712     70.01577      1.363     2.52    -4.991129     19.78383     300.0105        21     1.018     0.978  29.51   0
        38    211.5443    898.0443 299.9897446 +22.6763843     277.6446     70.12302      1.181     2.33    -4.623391     19.78383     47.73989         6     0.748     0.498  89.20   0
        39    519.9464    896.2523 300.0862315 +22.7684987      297.458     70.15873      1.605     5.88    -4.706086     19.78383     35.27456         7     1.194     0.816  -8.28   0
        40    166.4478    894.6637 299.9768323 +22.6618662     602.7605     70.14088      1.371     3.20    -4.610888     19.78383      89.6553        11     1.022     0.763  -3.26   0
        41    582.1734    889.6040 300.1077622 +22.7852747     318.5969     70.08729      1.427     3.50     -4.65883     19.78383     55.49083         6     0.926     0.580  69.09   0
        42    316.3051    886.6595 300.0260133 +22.7045921     31108.61     70.19443      1.426     2.59    -4.605947     19.78383     3524.795        67     1.271     1.228  82.37   0
        43    574.1331    885.5096 300.1065925 +22.7816866     898.2964     70.24793      1.354     2.95    -4.654976     19.78383     102.2778        14     0.999     0.896 -75.07   0
        44    244.6998    884.7154 300.0043874 +22.6825252      158.141     70.28358      1.209     4.44    -4.629003     19.78383     40.93382         5     0.768     0.729 -12.87   0
        45    986.6852    884.3770 300.2354865 +22.9051641     325.8812     70.06941      1.175     2.55    -4.734679     19.78383     64.07346         7     0.830     0.580  24.44   0
        46    602.9611    881.4985 300.1168716 +22.7891904     490.7065     70.12302      1.385     4.18    -4.594153     19.78383     58.06451        10     1.032     0.735 -18.59   0
        47      2.5057    881.2712 299.9302738 +22.6087632     385.9021     60.74378      1.130     1.97    -4.664586     19.78383     71.02144         5     0.656     0.485 -73.89  16
        48    613.9002    879.9180 300.1207915 +22.7920209     368.0801     70.28358      1.422     4.85    -4.590152     19.78383      33.6414         7     1.035     0.643 -27.88   0
        49    934.0386    877.7620 300.2212257 +22.8874726      231.229     70.19443      1.395     3.80    -4.551167     19.78383     29.94346         5     0.809     0.512  57.20   0
        50    757.0370    866.1349 300.1698522 +22.8310279     506.5826     70.12302      1.604     3.59    -4.673291     19.78383     55.85992        11     1.096     0.895 -24.33   0
        51    365.9832    863.9091 300.0488654 +22.7129910      18109.2     70.05154      1.455     2.79     -4.68434     19.78383     1978.378        55     1.254     1.229 -84.19   0
        52    380.2284    864.4130 300.0531314 +22.7174136      1257.61     70.12302      1.594     2.87    -4.665504     19.78383     123.5638        16     1.036     0.918  -3.20   0
        53    889.0952    859.4193 300.2131871 +22.8687247     1575.046     70.03365      1.290     2.49    -4.481916     19.78383      201.894        15     0.930     0.858 -48.31   0
        54    646.9775    855.5103 300.1390346 +22.7949483     475.7055     70.05154      1.462     4.56    -4.478877     19.78383     53.49825         8     0.856     0.690 -86.18   0
        55    248.5227    855.4630 300.0150969 +22.6752894     595.9369     70.19443      1.707     2.72    -4.585433     19.78383     66.74866        11     0.907     0.801 -20.68   0
        56    493.8883    850.2126 300.0931095 +22.7474717     566.8148     70.06941      1.633     4.35    -4.603688     19.78383     54.05165        11     0.976     0.828  38.65   0
        57     53.7783    850.7046 299.9561428 +22.6154153     421.0482     70.03365      1.608     2.79    -4.793447     19.78383     41.11316         6     0.729     0.604 -41.82   0
        58    895.0637    846.9869 300.2190943 +22.8669468     306.8677     70.08728      1.177     3.22    -4.418845     19.78383     36.64062         5     0.633     0.595   1.04   0
        59    872.6719    841.4806 300.2139075 +22.8586487     210.6115     70.24793      1.216     3.50     -4.46049     19.78383     44.66659         5     1.127     0.499  -0.97   0
        60    246.6288    839.8997 300.0195735 +22.6702596     312.6746     70.03365      1.227     4.48    -4.476685     19.78383     42.19211         7     1.069     0.533 -64.68   0
        61    569.2104    830.1497 300.1230796 +22.7643301     301.0838     70.14088      1.396     3.89    -4.374066     19.78383     29.15671         6     0.762     0.570  45.19   0
        62    539.1207    827.7683 300.1144898 +22.7546143     242.4733     70.12302      1.572     4.34    -4.483274     19.78383     33.79192         6     1.299     0.413  60.35   0
        63    560.6937    826.0173 300.1217737 +22.7605882     701.9176     70.05154      1.556     3.48    -4.387467     19.78383     84.64027        15     1.122     0.916  20.83   0
        64    955.1422    824.6686 300.2450874 +22.8785618     2553.583     70.14088      1.303     2.36    -4.249499     19.78383     342.6148        21     1.036     0.956 -31.26   0
        65    943.6406    816.1736 300.2442664 +22.8726731     873.5745     70.17658      1.325     2.71    -4.191726     19.78383     118.6203        13     0.915     0.868 -78.65   0
        66    307.1327    810.1104 300.0480757 +22.6798928     283.5115     70.26576      1.417     3.87    -4.260381     19.78383     42.36845         6     0.912     0.471 -54.05   0
        67    770.0047    807.4979 300.1929770 +22.8180926     1572.412     70.03365      1.648     2.91     -4.83639     19.78383     139.9107        18     1.085     0.964 -30.78   0
        68    974.7142    806.1600 300.2572137 +22.8791183     871.7546     70.10516      1.382     2.52     -4.11658     19.78383     118.2636        11     0.907     0.726 -12.38   0
        69    156.3534    794.5101 300.0062909 +22.6301316     255.7713     70.10516      1.470     3.41    -4.103562     19.78383     34.80803         5     1.032     0.326 -69.05   0
        70    852.2296    792.8796 300.2233542 +22.8385660     399.0564     70.12302      1.628     5.80    -4.431366     19.78383      41.0295         9     1.419     0.738 -88.66   0
        71    888.4525    784.4436 300.2373889 +22.8470102     85412.81     70.15873      1.438     2.70    -4.264195     19.78383     8277.141       114     1.327     1.307 -38.53   0
        72    741.2125    784.8511 300.1913777 +22.8029543      401.693     70.15873      1.564     5.20    -4.662061     19.78383      29.4882        10     1.138     0.671  69.40   0
        73    920.9923    777.1461 300.2499067 +22.8546755     255.1738     70.12302      1.342     3.56    -4.153617     19.78383      41.8567         5     1.158     0.316 -65.94   0
        74    574.8295    773.6421 300.1432173 +22.7498068     865.8145     70.15873      1.549     3.38    -4.006662     19.78383     87.86342        16     1.133     0.873 -83.23   0
        75    755.9606    770.5925 300.2006115 +22.8032873     5342.055     70.15873      1.496     3.10     -4.52703     19.78383     487.6612        36     1.233     1.176 -18.57   0
        76    257.6628    765.9724 300.0470590 +22.6523815     2818.988     70.12302      1.546     2.92    -4.156752     19.78383     319.1194        27     1.186     1.138  83.64   0
        77    339.8572    764.0966 300.0732224 +22.6765272      642.878     70.19443      1.496     3.64    -4.204479     19.78383     65.54006        12     1.055     0.797 -56.27   0
        78    547.6938    759.3656 300.1394166 +22.7375664     453.6858     70.08729      1.711     3.51    -3.909135     19.78383     49.54627        10     0.969     0.869   5.54   0
        79    539.4308    751.6674 300.1393496 +22.7328778     1952.533     70.12302      1.607     3.40    -3.837607     19.78383     174.0088        23     1.245     1.039 -51.62   0
        80    529.5914    745.4140 300.1383220 +22.7281305     763.7353     70.03365      1.533     4.40    -3.763621     19.78383     86.08006        14     1.093     0.980 -30.59   0
        81    923.6444    742.7775 300.2619164 +22.8456034     304.8658     70.17658      1.405     4.10    -4.143564     19.78383     34.67933         6     0.745     0.645 -47.32   0
        82    193.3205    741.7452 300.0349440 +22.6261115     391.7365     70.15873      1.305     4.29    -4.143163     19.78383     51.03274         7     1.127     0.466 -89.28   0
        83    207.2764    740.3549 300.0397332 +22.6299045     341.9912     70.10516      1.441     2.79    -4.180536     19.78383     37.51801         6     0.690     0.638 -54.88   0
        84    264.0000    736.9320 300.0584765 +22.6459588     391.6547     70.06941      1.941     5.52    -4.120979     19.78383     32.54879         6     1.042     0.825  78.05   0
        85    976.2975    736.2252 300.2804643 +22.8595123     182.5746     70.05154      1.217     2.97    -4.045084     19.78383     32.64039         5     0.823     0.626  42.18   0
        86    454.6154    735.1878 300.1183199 +22.7026911      909.574     70.06941      1.600     3.53    -3.816962     19.78383     88.50558        16     1.110     0.966  58.74   0
        87    108.6645    730.3585 300.0123467 +22.5974190     11110.46     70.08729      1.498     2.69     -4.18319     19.78383     1233.221        46     1.287     1.191  76.24   0
        88     29.3954    732.0544 299.9871760 +22.5740911     400.4543     70.10516      1.564     4.18    -4.463237     19.78383     48.71426         8     1.010     0.585  20.01   0
        89    539.5059    730.2617 300.1463370 +22.7267594     527.3882     70.21227      1.575     3.89    -3.650895     19.78383     53.91361        12     1.048     0.908 -83.82   0
        90     54.6814    714.4890 300.0007419 +22.5766538     775.0919      70.2301      1.902     5.50    -4.306832     19.78383     74.28512        20     1.608     0.892  86.94   0
        91    957.3221    716.1868 300.2810670 +22.8480678     632.8022     70.14088      1.418     2.72    -4.052837     19.78383     74.75663        11     0.952     0.720   8.49   0
        92    897.3537    709.2935 300.2646145 +22.8281044     474.6719     70.14088      1.873     4.22    -4.150887     19.78383     39.47346         9     0.921     0.845 -27.00   0
        93    460.0266    703.4239 300.1303362 +22.6952041     404.3721     70.08729      1.506     3.92    -3.668453     19.78383     53.61497         9     1.036     0.739 -46.31   0
        94    503.9995    699.3597 300.1453399 +22.7072370     471.0065     70.14088      1.803     6.00    -3.555212     19.78383     38.92459         9     1.167     0.868 -20.05   0
        95    937.3031    694.3553 300.2819276 +22.8357954     1962.719     70.14088      1.457     2.82    -4.037215     19.78383     195.9906        20     1.032     1.013 -41.45   0
        96    469.5196    694.4998 300.1361923 +22.6954936     940.9652     70.24793      1.625     3.43    -3.585334     19.78383      95.4029        15     1.087     0.916 -42.02   0
        97     31.3595    688.5912 300.0019226 +22.5622253     2879.896     70.12302      1.510     2.72     -4.28753     19.78383     302.7694        24     1.154     1.035 -59.45   0
        98    332.7193    681.4755 300.0978793 +22.6506909     5202.252      70.2301      1.671     3.28    -4.050955     19.78383     475.5406        37     1.344     1.227  80.32   0
        99    455.1387    678.4670 300.1369330 +22.6865777     5240.137     70.15873      1.692     3.50    -3.598531     19.78383     445.3232        39     1.329     1.276 -84.54   0
       100    866.6630    672.1681 300.2671250 +22.8082402     1137.752     70.12302      1.610     3.53    -4.077592     19.78383     103.7251        18     1.138     1.025  -8.80   0
       101    951.2292    669.4183 300.2943808 +22.8328100     7120.431     70.10516      1.482     2.95    -3.981279     19.78383     670.1222        35     1.222     1.141 -25.52   0
       102    515.6513    667.9988 300.1591660 +22.7017364      6627.65     70.08729      1.714     3.49    -3.454867     19.78383     509.7535        41     1.358     1.300  30.16   0
       103    243.3079    663.8785 300.0758062 +22.6187984     825.5725     70.26576      1.656     3.66    -4.005312     19.78383     83.51392        18     1.223     1.030  15.58   0
       104    684.8464    664.3539 300.2130227 +22.7514596     288.7433     70.15873      1.499     3.45    -3.908495     19.78383     26.78416         5     0.794     0.433 -17.80   0
       105    447.3129    656.2346 300.1417290 +22.6778507     2558.244     70.10516      1.738     3.59    -3.594296     19.78383     209.1058        26     1.349     1.109  89.02   0
       106    790.0458    655.9457 300.2485262 +22.7806033     431.0139     70.15873      1.455     5.05    -3.923672     19.78383     43.41701         9     0.966     0.748  -8.00   0
       107    425.7312    654.5597 300.1355600 +22.6708924     612.9874     70.10516      1.635     3.77    -3.686888     19.78383     75.38074        11     1.055     0.811  32.44   0
       108    180.0382    654.0665 300.0593344 +22.5969857     328.5928     70.10515      1.331     4.61    -4.020504     19.78383     57.12003         7     1.076     0.561 -29.03   0
       109    866.8491    651.3447 300.2739557 +22.8023168     819.1967     70.15873      1.597     3.77    -3.921432     19.78383     74.26865        17     1.169     0.967 -46.17   0
       110    563.9174    643.6565 300.1821041 +22.7092360     115821.3     70.19443      1.754     3.63    -3.218503     19.78383     9058.511       156     1.601     1.556 -37.66   0
       111    747.6152    648.4772 300.2377365 +22.7657320     391.2346     70.14088      1.684     4.71    -3.846355     19.78383     39.80405         7     0.913     0.688  -5.89   0
       112    250.2637    643.7874 300.0845018 +22.6151257     2007.914     70.08729      1.637     3.21    -3.923755     19.78383     210.0415        26     1.284     1.119 -78.96   0
       113    815.9547    639.5092 300.2619445 +22.7836550     401.7248     70.10515      1.535     4.76    -3.785756     19.78383      32.4244         8     0.901     0.712 -51.55   0
       114    454.6229    624.1780 300.1544277 +22.6708479     1426.858     70.12302      1.809     3.71    -3.519356     19.78383     106.2721        24     1.231     1.200 -78.49   0
       115    851.2659    609.9860 300.2825491 +22.7857672     1033.511     70.08729      1.693     3.87     -3.58448     19.78383     76.29616        17     1.203     0.956  38.72   0
       116    722.6207    607.6287 300.2432346 +22.7465079      1442.77     70.12302      1.725     3.76    -3.460627     19.78383     117.8678        24     1.245     1.211  48.07   0
       117    510.1458    604.1306 300.1782221 +22.6817581     412.6812     70.15873      1.511     3.87    -3.123988     19.78383     39.07748         6     0.935     0.458 -41.92   0
       118    979.7019    601.6119 300.3253104 +22.8218713     785.6702     70.01577      1.527     3.31    -3.636586     19.78383     75.26257        13     0.994     0.871 -89.95   0
       119    851.7271    599.9493 300.2859564 +22.7830233     1098.911     70.12302      1.698     4.97    -3.478938     19.78383     88.77673        22     1.433     1.099  77.43   0
       120    965.2646    600.2128 300.3212636 +22.8171413     415.1637     70.06941      1.712     4.79    -3.610301     19.78383     35.54414         6     1.086     0.598  18.56   0
       121    889.6948    595.0704 300.2993765 +22.7930069     2404.306      70.2301      1.553     3.41    -3.477986     19.78383     191.9398        25     1.175     1.119  -6.78   0
       122    122.1931    586.0908 300.0634641 +22.5601247     573.7346     70.03365      1.720     4.25    -3.849903     19.78383     51.48268        14     1.249     0.946  46.21   0
       123    981.2743    585.4116 300.3310684 +22.8176891     379.1571     70.14088      1.486     4.61    -3.489301     19.78383     37.73444         9     0.899     0.778  86.41   0
       124    663.0563    565.8271 300.2382752 +22.7166407     391.6089     70.12302      1.547     3.71    -3.133819     19.78383     46.89896         7     1.014     0.668  68.56   0
       125    723.8356    557.8503 300.2597974 +22.7325807     591.4186     70.14088      1.723     6.51      -3.1212     19.78383     47.72869        12     1.304     0.912 -87.13   0
       126    977.7374    558.2000 300.3388128 +22.8088117     217.0392     70.06941      1.387     4.70    -3.244856     19.78383     36.44674         6     0.994     0.632  35.72   0
       127    881.0179    554.2941 300.3099295 +22.7786939     539.9065     70.05154      1.623     4.95    -2.989221     19.78383     40.44457        12     1.101     0.842 -38.73   0
       128    865.6202    550.6086 300.3063284 +22.7730187     412.5604     70.08729      1.858     5.88    -2.939796     19.78383     27.84684         8     1.178     0.827  25.58   0
       129    609.8478    548.5977 300.2273093 +22.6957336     1793.687     70.12302      1.765     4.26    -2.811803     19.78383     153.4531        23     1.229     1.208  14.64   0
       130   1021.0205    527.3263 300.3623475 +22.8129153     706.4535      66.6994      1.425     3.10    -3.291816     19.78383     75.01953        14     1.053     0.850  80.78  16
       131    893.4723    527.5528 300.3225047 +22.7747468     330.2107     70.10516      1.426     3.79    -2.909251     19.78383     32.32379         6     1.012     0.407 -17.95   0
       132    979.5315    526.0343 300.3498289 +22.8001086     537.4058     70.12302      1.493     4.84    -3.136065     19.78383     46.63313         9     0.938     0.709 -11.04   0
       133    720.6344    522.3426 300.2703429 +22.7214253     489.2254     70.14088      1.677     3.95    -2.997985     19.78383     61.69643        12     1.045     0.952  36.85   0
       134    225.1649    521.3039 300.1165200 +22.5724622     399.1113     70.12302      1.742     4.30    -3.078554     19.78383     36.67066         6     1.094     0.516 -68.45   0
       135    287.0136    516.7126 300.1372376 +22.5897107     2071.562     70.06941      1.774     3.59    -2.987553     19.78383     192.7703        29     1.301     1.271  58.29   0
       136   1019.5320    514.5628 300.3660323 +22.8088019     2670.744     70.10516      1.599     2.94    -3.279127     19.78383      235.578        26     1.224     1.113 -50.87  16
       137    234.2410    511.5926 300.1224972 +22.5724012     4407.533     70.14088      1.763     3.50    -3.057591     19.78383     383.4197        39     1.374     1.334  81.69   0
       138    999.6762    505.6988 300.3627210 +22.8003039     1000.234     70.26576      1.537     3.57    -3.203465     19.78383     90.71209        15     1.011     0.984 -20.09   0
       139    374.8578    505.5863 300.1681688 +22.6128829     2658.345     70.08729      1.834     3.88    -2.899344     19.78383     186.4962        30     1.360     1.258  68.34   0
       140    618.9197    502.1343 300.2452364 +22.6851164     10283.28      70.2301      1.849     4.07     -2.63757     19.78383     717.2811        49     1.452     1.437  56.25   0
       141    952.4418    484.4313 300.3549046 +22.7800359     382.9649     70.15873      1.570     5.34    -3.046318     19.78383     35.56282         9     1.242     0.649 -73.26   0
       142    173.8079    482.7536 300.1130883 +22.5459875      1138.61     70.14088      1.779     4.34    -3.100829     19.78383     97.63259        17     1.198     1.029  83.48   0
       143    559.5881    471.5522 300.2367054 +22.6585399     3643.277     70.14088      1.832     4.13    -2.380449     19.78383     252.7173        34     1.400     1.307  75.21   0
       144    972.8693    471.4536 300.3654918 +22.7824298     659.7934     70.14088      1.564     4.04    -3.082718     19.78383     61.48235        14     1.105     0.871  52.03   0
       145    274.6567    471.9588 300.1479404 +22.5731626     315.3279     70.10516      1.602     4.32    -2.943056     19.78383      34.5557         6     1.006     0.529 -12.19   0
       146    763.6537    460.2553 300.3039226 +22.7164954     588.9557     70.15873      1.751     6.10    -2.938215     19.78383     44.16748        12     1.178     0.889 -83.98   0
       147    466.2963    458.0913 300.2120474 +22.6266894     3397.332      70.3014      1.899     4.10    -2.439526     19.78383     237.5378        36     1.429     1.376  61.35   0
       148    857.9374    451.8858 300.3360214 +22.7423579     751.8437     70.24793      1.903     6.38    -2.947446     19.78383     54.06766        16     1.344     1.042 -71.04   0
       149    955.4756    451.8594 300.3664359 +22.7715866     301.3603     70.17658      1.475     4.76    -2.998658     19.78383     33.23785         6     0.889     0.723   2.15   0
       150    831.1339    439.9036 300.3315618 +22.7308807     401.1677      70.2301      1.585     3.95     -2.95974     19.78383     30.70597         6     0.779     0.574 -40.58   0
       151    354.0200    437.4642 300.1838251 +22.5870821     1561.493     70.10516      1.999     4.11    -2.802579     19.78383     106.2762        27     1.357     1.280 -44.83   0
       152     72.5781    435.0453 300.0971411 +22.5019136        585.6     70.17658      1.651     3.82    -3.301536     19.78383     56.12013        10     0.993     0.791  87.32   0
       153    323.1962    426.8380 300.1776925 +22.5747834     16878.26     70.15873      1.864     3.83    -2.866136     19.78383     1388.192        65     1.547     1.485  76.13   0
       154    857.8468    423.8139 300.3451149 +22.7342662     766.1154     70.14088      1.767     4.95    -2.973071     19.78383     57.13291        19     1.340     1.054 -82.53   0
       155     19.7224    414.8068 300.0873009 +22.4802401     2875.409     70.05154      1.621     3.08    -3.331032     19.78383      304.897        28     1.233     1.152 -81.40   0
       156    421.5604    412.4850 300.2129479 +22.6001779     376.3442     70.10516      2.037     5.06     -2.40007     19.78383     34.54669         5     1.103     0.657 -21.90   0
       157    733.3832    406.1323 300.3120788 +22.6918744     1173.156     70.12302      2.111     7.19    -2.945776     19.78383     64.61655        23     1.759     1.064  68.14   0
       158    947.8208    399.1194 300.3811859 +22.7541376     333.4767     70.08729      1.593     5.55    -2.784891     19.78383     34.80999         9     1.022     0.850  44.20   0
       159    395.5039    391.2960 300.2117263 +22.5862789     1260.764     70.28358      1.996     5.15    -2.507646     19.78383     76.80092        26     1.416     1.325 -72.14   0
       160    834.4619    383.8622 300.3508069 +22.7157785     322.1732     70.15873      1.895     5.28    -2.887635     19.78383     31.31193         8     1.148     0.686 -42.37   0
       161    471.2875    370.5793 300.2420318 +22.6030660     617.4625     70.05154      1.877     5.98    -2.388767     19.78383     51.10997        14     1.368     1.022 -59.43   0
       162    715.9501    362.0784 300.3209599 +22.6739940     1212.728     70.12302      2.062     4.70    -2.620539     19.78383     94.83463        21     1.338     1.174  79.27   0
       163    977.0328    356.1447 300.4042554 +22.7505409     1781.446     70.14088      1.679     3.59    -2.441212     19.78383     141.3228        24     1.222     1.172 -29.68   0
       164    424.6097    346.3535 300.2353784 +22.5821097     292.6323     70.14088      1.516     3.44    -2.388376     19.78383     36.39343         5     1.121     0.305 -19.96   0
       165     99.3744    340.8316 300.1360677 +22.4829343     767.6587     70.12302      1.844     4.13    -2.599396     19.78383     70.91329        13     1.240     0.822 -49.98   0
       166    885.4061    312.5120 300.3898607 +22.7105448     1217.914     70.03365      1.781     4.59    -2.504809     19.78383     81.71006        22     1.309     1.147  62.66   0
       167    304.3061    310.3011 300.2096719 +22.5356710     1252.172      70.3014      1.852     4.87    -2.380518     19.78383     89.64288        22     1.383     1.167 -84.58   0
       168    382.8469    305.3980 300.2356885 +22.5578251     452.0313     70.12302      1.645     6.38    -2.323452     19.78383     45.70346        13     1.234     0.966 -62.35   0
       169    199.5708    297.6255 300.1812307 +22.5006080     446.5542     70.12302      1.859     4.03    -2.631943     19.78383     53.80384         8     1.064     0.784  68.36   0
       170    736.5129    294.1575 300.3494246 +22.6606464     969.3535     70.12302      1.920     5.41    -2.345924     19.78383     60.13217        19     1.251     1.158 -88.47   0
       171   1008.4319    286.5224 300.4366598 +22.7399358     395.1141     70.10516      1.508     4.29      -2.4306     19.78383     49.60893        10     1.101     0.759  -0.22   0
       172    802.0037    293.8954 300.3699137 +22.6802005     226.0467     70.03365      1.411     4.50    -2.348626     19.78383     32.67776         6     1.090     0.528 -80.39   0
       173    661.1024    284.5796 300.3290475 +22.6352893     624.7203     70.05154      1.791     5.51    -2.438782     19.78383     49.14553        17     1.342     1.097 -23.46   0
       174    587.1826    277.0801 300.3084670 +22.6109735     603.2878     70.12302      1.869     5.20    -2.095199     19.78383      58.4252        14     1.299     0.908 -10.15   0
       175    856.7886    275.9810 300.3928040 +22.6914706     783.5065     70.08729      1.706     5.97    -2.250554     19.78383     53.98114        18     1.285     1.110  -2.04   0
       176    868.8051    275.1473 300.3968201 +22.6948319     574.2881     70.10516      2.303     6.43    -2.253551     19.78383     39.97423        12     1.527     1.018 -42.60   0
       177    984.8806    265.2180 300.4362330 +22.7267559     689.7697     70.12302      1.860     4.52    -2.530924     19.78383      57.7936        13     1.172     0.885  41.56   0
       178    219.2484    259.8821 300.1996012 +22.4956808     410.1989     70.14088      1.900     4.11    -2.426554     19.78383     35.44355         6     1.236     0.390 -54.53   0
       179     81.5857    253.6745 300.1588422 +22.4525906      1227.76     70.14088      1.832     3.98    -2.227118     19.78383     105.3646        25     1.344     1.230  73.96   0
       180    904.4530    250.0652 300.4160763 +22.6983043     460.5023     70.15873      2.396     4.67    -2.319622     19.78383     27.60154         5     1.048     0.591  17.41   0
       181    238.9678    247.0559 300.2098946 +22.4979159      3344.86     70.14088      1.898     3.72    -2.283459     19.78383     254.7425        38     1.466     1.399 -84.97   0
       182     23.3477    241.7606 300.1446220 +22.4316939     650.4843     70.10516      1.475     2.75    -2.226694     19.78383      66.3624        11     0.963     0.702 -48.89   0
       183    221.5874    238.1788 300.2073741 +22.4901536     272.7093     70.10515      1.179     3.42    -2.279791     19.78383     29.27674         5     1.178     0.287  35.15   0
       184    882.7723    228.1808 300.4164230 +22.6855181     1870.161     70.12302      1.813     4.20    -2.190003     19.78383     148.2408        25     1.278     1.197   1.11   0
       185    986.3613    226.9029 300.4491350 +22.7161843     1574.263     70.10516      1.662     3.76    -2.716178     19.78383     118.2698        22     1.209     1.129 -87.11   0
       186    433.0694    224.1871 300.2776786 +22.5495715     505.9286     70.14088      1.478     4.21    -2.081723     19.78383     32.52072         6     1.165     0.434 -27.79   0
       187    483.9402    211.0709 300.2977642 +22.5610593     916.8251     70.15873      1.953     6.58    -2.080431     19.78383     66.49329        16     1.244     1.128 -48.68   0
       188    257.9026    190.9573 300.2339906 +22.4874935     3449.467     70.12302      1.881     3.72    -1.991573     19.78383     269.7735        41     1.511     1.391  67.80   0
       189    109.1858    190.9689 300.1877705 +22.4428800     408.2776     70.12302      1.457     5.24    -2.147877     19.78383     39.80874         9     1.121     0.836   2.41   0
       190    503.7493    176.2254 300.3152390 +22.5569906     3507.329     70.14088      1.889     4.12    -2.078184     19.78383     260.2162        36     1.448     1.378 -64.01   0
       191    389.2346    176.3280 300.2795774 +22.5226831     494.8692     70.12302      1.797     3.95    -2.056648     19.78383     39.61938        10     1.134     0.942 -73.28   0
       192    756.2770    166.0493 300.3971720 +22.6297580     459.0509     70.12302      1.859     5.82     -1.82513     19.78383     33.29132         9     1.086     0.879 -37.15   0
       193    632.1600    156.2444 300.3616968 +22.5897440     3443.281     70.19443      1.881     4.10    -2.070836     19.78383     251.8903        37     1.435     1.362 -51.96   0
       194    407.2794    155.8136 300.2918482 +22.5222030     661.0082     70.10516      1.736     4.50    -2.053293     19.78383      51.7463        14     1.193     0.932 -19.67   0
       195    673.4572    153.8209 300.3753434 +22.6014248     429.6285     70.12302      1.776     6.07    -2.116966     19.78383     36.96474        11     1.154     0.897 -19.82   0
       196    676.2169    140.9133 300.3803918 +22.5985428     1535.353     70.06941      1.904     4.57    -2.100745     19.78383     109.6531        28     1.437     1.334 -13.52   0
       197    316.6935    142.1579 300.2681065 +22.4911167     311.0478     70.14088      1.741     4.30    -1.967211     19.78383     29.89987         5     1.124     0.468 -31.80   0
       198    691.6277    139.7843 300.3855578 +22.6028367      544.283     70.14088      2.070     5.98    -2.013665     19.78383     36.55671         9     1.080     0.932 -88.16   0
       199    762.5774    132.4756 300.4100309 +22.6219965     744.7539     70.12302      1.786     6.79    -1.740201     19.78383     53.27858        16     1.255     1.087 -13.28   0
       200    700.9355    126.2226 300.3928578 +22.6017286      438.038     70.10515      1.477     4.08    -1.952998     19.78383     39.44017         6     1.113     0.488 -43.02   0
       201    506.7845    125.3054 300.3327086 +22.5432738     517.2056     70.05154      1.625     5.20    -2.080115     19.78383     47.44772        10     1.236     0.946 -38.36   0
       202     79.6403    125.4172 300.1998649 +22.4152028     406.4551     70.14088      1.252     3.12    -1.995145     19.78383     49.95679         5     0.973     0.316  66.88   0
       203    409.8089    123.4806 300.3031274 +22.5136757     467.4983     70.06941      1.774     6.22    -2.053434     19.78383     37.16111        10     1.216     0.894 -55.94   0
       204    181.6521    113.7020 300.2353611 +22.4424435     2223.641     70.21227      1.788     3.86    -2.095544     19.78383     161.2495        28     1.387     1.202 -59.74   0
       205    749.6066    114.3983 300.4118561 +22.6129143       299.36     69.94418      1.686     4.12    -1.715916     19.78383     25.28009         5     0.994     0.487  -3.39   0
       206    297.6735    105.8642 300.2739691 +22.4749913     759.7372     70.15873      1.724     4.47    -1.969767     19.78383     68.37522        15     1.256     1.065 -34.79   0
       207    742.5960    105.6350 300.4125156 +22.6082949     423.5987     70.12302      1.623     5.46    -1.703061     19.78383      42.9944        11     1.104     1.057 -56.46   0
       208    780.9481    100.7312 300.4260555 +22.6183761     448.9435     70.10516      2.006     4.44    -1.691674     19.78383     40.57257         7     1.307     0.429  -5.27   0
       209    800.7099     96.9802 300.4334302 +22.6232183     1370.252     70.06941      1.840     4.26    -1.686616     19.78383     100.9427        22     1.272     1.158 -39.58   0
       210    184.1562     92.7684 300.2429311 +22.4371851     663.8078     70.17658      2.055     4.95    -2.143266     19.78383     62.87029        13     1.168     1.080 -79.56   0
       211    975.1612     90.0083 300.4900731 +22.6734669     386.9583     70.14088      1.332     3.84    -2.067192     19.78383     42.26756        10     0.933     0.769 -23.16   0
       212    749.2541     89.5995 300.4197928 +22.6056807     412.4347     70.05154      1.519     5.26    -1.666876     19.78383     43.27753         7     1.093     0.714  55.66   0
       213    602.0684     75.0889 300.3786614 +22.5574060     523.7497     70.28358      2.279     5.12    -2.153377     19.78383      38.0267         8     0.981     0.755 -67.91   2
       214    212.5648     71.6189 300.2586217 +22.4396339     268.0312     70.12302      1.464     4.04    -2.140924     19.78383     29.91821         5     0.945     0.494  87.15   0
       215    765.3678     69.0396 300.4314836 +22.6045984     453.6538     70.15873      1.773     4.30     -1.67906     19.78383     29.32325         6     1.329     0.396 -20.53   0
       216    573.3621     67.6064 300.3721520 +22.5466527     1151.081     70.15873      1.980     4.42    -2.157645     19.78383     79.18102        25     1.366     1.258 -59.70   0
       217    296.1745     65.6049 300.2865644 +22.4629810     419.4101     70.08729      1.971     5.90    -1.993392     19.78383     36.53268         6     1.269     0.772 -41.01   0
       218     11.0127     64.3553 300.1983604 +22.3770880     281.6693     70.14088      1.207     3.78   -0.8975897     19.78383     45.79883         5     1.003     0.423 -66.72   0
       219    530.4860     61.4652 300.3607982 +22.5320376     748.8094     70.21227      1.711     5.28    -2.160576     19.78383     63.72939        20     1.533     0.933 -81.53   0
       220    635.7886     57.9049 300.3947354 +22.5625730     785.2379     70.06941      1.878     5.92    -1.968308     19.78383     56.91287        17     1.360     1.171 -24.65   0
       221    456.3354     51.7443 300.3408765 +22.5070186     1252.294     70.17658      1.767     5.26    -2.095361     19.78383     88.62687        24     1.425     1.222  59.12   0
       222    103.6471     49.9864 300.2317939 +22.4007542     766.3987     70.12302      1.757     4.21    -2.152774     19.78383     72.79508        18     1.280     1.101 -46.88   0
       223    164.7162     31.8095 300.2566645 +22.4138534     606.7985     70.06941      1.491     3.93    -2.188302     19.78383     78.43533        11     1.153     0.852 -65.19   0
       224    624.3539   1021.3737 300.0779845 +22.8357280     149.7618     65.48658      0.970     2.68    -5.396255     19.78383     42.30914         5     0.794     0.664 -47.85  16
       225    108.0544   1015.6890 299.9192871 +22.6789902     854.3271     70.15873      5.470     5.85   -0.9900512     19.78383     37.26377         7     1.156     0.832 -27.61   3
