#   1 NUMBER                 Running object number                                     
#   2 X_IMAGE                Object position along x                                    [pixel]
#   3 Y_IMAGE                Object position along y                                    [pixel]
#   4 ALPHA_J2000            Right ascension of barycenter (J2000)                      [deg]
#   5 DELTA_J2000            Declination of barycenter (J2000)                          [deg]
#   6 FLUX_APER              Flux vector within fixed circular aperture(s)              [count]
#   7 FLUXERR_APER           RMS error vector for aperture flux(es)                     [count]
#   8 FLUX_RADIUS            Fraction-of-light radii                                    [pixel]
#   9 FWHM_IMAGE             FWHM assuming a gaussian core                              [pixel]
#  10 BACKGROUND             Background at centroid position                            [count]
#  11 THRESHOLD              Detection threshold above background                       [count]
#  12 FLUX_MAX               Peak flux above background                                 [count]
#  13 ISOAREA_IMAGE          Isophotal area above Analysis threshold                    [pixel**2]
#  14 A_IMAGE                Profile RMS along major axis                               [pixel]
#  15 B_IMAGE                Profile RMS along minor axis                               [pixel]
#  16 THETA_IMAGE            Position angle (CCW/x)                                     [deg]
#  17 FLAGS                  Extraction flags                                          
         1    596.3157      6.4579 300.3787644 +22.5570189      468.339     70.04289      1.433     3.92     -1.72927      19.7311     66.44199        11     1.216     0.679 -85.32  16
         2    205.7530      3.5377 300.2582257 +22.4391446     207.4064     64.91022      1.062     3.41    -2.194084      19.7311     36.02702         5     0.754     0.446  21.46  16
         3    759.5334      1.4291 300.4312257 +22.6044556     255.1274     55.02111      0.958     2.78    -2.091622      19.7311     59.79266         6     0.862     0.434  18.65  24
         4      5.9930   1014.2302 299.8677213 +22.6690269     777.1906      69.9361      5.184     5.04    -13.38355      19.7311     25.16852         5     1.181     0.608  77.73  17
         5    242.8132   1014.8328 299.9410839 +22.7403538     5306.151     69.91828     10.168    34.74     3.034535      19.7311     134.7754       654     9.782     5.800  52.42  26
         6    171.9945   1016.0506 299.9186822 +22.7194282     1193.689     69.91828      5.624     5.40     20.48139      19.7311     46.00069        17     1.306     1.006  69.55  19
         7    932.2086   1011.5052 300.1567396 +22.9463416       423.03     69.82913      1.072     2.09    -6.041136      19.7311      96.7415         8     0.854     0.538 -73.44   0
         8    657.5659    995.3885 300.0764289 +22.8593124     4083.961     69.91828      1.080     1.97    -5.260423      19.7311     624.7212        24     0.951     0.897  53.13   0
         9     54.1836   1022.6618 299.8799377 +22.6859236     755.3333     59.62841      3.456     5.59     7.202474      19.7311     36.38042        11     1.430     0.617  28.08  25
        10     80.5498    959.4749 299.9087007 +22.6757473     2113.176      69.9361     27.059    81.91      3.79812      19.7311     135.6184       795    24.010     7.753 -69.67  18
        11    537.4916    989.6419 300.0409258 +22.8216229     289.3694      69.9361      1.096     3.35    -5.235756      19.7311     44.71384         6     0.913     0.441  72.91   0
        12    225.1293   1021.6743 299.9333603 +22.7370019     3357.466      64.1379     16.746    39.06     6.832635      19.7311     90.66563       298    15.176     2.790   4.90  27
        13    173.3990   1021.1567 299.9174556 +22.7213129     1493.237     66.01402      6.551    12.32     21.45637      19.7311     49.48564        39     2.309     1.830 -56.37  27
        14    459.8798    982.6108 300.0190684 +22.7963067     511.2884     69.91828      1.022     1.56     -5.17926      19.7311     132.3956         7     0.679     0.584 -23.44   0
        15    390.6453    980.7004 299.9981568 +22.7749709     3830.247     69.95391      1.099     1.87     -5.13274      19.7311     640.8189        20     0.889     0.849 -74.10   0
        16    116.8738    980.5398 299.9131234 +22.6926950     1186.958     69.97171      4.213     4.93     13.37901      19.7311      43.9707         8     1.218     0.565 -45.44   2
        17    566.2234    986.2416 300.0509745 +22.8292728     1056.325     69.97171      1.185     1.73    -5.224625      19.7311      215.346        13     0.946     0.732  32.67   0
        18    117.3205   1011.6487 299.9031319 +22.7017407      892.403      69.9361      6.506     6.36      22.7578      19.7311     29.03683        10     1.408     0.807  -0.54   0
        19    423.5418    967.8618 300.0125683 +22.7811683      355.521     69.98952      1.124     4.13    -5.161048      19.7311     58.75592         5     1.124     0.486  60.98   0
        20    936.8206    959.2341 300.1752010 +22.9327243     1259.018     69.95391      1.061     1.73    -5.507174      19.7311     300.2503        14     0.952     0.700 -78.72   0
        21    435.0314    955.9953 300.0200059 +22.7812161     272.8903     69.91828      1.222     3.38    -5.156896      19.7311     42.29492         6     0.760     0.676  -2.54   0
        22    725.8429    948.5278 300.1129499 +22.8663604     405.1124     69.91828      1.516     5.32    -4.860758      19.7311     49.13508         9     1.351     0.592  63.94   0
        23     66.9275   1001.0157 299.8909441 +22.6835533      2416.19      69.9361     14.352    35.87     9.062621      19.7311     61.15147       274     7.635     4.677  84.73  19
        24    760.5969    942.2061 300.1258330 +22.8749745     620.6353     69.75774      1.015     1.83    -4.998716      19.7311     132.4296         8     0.749     0.579  88.80   0
        25     88.2499    997.0026 299.8988725 +22.6888107     3174.102      69.9361     23.886    61.44     15.28596      19.7311     73.75335       668    12.420     8.433 -89.81  19
        26    782.7068    936.0114 300.1347374 +22.8798306     6607.058     69.88264      1.059     1.69    -5.093221      19.7311     1451.887        27     0.929     0.861 -45.17   0
        27    828.4348    935.7935 300.1490549 +22.8934864     278.6892      69.9361      1.042     1.65    -5.203196      19.7311     65.42908         5     0.652     0.439 -61.52   0
        28    915.6846    929.1432 300.1784109 +22.9177489     236.8105     70.02511      1.102     3.32    -5.201555      19.7311     46.15399         5     0.730     0.451 -78.67   0
        29    215.2960   1011.0455 299.9337662 +22.7310027      921.342     69.95391      5.934     5.72     8.154214      19.7311     38.08888         5     1.530     0.603  30.42   3
        30    791.2397    918.0179 300.1432542 +22.8772278     816.6289     69.95391      1.005     1.68    -4.983886      19.7311     186.2762        10     0.754     0.702 -66.66   0
        31     84.0588    985.7170 299.9012459 +22.6843187     2934.622     70.02511     19.630    24.15     11.16139      19.7311     60.31905       178     5.245     3.088 -57.48   3
        32    974.4001    916.7444 300.2007520 +22.9317992     367.6207     69.84697      1.039     2.97    -5.156996      19.7311     60.72482         5     0.872     0.461 -77.06   0
        33    643.4951    914.9999 300.0982245 +22.8320326      373.942     69.81129      1.067     2.45    -4.680599      19.7311     51.80344         6     0.752     0.498  85.22   0
        34    936.5671    912.3904 300.1903750 +22.9192035     2756.859     69.91828      0.824     1.44    -5.137023      19.7311     898.0655         6     0.642     0.479  12.73   0
        35    829.3958    911.4227 300.1572892 +22.8867814     482.5056     69.90046      1.042     2.36    -5.013601      19.7311      78.6538         9     0.810     0.713  81.61   0
        36    937.9727    908.2772 300.1921523 +22.9184445     207.9013      69.9361      1.207     2.20    -5.121045      19.7311     49.12939         5     0.756     0.458 -56.36   0
        37    877.8250    902.6730 300.1752293 +22.8987968     370.8939     69.97171      0.980     1.82    -5.026633      19.7311     79.76714         6     0.648     0.559  47.14   0
        38    729.1835    901.7254 300.1292286 +22.8539356      399.039      69.9361      1.023     1.98    -4.707129      19.7311     90.78381         6     0.689     0.529  76.52   0
        39    739.9601    899.0753 300.1334478 +22.8564085     416.5441     69.90046      1.255     4.15    -4.726492      19.7311     59.78822         8     1.084     0.529 -42.99   0
        40    441.6964    898.3843 300.0408354 +22.7666996     2509.352     69.84697      1.090     1.87    -4.868648      19.7311     463.2956        19     0.943     0.800 -86.72   0
        41    219.6490    887.0363 299.9754942 +22.6967748     240.4025      69.9361      1.018     3.40    -4.040833      19.7311     42.26839         5     0.777     0.431 -71.47   0
        42      1.9514   1011.5569 299.8673372 +22.6670467     621.5396     57.76058      5.557     6.10    -14.78766      19.7311     29.42083         6     1.280     0.816 -82.60  25
        43    166.9687    883.8624 299.9601587 +22.6800434     525.8712      69.9539      1.250     2.44    -3.381429      19.7311     100.9275        11     0.941     0.674  76.23   0
        44    144.1711    881.2212 299.9539360 +22.6724392     1037.397      69.9361      1.190     2.18    -3.655629      19.7311     162.8221        15     1.023     0.768 -76.36   0
        45   1015.7959    869.8577 300.2289242 +22.9307517     1272.625     69.90046      1.072     1.92     -4.96925      19.7311     240.9796        13     0.832     0.701 -73.86   0
        46     18.7972    870.9503 299.9183424 +22.6318346     286.8711      69.9361      1.175     3.99    -4.850949      19.7311     39.78713         5     1.007     0.452 -20.76   0
        47    970.0305    868.2780 300.2151683 +22.9165759     1278.354     69.91828      1.055     1.83    -4.961261      19.7311     273.4081        13     0.870     0.683 -84.65   0
        48    446.4493    868.2479 300.0521236 +22.7594850     143.8546     69.97172      0.952     3.44    -4.605854      19.7311     33.27725         5     0.758     0.452  70.06   0
        49    175.9871    862.7484 299.9698327 +22.6767013     240.3939     69.97171      1.260     2.19    -4.316728      19.7311     47.26015         5     0.753     0.453  65.19   0
        50    753.4470    862.3298 300.1496102 +22.8499111     369.5656     69.91828      0.890     1.82    -4.663738      19.7311     72.34834         5     0.620     0.488  75.58   0
        51    621.7032    856.3730 300.1105249 +22.8086759     2761.136     69.88264      1.048     1.87    -4.638208      19.7311     529.8472        19     0.897     0.786 -89.44   0
        52    172.0651    850.2950 299.9726672 +22.6719544     879.4881     70.06068      1.164     1.82    -4.390371      19.7311     162.8269         9     0.756     0.639 -54.19   0
        53    642.2026    848.8925 300.1193415 +22.8126808     335.2701     69.84697      1.027     2.00    -4.568912      19.7311     85.03075         6     0.688     0.539 -59.29   0
        54    191.1437    847.5321 299.9794941 +22.6768922      203.397     69.95391      0.964     2.06    -4.409554      19.7311     51.31613         5     0.688     0.451 -24.23   0
        55   1014.3760    836.2108 300.2394336 +22.9206654     731.2997      69.9361      1.115     1.98    -4.867895      19.7311     129.2814         9     0.778     0.634 -68.18   0
        56    797.6739    836.0421 300.1719438 +22.8556337     2518.351     69.91828      1.115     1.76    -4.566915      19.7311     502.9793        20     0.937     0.819 -89.92   0
        57    205.9714    830.1478 299.9897589 +22.6763624     403.5177     69.95391      1.122     3.08    -4.532787      19.7311     63.82693         8     0.935     0.654  74.70   0
        58    514.7748    828.7645 300.0862309 +22.7686690     472.5398     69.95391      1.194     2.83    -4.631664      19.7311     56.61967         7     0.840     0.522  47.50   0
        59    161.0795    826.7504 299.9769163 +22.6619073     712.5266     69.95391      1.391     2.78     -4.51088      19.7311     93.79405        11     0.933     0.738  54.74   0
        60    310.7945    818.9105 300.0259957 +22.7046152     30632.59     69.84697      1.207     1.95    -4.599318      19.7311     5562.229        65     1.156     1.025  77.27   0
        61    576.3161    821.9349 300.1076053 +22.7851778     325.5341     70.04289      1.224     2.67    -4.596557      19.7311     55.97054         5     0.736     0.431 -72.97   0
        62    568.6004    817.6526 300.1065975 +22.7816341     1057.057     69.90046      1.128     2.02    -4.596517      19.7311     175.6221        11     0.806     0.740 -19.57   0
        63    981.5106    816.9340 300.2354595 +22.9052772     564.5127     70.04289      1.077     1.77    -4.735529      19.7311     98.67146         8     0.707     0.626   9.16   0
        64    239.1682    817.0031 300.0043526 +22.6825629     283.4313     69.91828      1.087     2.84    -4.634896      19.7311     52.12908         6     0.872     0.456  60.03   0
        65    597.5543    813.8882 300.1168346 +22.7892420     460.7461     69.91828      1.090     1.91    -4.540669      19.7311     103.3738         6     0.721     0.493  82.73   0
        66    608.5001    812.0916 300.1208265 +22.7920109      233.729     70.09624      0.926     2.06    -4.515834      19.7311     63.65379         5     0.703     0.444  65.00   0
        67    928.3600    809.1304 300.2214289 +22.8871007     212.3161     69.90046      1.052     1.90    -4.546763      19.7311     48.00565         5     0.693     0.435  67.85   0
        68    713.8010    808.2872 300.1548511 +22.8225104     170.9851     69.84697      0.922     2.19    -4.514648      19.7311     55.09836         6     0.684     0.583 -55.54   0
        69    751.4908    798.6199 300.1697359 +22.8310416       571.69     69.86481      1.153     2.63    -4.506089      19.7311     81.01791         8     0.835     0.670  65.04   0
        70    360.5334    796.1190 300.0488766 +22.7130121      18436.1     70.04289      1.144     1.96    -4.607658      19.7311     3017.794        50     1.104     0.983  82.10   0
        71    374.7417    796.6522 300.0531214 +22.7174299     1225.363     69.98952      1.100     1.99    -4.608412      19.7311     226.3374        14     0.911     0.790  35.19   0
        72    883.5138    791.7632 300.2131023 +22.8686676     1658.113     69.91828      1.049     1.99    -4.482021      19.7311     281.4775        15     0.887     0.741  75.41   0
        73    371.4717    790.6845 300.0540463 +22.7147371     373.8132     70.04289      1.055     3.36    -4.598477      19.7311     55.59192         5     0.730     0.449 -67.74   0
        74    641.4735    787.8351 300.1389848 +22.7949443     452.3993     69.91828      1.137     2.57    -4.500724      19.7311     84.05985         6     0.729     0.616 -76.14   0
        75    242.9515    787.9232 300.0149906 +22.6753626     505.3636      69.9361      1.133     2.07    -4.732669      19.7311     90.49602         9     0.744     0.706  51.17   0
        76     47.6599    783.5015 299.9557606 +22.6154490     293.8863     70.00732      1.221     3.57    -4.742443      19.7311     52.25158         6     0.852     0.608  67.75   0
        77    488.6563    782.8858 300.0930337 +22.7476715     496.6729     70.04289      1.159     1.98    -4.604715      19.7311     85.56973         7     0.697     0.594 -79.38   0
        78    889.9739    779.3342 300.2191601 +22.8670365     342.3915     69.91828      0.949     2.27    -4.472073      19.7311     62.27385         5     0.708     0.425  21.11   0
        79    434.2591    777.5505 300.0778472 +22.7298161     217.3597     69.98952      1.152     2.73    -4.604394      19.7311     39.67218         5     0.701     0.475 -16.49   0
        80     76.0220    777.1488 299.9666350 +22.6221469     336.7201      69.9361      1.355     3.11    -4.718986      19.7311      50.5524         7     0.872     0.530  47.27   0
        81    240.6185    772.1191 300.0194075 +22.6701314     113.4937     69.91828      0.905     2.17    -4.736908      19.7311     55.27266         6     0.766     0.484  86.20   0
        82    563.7783    762.3995 300.1230756 +22.7643363     279.4382     69.86481      1.262     2.10    -4.587296      19.7311     43.45145         5     0.668     0.474 -15.23   0
        83    533.6167    760.7327 300.1142314 +22.7548082     403.0009      69.9361      1.222     3.01    -4.609118      19.7311     59.41732         7     0.918     0.486 -88.98   0
        84    555.3602    758.3068 300.1217873 +22.7606363     839.1365     69.95391      1.131     2.25    -4.599434      19.7311     136.0652        12     0.899     0.734  71.28   0
        85    949.7562    756.9345 300.2450838 +22.8785294     2723.153     69.91828      1.053     1.69    -4.536941      19.7311     631.5374        19     0.919     0.755  65.82   0
        86    636.4587    752.9407 300.1487771 +22.7834273     245.6044     70.00732      1.326     4.17    -4.545017      19.7311     29.62052         5     0.785     0.631  -8.56   0
        87    938.2812    748.2286 300.2443390 +22.8725894      913.366     69.95391      1.021     1.71    -4.494237      19.7311     204.2356        11     0.798     0.725  84.12   0
        88    301.1542    742.4820 300.0478656 +22.6798074     392.6072     69.91828      1.110     2.67    -4.642918      19.7311     68.64072         8     0.786     0.682  43.59   0
        89    764.8240    739.8666 300.1930060 +22.8181776     1644.438     69.91828      1.296     2.29    -4.480029      19.7311      240.649        18     1.320     0.834   4.37   0
        90    969.4180    738.5726 300.2571880 +22.8791510     982.7949      69.9361      1.016     1.98    -4.588117      19.7311     160.0828        10     0.806     0.636  88.88   0
        91    847.0146    725.5168 300.2232820 +22.8387048     259.2551     69.90046      0.982     2.80    -4.408583      19.7311     57.80688         6     0.759     0.665  16.88   0
        92    148.1612    996.6630 299.9175918 +22.7067138     735.4619      69.9361      7.218     8.56     18.15694      19.7311     33.63117        10     2.797     0.732  19.20   2
        93    911.5126    720.6951 300.2449523 +22.8566582     588.6321     70.11401      0.858     0.16    -4.406051      19.7311      188.141         7     0.809     0.497 -84.99   0
        94    883.0814    716.6600 300.2374033 +22.8469757     86930.56     70.00732      1.116     1.76    -4.383499      19.7311     17326.36       100     1.131     1.060  88.38   0
        95    735.5983    716.7935 300.1914087 +22.8027899     484.9715     69.75774      1.126     2.85    -4.488679      19.7311     63.13693         8     0.908     0.576 -74.62   0
        96    915.8357    709.4296 300.2499646 +22.8547194     215.1227     69.95391      0.904     2.62    -4.373696      19.7311     63.81646         7     0.856     0.557 -56.41   0
        97    569.1162    705.8464 300.1431346 +22.7497117     1008.491     69.91828      1.302     2.99    -4.497265      19.7311     133.3505        16     1.245     0.859 -48.37   0
        98    750.5932    702.9699 300.2005760 +22.8033189     5492.607      69.9361      1.161     1.97    -4.462046      19.7311     950.3416        29     1.086     0.889 -87.20   0
        99    915.6305    700.6548 300.2527551 +22.8521381     1347.582     69.95391      0.769     1.04    -4.350989      19.7311     552.7964         5     0.562     0.439  55.06   0
       100    252.2151    698.2310 300.0470473 +22.6524280     2979.971      69.9361      1.217     2.22    -4.707033      19.7311     447.7319        23     1.050     0.894 -85.38   0
       101    334.0326    696.1616 300.0731546 +22.6763928      705.186     69.97171      1.151     2.32    -4.237574      19.7311     122.5584        11     0.852     0.775 -34.13   0
       102    209.8470    693.9307 300.0352787 +22.6384763     343.2848     69.91828      1.305     2.85      -4.7435      19.7311     47.40426         8     0.831     0.628 -52.47   0
       103    542.3962    691.7677 300.1393981 +22.7376560     398.7716      69.9361      1.275     2.84    -4.402995      19.7311     69.11057         8     0.880     0.730 -85.74   0
       104    534.0623    683.8495 300.1393800 +22.7328838     1951.938     69.98952      1.241     2.43    -4.309871      19.7311     272.0497        19     0.993     0.873 -69.09   0
       105    524.2397    677.5110 300.1383848 +22.7281182     858.4115     69.91828      1.264     2.52    -4.198225      19.7311     112.4749        13     0.886     0.824  80.52   0
       106    187.6083    673.9375 300.0348706 +22.6260677     282.9261     69.88264      1.230     2.80    -4.714804      19.7311     56.46723         7     0.791     0.685  24.52   0
       107    201.9216    672.5103 300.0397823 +22.6299553     344.1309     70.06068      0.992     2.06    -4.728037      19.7311     70.61069         8     0.756     0.630  89.12   0
       108    227.0669    669.1063 300.0487035 +22.6365276     317.2011     70.07846      1.219     3.23    -4.709955      19.7311      49.4943         8     0.843     0.627 -29.34   0
       109    971.2017    668.5329 300.2805279 +22.8595710     231.7671     69.91828      0.920     2.09    -4.501522      19.7311     62.42995         5     0.681     0.460 -22.49   0
       110    449.1764    667.2293 300.1183742 +22.7026473     1080.387      69.9361      1.207     2.45    -4.168794      19.7311     151.0106        12     0.877     0.745  67.45   0
       111    103.1415    662.4485 300.0123659 +22.5974146     11685.04     69.98952      1.204     2.14    -4.635021      19.7311     1763.125        37     1.060     0.979  77.11   0
       112     23.9471    664.1415 299.9872212 +22.5741200     419.6579     69.98952      1.252     2.20     -4.78846      19.7311     70.14786         7     0.753     0.644 -75.23   0
       113    534.1102    662.6586 300.1462868 +22.7268177     537.6382     70.02511      1.193     2.07     -4.15444      19.7311     94.06554         9     0.799     0.661  73.88   0
       114    569.1748    661.3994 300.1576092 +22.7369751     102.2411     69.88264      0.969     3.51    -4.253427      19.7311     27.86406         5     0.781     0.456  16.40   0
       115    287.1272    654.0101 300.0722806 +22.6502260      254.178      69.9361      1.248     4.36    -4.443602      19.7311     30.94777         6     0.788     0.686  76.31   0
       116    952.1672    648.4742 300.2811172 +22.8481047     689.4083      69.9361      1.191     1.82    -4.302074      19.7311     110.7682         9     0.759     0.637 -76.68   0
       117     49.1009    646.4721 300.0007775 +22.5766085     906.0261     70.07846      1.584     5.05    -4.742471      19.7311     109.1889        18     1.476     0.808 -81.97   0
       118    818.6957    646.2014 300.2402564 +22.8074414     218.4276     69.84697      1.244     4.61    -4.195475      19.7311     37.47613         8     1.097     0.811 -86.32   0
       119    497.2959    643.0995 300.1411919 +22.7101613     310.6986     70.13177      1.360     3.64    -3.810909      19.7311     51.96193         7     1.096     0.450  85.46   0
       120    289.3068    642.2491 300.0767826 +22.6475071     172.2662     69.97172      1.120     3.39    -4.327654      19.7311     29.25634         5     0.838     0.615  41.21   0
       121    892.3126    641.3181 300.2647862 +22.8281084     503.2647     70.06068      1.306     2.71    -4.220069      19.7311     72.09891         7     0.757     0.693  50.79   0
       122    454.0874    635.3759 300.1302605 +22.6949821     477.5439     69.90046      1.278     3.35    -3.943625      19.7311     61.01785         8     0.970     0.627  49.76   0
       123    602.0745    633.9963 300.1767613 +22.7389792     258.5809     69.84697      1.154     2.28    -3.980098      19.7311     54.01075         7     0.825     0.515 -41.13   0
       124    619.7893    632.1878 300.1828641 +22.7437733     294.8699     69.82913      0.950     2.77    -4.037206      19.7311     60.00941         6     0.721     0.632  79.80   0
       125    498.5493    631.3727 300.1453953 +22.7071724     630.0233     69.95391      1.554     3.64     -3.76581      19.7311     74.21629        10     1.086     0.711  39.11   0
       126    932.0077    626.7054 300.2819117 +22.8358100     1934.461     69.82913      1.142     1.95     -4.19913      19.7311     351.8568        17     0.903     0.778  67.33   0
       127    463.8091    626.8108 300.1360700 +22.6954413     932.8745     69.82913      1.259     2.43    -3.831163      19.7311     157.4775        14     0.970     0.790  67.74   0
       128    828.7281    624.0966 300.2505709 +22.8041019     222.5828     70.04289      1.220     3.86    -4.125733      19.7311     34.15221         5     0.858     0.497 -34.28   0
       129     25.9311    620.5606 300.0020078 +22.5622238     3016.437     69.90046      1.254     2.17    -4.883262      19.7311     430.7712        23     1.026     0.904 -87.81   0
       130    493.1753    616.6612 300.1485068 +22.7013389     182.1764      69.9361      1.464     3.61    -3.699004      19.7311     29.46129         5     0.999     0.375  86.02   0
       131    327.3369    613.6257 300.0979129 +22.6507103     5467.588      69.9361      1.220     2.35    -3.934709      19.7311     687.8852        29     1.095     0.931 -86.67   0
       132    449.7396    610.6649 300.1369430 +22.6865876     5118.641     69.97172      1.233     2.24     -3.83989      19.7311     799.2821        28     1.069     0.944  87.01   0
       133    695.7808    606.7305 300.2148032 +22.7592549      181.797     69.95391      1.142     3.01    -4.283701      19.7311      36.8139         5     0.824     0.629  52.39   0
       134    861.4102    604.4175 300.2671544 +22.8082478     1149.886     69.90046      1.142     2.09    -4.141659      19.7311     164.9483        14     0.913     0.740  53.68   0
       135    945.9346    601.7259 300.2943761 +22.8328093     7358.984     69.97172      1.157     1.83    -4.131299      19.7311     1414.562        33     1.056     0.918 -75.56   0
       136    510.2814    600.1731 300.1591904 +22.7017389     6528.333     69.91828      1.254     2.29    -3.636681      19.7311     844.8152        29     1.089     0.939  78.11   0
       137    679.6402    596.0944 300.2132351 +22.7513616     284.4192     69.95391      1.026     2.03     -4.15741      19.7311     53.40219         5     0.697     0.439 -69.01   0
       138    237.7477    595.6290 300.0759145 +22.6186621     878.6495     69.95391      1.334     2.30    -4.127954      19.7311     124.0773        14     0.894     0.864  85.28   0
       139    442.0151    588.3466 300.1417963 +22.6778664     2574.344     69.95391      1.294     2.25    -3.719147      19.7311     356.0211        22     1.100     0.899  81.26   0
       140    784.5654    588.1516 300.2484988 +22.7805406     492.9251     69.97171      1.250     2.13    -3.935626      19.7311     85.22573         8     0.790     0.613 -44.66   0
       141    420.2450    586.8492 300.1355112 +22.6709056     777.6789     69.97171      1.442     2.90    -3.771878      19.7311      93.5629        14     0.965     0.919  20.36   0
       142    174.3539    586.2996 300.0592477 +22.5969593     477.4875     69.95391      1.174     2.87    -4.164454      19.7311     64.09972         8     0.882     0.590 -83.92   0
       143    861.5361    583.7854 300.2739020 +22.8023602     982.3398     69.90046      1.320     2.51    -4.079714      19.7311     128.4826        13     1.080     0.732 -46.25   0
       144    558.5789    575.8835 300.1821176 +22.7092546     119601.5     69.90046      1.297     2.25    -3.565262      19.7311     18027.52       141     1.309     1.272 -60.69   0
       145    381.6721    582.0468 300.1250756 +22.6579549     239.4295     69.91828      1.510     4.61    -3.749493      19.7311     30.46231         5     1.013     0.597  19.10   0
       146    742.0861    580.7697 300.2376659 +22.7656855     380.9407      69.9361      1.136     2.31    -4.004763      19.7311     77.96208        10     0.833     0.724 -80.52   0
       147    244.7332    575.9839 300.0844722 +22.6151242     2034.759     69.91828      1.217     1.94    -4.091062      19.7311     380.7759        20     1.014     0.860 -84.63   0
       148    810.2464    571.7371 300.2618366 +22.7835257     304.3877     69.95391      1.315     3.37     -3.83247      19.7311     49.58632         7     1.034     0.536  64.37   0
       149    449.1915    556.4185 300.1544082 +22.6708576     1505.044     69.90046      1.255     2.58    -3.494992      19.7311     194.5831        17     1.250     0.780 -84.02   0
       150    860.7932    552.6959 300.2837779 +22.7932083     255.4605     69.82913      1.204     4.15    -3.974607      19.7311     29.33206         6     0.749     0.657 -76.31   0
       151    846.2180    542.1650 300.2826591 +22.7858150     912.1718      69.9361      1.200     2.26    -3.862716      19.7311     143.1094        12     0.915     0.786 -48.79   0
       152    717.3322    539.8948 300.2432438 +22.7465275      1515.25     70.07846      1.272     2.35    -3.615539      19.7311     221.8408        18     0.998     0.881  54.05   0
       153    961.8202    537.1038 300.3203384 +22.8190059     418.2674     69.84697      1.370     3.90    -3.994988      19.7311     39.62297         6     0.789     0.552 -56.00   0
       154    504.7191    535.6793 300.1784256 +22.6815615     372.8282     70.06068      1.167     4.76    -3.444793      19.7311     78.17828        10     1.281     0.593  58.35   0
       155    974.6360    533.6767 300.3254483 +22.8218616     659.9276     69.90046      1.143     2.22    -3.965197      19.7311     112.7024        12     0.848     0.783  82.93   0
       156    960.1281    532.7311 300.3212322 +22.8172427     560.9171     70.00732      1.512     3.07    -3.964542      19.7311      58.0514         7     0.738     0.663  -1.97   0
       157    846.5490    532.6295 300.2858619 +22.7831754     1359.923     69.95391      1.288     2.43    -3.834727      19.7311     162.9734        14     0.891     0.866 -69.39   0
       158    599.5242    530.5284 300.2096061 +22.7085151     453.3905     70.02511      1.872     4.28    -3.490121      19.7311     42.69805         6     0.764     0.684 -79.35   2
       159    438.1479    529.3838 300.1597604 +22.6597868     163.8938      69.9361      1.248     4.08    -3.380659      19.7311     34.27682         6     0.931     0.590 -67.22   0
       160    884.4909    527.4310 300.2993765 +22.7930537      2549.19     69.88264      1.185     2.11    -3.896689      19.7311     331.7981        21     1.021     0.861 -88.97   0
       161    976.2779    517.7172 300.3311480 +22.8177682     418.3361     70.04289      0.999     1.98    -3.829113      19.7311     83.37832         5     0.672     0.445 -84.01   0
       162    116.7135    517.8569 300.0635871 +22.5600308     517.8779     70.02511      1.107     2.44    -4.108472      19.7311     86.82356        10     0.935     0.619  78.28   0
       163    109.4455    507.9576 300.0645465 +22.5550105     270.8175     69.98952      1.184     2.32    -4.079482      19.7311     47.23654         6     0.755     0.495 -85.90   0
       164    716.8022    502.2317 300.2553206 +22.7355536     290.3724     69.90046      1.052     2.46    -3.561933      19.7311     63.86509         6     0.942     0.375  12.92   0
       165    658.0346    497.8501 300.2384435 +22.7166770     424.8149     69.95391      1.386     2.07    -3.532189      19.7311     69.73759         8     0.789     0.609  47.26   0
       166    972.6779    490.2609 300.3389495 +22.8088007     314.4576     69.98952      1.109     3.40    -3.598926      19.7311     62.34128         5     0.741     0.452 -78.19   0
       167    718.5071    490.1175 300.2597887 +22.7325858      573.214     70.07846      1.287     2.62    -3.545367      19.7311     83.58825         9     0.885     0.718  42.24   0
       168    875.9814    486.3551 300.3100750 +22.7787039     543.3663     69.95391      1.145     2.24    -3.671908      19.7311     88.65591         9     0.824     0.651  65.44   0
       169    860.0071    482.6690 300.3062943 +22.7728579     412.6965     69.90046      1.309     2.36    -3.654788      19.7311      60.4819         7     0.727     0.623  16.21   0
       170    604.5384    480.8658 300.2273077 +22.6957610     2005.246     69.97171      1.319     2.46    -3.483313      19.7311     295.5437        18     0.962     0.934  51.03   0
       171    965.0025    479.4851 300.3400584 +22.8034048      263.048     69.86481      1.086     2.47    -3.531649      19.7311     39.00638         6     0.753     0.500  -0.25   0
       172   1015.7891    459.5085 300.3623871 +22.8128797       770.17     69.88264      1.173     2.13    -3.061245      19.7311     148.7442        13     1.022     0.695 -61.34   0
       173    887.9466    459.4319 300.3225537 +22.7745548     259.3861     69.95391      1.154     2.76    -3.631589      19.7311     48.91925         8     0.805     0.659  86.91   0
       174    974.0574    458.4441 300.3497196 +22.8000717     550.7195     69.95391      1.090     2.02    -3.319349      19.7311     104.9838         8     0.740     0.641  85.46   0
       175    715.0525    454.7848 300.2701948 +22.7214033     557.0609     69.91828      1.252     3.09    -3.462709      19.7311      89.3527        11     0.994     0.719 -81.61   0
       176    219.1521    453.2630 300.1164056 +22.5722451     371.5351     69.95391      1.289     2.98    -3.847299      19.7311     64.00723         7     0.854     0.551  75.55   0
       177    281.5467    448.8723 300.1372259 +22.5897056     2066.515      69.9361      1.304     2.54    -3.451219      19.7311     290.2181        20     1.102     0.862  78.24   0
       178   1014.4395    446.9082 300.3660608 +22.8088543     2450.966      69.9361      1.128     1.90    -2.866327      19.7311     434.8005        17     0.890     0.828  77.80   0
       179    228.7053    443.6640 300.1224934 +22.5723576     4347.153     70.02511      1.329     2.34    -3.756714      19.7311     623.5595        29     1.146     1.011  81.05   0
       180    994.4827    438.0248 300.3627239 +22.8003229     979.4741     69.90046      1.095     2.18    -2.933128      19.7311     156.2907        12     0.829     0.774  32.18   0
       181    369.5641    437.7708 300.1681998 +22.6129234     2818.374     69.95391      1.313     2.37    -3.191838      19.7311     422.5091        25     1.109     0.992  81.25   0
       182    613.6505    434.3246 300.2452676 +22.6851298     10658.17      69.9361      1.372     2.51    -3.083012      19.7311     1274.701        41     1.200     1.078  85.48   0
       183    631.2612    434.1168 300.2508178 +22.6903497     545.2913     70.02511      1.888     6.69    -3.140564      19.7311     38.79319        10     1.565     0.803 -54.29   0
       184    947.2985    416.6426 300.3549591 +22.7800429     464.9438      69.9361      1.115     2.26    -3.346965      19.7311      86.8918         7     0.824     0.535 -56.20   0
       185    168.4928    414.6751 300.1132000 +22.5459747     1194.342     70.09624      1.277     2.63    -3.604217      19.7311     150.8528        13     0.961     0.794 -85.26   0
       186    554.2945    403.9408 300.2366627 +22.6586100     3876.573     70.00732      1.371     2.57    -2.907545      19.7311     475.1357        27     1.125     1.014  80.24   0
       187    967.8338    403.8945 300.3655036 +22.7825313     671.2758     69.91828      1.136     1.87    -3.055217      19.7311     143.4317         8     0.720     0.646 -26.05   0
       188    268.8546    403.4718 300.1480302 +22.5728710     395.8308      69.9361      1.422     4.35    -3.273331      19.7311     47.80223        10     0.979     0.833 -63.04   0
       189    126.5666    396.5670 300.1060565 +22.5281996     305.6607     70.00732      1.193     3.71     -3.65993      19.7311     45.92453         6     0.975     0.406  71.34   0
       190    758.3043    392.7188 300.3038325 +22.7165397     832.1328     70.07846      1.575     2.93    -3.348758      19.7311     84.98663        12     0.960     0.805 -72.82   0
       191    460.9845    390.2514 300.2120738 +22.6267015     3445.629     69.95391      1.392     2.71    -2.936906      19.7311     390.3588        25     1.124     1.013 -78.23   0
       192    852.9092    384.1640 300.3360888 +22.7424308     863.4738     69.91828      1.299     3.68    -3.647154      19.7311     106.9935        15     1.293     0.758 -69.04   0
       193    950.3705    384.0591 300.3665027 +22.7715995     456.5278     69.95391      1.454     3.21    -3.344897      19.7311      46.8901         8     0.789     0.706  -6.54   0
       194    445.4936    379.2173 300.2108388 +22.6188887     266.1745     69.86481      1.360     3.07    -2.944828      19.7311     45.75312         7     0.975     0.679  72.47   0
       195    825.9507    371.9507 300.3316552 +22.7308441     278.6444     69.97171      1.307     4.20    -3.605553      19.7311     45.41932         8     0.924     0.693   6.91   0
       196    348.5495    369.3503 300.1838915 +22.5869835     1487.062     69.97172      1.389     2.44    -3.057137      19.7311     193.6066        19     1.035     0.949  65.51   0
       197     67.0797    366.9330 300.0972041 +22.5018484     563.8958     70.04289      1.209     2.26    -3.735974      19.7311     87.02872         9     0.767     0.708  75.83   0
       198    317.8476    358.9472 300.1777239 +22.5747893     17311.65     69.97171      1.379     2.51    -3.034093      19.7311      2380.36        50     1.265     1.078  88.62   0
       199    852.2322    356.0782 300.3450011 +22.7341579     754.9958     69.91828      1.303     2.52    -3.680723      19.7311     116.7915        14     1.092     0.834  12.40   0
       200     14.2617    346.9627 300.0872875 +22.4802700     2873.537     69.95391      1.319     2.41    -3.800277      19.7311     395.3883        25     1.117     0.968  84.86   0
       201    192.1844    345.3958 300.1430645 +22.5332061     254.8979     69.81129      1.429     3.52    -3.416941      19.7311     51.40991         5     0.961     0.641  76.61   0
       202    767.6636    345.0126 300.3222446 +22.7056393     281.5527     69.90046      1.124     2.59    -3.147372      19.7311      54.4719         5     0.746     0.410 -67.92   0
       203    416.2128    344.2214 300.2130970 +22.6000619     215.3606     69.91828      1.248     4.37    -2.952432      19.7311     37.05787         7     1.053     0.517 -62.99   0
       204    728.0703    338.5157 300.3120212 +22.6919082     1061.587     70.04289      1.358     2.94    -2.836771      19.7311     134.4312        17     1.106     0.903  81.53   0
       205    943.3925    330.8539 300.3816094 +22.7542179     320.0469      69.9361      1.161     3.23    -3.418817      19.7311     49.47262         7     0.943     0.482  84.58   0
       206    390.0373    323.2902 300.2117531 +22.5862039     1097.219     69.91828      1.439     2.99    -2.996231      19.7311      118.302        18     1.163     0.899  58.14   0
       207    829.2911    315.9202 300.3508948 +22.7157453     360.3906     70.04289      1.313     3.83    -3.384378      19.7311     53.26611         6     0.872     0.577   3.13   0
       208    711.5486    313.3069 300.3150622 +22.6797152     120.1527     70.00732      1.155     3.90    -2.744144      19.7311     27.09567         6     0.947     0.461  -0.55   0
       209    465.7985    302.5798 300.2420458 +22.6029738     718.7803     69.86481      1.494     3.15    -2.999453      19.7311     68.80742        13     0.992     0.868 -55.63   0
       210    710.7413    294.2895 300.3209865 +22.6740098     1273.093     70.02511      1.421     2.83    -2.676455      19.7311     154.0555        17     1.117     0.863  78.57   0
       211    971.8412    288.4593 300.4042474 +22.7505527      1892.09      69.9361      1.209     2.17    -2.987432      19.7311     274.1809        20     0.963     0.910  82.11   0
       212    419.0681    278.4268 300.2353509 +22.5820284     518.4009     69.91828      1.853     3.89    -3.021459      19.7311     50.26425         8     0.919     0.776  38.17   0
       213    124.5520    273.0115 300.1455548 +22.4921470     367.5888     69.95391      1.300     4.32     -3.26565      19.7311      66.6249         8     1.187     0.742  -8.52   0
       214     93.9931    272.6956 300.1361645 +22.4828887     736.1941     69.82913      1.483     3.17    -3.377991      19.7311     101.9766        14     1.155     0.759 -39.13   0
       215    782.6160    255.6081 300.3559358 +22.6844305     322.1195     69.86481      1.282     2.96    -2.792255      19.7311     48.62164         7     0.876     0.559  59.33   0
       216    880.3615    244.6150 300.3899647 +22.7105511     1188.074     69.95391      1.257     2.45    -3.247246      19.7311      159.703        14     0.907     0.860  69.03   0
       217    298.9723    242.4371 300.2096876 +22.5356858     1365.263      69.9361      1.376     2.75    -2.972087      19.7311     154.1974        17     1.056     0.882  86.74   0
       218    377.1398    237.1711 300.2357037 +22.5576120     674.9719     69.95391      1.550     4.06    -3.029146      19.7311     60.54867        13     1.151     0.821  89.94   0
       219    779.2409    236.1987 300.3611858 +22.6778417     309.2253      69.9361      1.411     3.21     -2.72678      19.7311     39.55141         6     0.734     0.636 -31.07   0
       220    193.3405    229.7740 300.1809646 +22.5003724     422.1882      69.9361      1.370     3.62    -3.036771      19.7311     57.38098         9     0.884     0.834  52.74   0
       221    731.5446    226.2580 300.3495545 +22.6606959     986.3691     70.00732      1.356     2.56    -2.342887      19.7311     108.0386        14     0.926     0.848  84.34   0
       222    795.9587    225.7706 300.3697799 +22.6798530     295.4059     69.95391      1.216     3.92    -2.868606      19.7311     50.69118         6     0.766     0.574  38.36   0
       223    215.2972    223.0043 300.1899857 +22.5050145     339.4044     69.84697      1.288     4.24    -3.015771      19.7311      39.8786         7     0.741     0.692  69.00   0
       224   1002.8911    218.4321 300.4366664 +22.7397184     480.0992     69.88264      1.132     2.35     -2.89773      19.7311     84.68133         9     0.813     0.702  22.41   0
       225    735.7278    217.5586 300.3536816 +22.6594493     444.8532     69.91828      1.261     3.87    -2.304294      19.7311     51.06135        10     0.888     0.817  20.55   0
       226    656.0491    216.9270 300.3290714 +22.6353949     784.5119      69.9361      1.442     2.54    -2.662254      19.7311     105.6161        12     0.923     0.792  -6.58   0
       227    851.3859    208.4688 300.3926683 +22.6914826      814.239     69.95391      1.146     2.21    -2.952424      19.7311     123.2219        13     0.963     0.755  41.35   0
       228    582.1499    208.6174 300.3087612 +22.6108631     459.5013      69.9361      1.421     4.34     -2.66244      19.7311      55.5793         9     0.956     0.623  74.95   0
       229    863.4490    207.2567 300.3968214 +22.6947473     431.4518     69.97172      1.240     3.77    -2.977852      19.7311     60.15295         8     0.940     0.588  77.21   0
       230   1023.7578    198.1889 300.4497455 +22.7401454     590.8972     53.90022      0.952     2.15    -2.847028      19.7311     147.7819         7     0.840     0.418  82.70  24
       231    980.2325    197.5836 300.4363683 +22.7269392     640.1696     69.91828      1.156     2.12    -2.981296      19.7311     109.5965        10     0.776     0.750  47.48   0
       232      3.9150    194.8610 300.1334551 +22.4335322     242.6586     66.35284      1.178     3.14    -3.161686      19.7311     41.93709         5     0.621     0.601 -48.52  16
       233    214.5990    191.2519 300.2000749 +22.4956909      453.604     69.90046      1.281     2.85    -2.769596      19.7311     66.10838         7     0.761     0.678  42.94   0
       234     76.3869    185.9804 300.1588436 +22.4527247      1368.76     69.90046      1.350     2.54    -3.086141      19.7311      156.256        16     1.011     0.873  88.07   0
       235     26.0722    182.7746 300.1442578 +22.4367115     324.4586     69.95391      1.517     5.22    -3.071016      19.7311      33.9301         9     1.123     0.687  73.53   0
       236    899.2590    182.4853 300.4160238 +22.6983509     339.3837     70.04289      1.127     2.80    -2.976287      19.7311     56.68653        10     0.919     0.699  87.73   0
       237    233.6933    179.2850 300.2098933 +22.4979816     3308.265     70.11401      1.313     2.54    -2.650704      19.7311     438.5847        22     1.093     0.918  82.15   0
       238     17.8209    173.4468 300.1447227 +22.4315597     821.8569     69.97171      1.506     3.61    -2.999233      19.7311     95.06853        13     1.038     0.851 -69.81   0
       239    216.8436    169.7556 300.2077490 +22.4901933     366.1855     69.97171      1.423     2.51    -2.604263      19.7311     51.14794         6     0.729     0.579 -76.91   0
       240    877.6138    160.4888 300.4164162 +22.6855452     2052.992     69.88264      1.246     2.30     -2.81619      19.7311     276.5279        21     1.029     0.936 -88.90   0
       241    981.2047    159.1311 300.4491523 +22.7161737     1649.218     69.90046      1.237     2.32    -2.944617      19.7311     256.3406        19     1.033     0.896 -74.43   0
       242    427.4260    155.8520 300.2777391 +22.5493347     301.1908     69.95391      1.297     2.72    -2.543941      19.7311     45.82239         6     0.719     0.611  39.50   0
       243    351.8444    147.6261 300.2569003 +22.5243162     344.2748     69.95391      1.466     5.05    -2.445202      19.7311     36.13171         9     1.075     0.672 -68.76   0
       244    478.6407    143.1907 300.2977816 +22.5610481     901.0694      69.9361      1.290     2.82    -2.536576      19.7311     117.0363        14     1.018     0.828 -68.94   0
       245    406.8105    143.9010 300.2752045 +22.5397231     252.1489     69.84697      1.482     3.76    -2.522683      19.7311     37.18513         5     0.797     0.509 -41.76   0
       246    117.4987    144.5019 300.1850747 +22.4531517     276.4544     70.14954      1.133     3.19    -2.817356      19.7311     46.66221         6     0.889     0.420  20.27   0
       247    221.8659    138.5556 300.2194345 +22.4827426     249.5469     69.91828      1.154     3.40    -2.523408      19.7311     35.68142         5     0.768     0.435  22.33   0
       248    252.5822    123.1611 300.2339770 +22.4875326     3458.513     69.95391      1.339     2.60    -2.504244      19.7311     435.2831        25     1.166     0.937 -89.02   0
       249    103.6598    122.7410 300.1878364 +22.4427555     441.5267     70.00732      1.062     2.72    -2.837596      19.7311      58.0848         6     0.829     0.462 -50.77   0
       250    881.6216    120.0374 300.4307928 +22.6751155     226.6256     69.95391      1.211     4.86    -2.706395      19.7311     34.67672         7     1.100     0.609  47.85   0
       251    267.9604    114.4737 300.2415762 +22.4896488     190.3969     69.91828      1.332     3.46    -2.504192      19.7311     41.02477         5     0.784     0.596 -85.36   0
       252    498.5546    108.3975 300.3152679 +22.5570211     3636.574      69.9361      1.450     2.77    -2.525987      19.7311     413.4635        32     1.209     1.096 -63.77   0
       253    383.9128    108.1780 300.2796738 +22.5225999     400.0678     69.86481      1.317     3.43    -2.477892      19.7311     61.06136         8     0.931     0.675   8.64   0
       254    843.9331     96.8176 300.4265806 +22.6571539      390.845     69.91828      2.235     5.44     -2.47666      19.7311     37.01707         8     1.194     0.698  46.23   0
       255    751.1313     97.9263 300.3973053 +22.6296805     505.6116     70.00732      1.439     2.59    -2.149792      19.7311     62.52925         8     0.787     0.664  37.51   0
       256    912.1639     94.7841 300.4485075 +22.6769994     209.5537      69.9361      1.171     3.58    -2.700546      19.7311     30.68376         5     0.745     0.680  53.21   0
       257    626.8972     88.3289 300.3617280 +22.5897089     3581.885     70.04289      1.376     2.65    -2.222147      19.7311     457.6921        26     1.111     1.044 -76.73   0
       258    401.7908     87.4343 300.2919646 +22.5220003     764.6676     69.91828      1.280     2.54    -2.395519      19.7311      118.504        14     0.999     0.825 -68.16   0
       259    668.0204     85.9280 300.3753120 +22.6013379     262.9851      69.9539      1.192     2.63    -2.093542      19.7311     69.89091         9     0.805     0.716 -42.99   0
       260    150.6643     79.5643 300.2164475 +22.4444573     342.6508      69.9361      1.250     2.77    -2.723357      19.7311     59.34168        10     0.891     0.765   6.78   0
       261    953.8527     79.1635 300.4665728 +22.6849885     323.0264     69.95391      1.154     2.06    -2.537431      19.7311     63.25175         6     0.698     0.548 -56.26   0
       262    722.5519     77.0353 300.3951807 +22.6151157     112.9873     69.97171      1.091     3.49    -2.103024      19.7311     37.53125         6     0.914     0.519  16.93   0
       263    671.1913     73.2648 300.3804077 +22.5986482     1570.175     69.91828      1.332     2.74    -2.047795      19.7311     178.4317        20     1.085     0.941  37.39   0
       264    686.5587     72.0158 300.3855987 +22.6028923     566.8464     69.95391      1.830     5.58     -2.05731      19.7311     52.18769        12     1.376     0.853  41.47   0
       265    757.5956     64.6347 300.4101201 +22.6220466     814.0728      69.9361      1.240     2.79    -2.139465      19.7311     115.9807        16     1.032     0.892  82.43   0
       266    695.6528     57.9687 300.3929880 +22.6015786     380.3786     69.95391      1.389     4.33    -2.043364      19.7311      49.8645         8     1.121     0.555  72.26   0
       267    501.2213     57.3522 300.3326581 +22.5431549     528.1477     69.95391      1.261     2.87    -2.115481      19.7311     74.17443         9     0.973     0.589  62.50   0
       268     74.1395     57.3540 300.1998791 +22.4151341      341.858     69.95391      1.390     3.99    -2.369787      19.7311     46.36774         7     0.892     0.571  82.92   0
       269    405.0029     55.2530 300.3034035 +22.5137190     455.2607     69.91828      1.424     2.83    -2.082347      19.7311     57.40841        10     0.918     0.707 -88.69   0
       270    787.0461     53.9843 300.4227505 +22.6278042     287.9413      69.9539      1.316     3.67    -2.152308      19.7311     32.30587         5     0.988     0.393  28.98   0
       271    176.4693     45.5618 300.2354956 +22.4424324     2274.258     69.90046      1.308     2.49    -2.723714      19.7311     292.1295        21     1.127     0.879  76.21   0
       272    744.4836     45.9912 300.4120834 +22.6127603     338.8611     69.88264      1.280     3.33    -2.119723      19.7311     48.73785         8     0.837     0.702  55.88   0
       273    737.2217     37.6464 300.4125281 +22.6081865     481.1276     69.97172      1.237     2.86    -2.116631      19.7311     94.93133        10     0.932     0.768  24.57   0
       274    292.7941     37.6633 300.2742143 +22.4750361     710.6522     69.90046      1.284     3.33    -2.757257      19.7311     107.3285        12     1.076     0.869  66.89   0
       275    703.4711     37.0193 300.4022188 +22.5978984     155.0874     69.97171      1.123     3.73    -2.025244      19.7311     30.36089         6     0.801     0.499 -88.71   0
       276    775.7635     32.9153 300.4260697 +22.6183683     405.7312     69.91828      1.511     3.84    -2.116631      19.7311     49.46057         6     0.926     0.479 -53.85   0
       277    699.1453     32.6108 300.4023014 +22.5953356     257.5486      69.9361      1.091     2.72    -2.007972      19.7311     44.43414         7     0.839     0.568 -83.17   0
       278    795.5128     28.9928 300.4334953 +22.6231543     1162.397     69.84697      1.345     2.75    -2.108612      19.7311     148.8017        17     1.018     0.911  50.35   0
       279    179.1072     24.3897 300.2431823 +22.4371442     641.5238     69.88264      1.361     2.40    -2.717067      19.7311     90.64363         9     0.854     0.707  50.47   0
       280    970.4618     22.1916 300.4902335 +22.6735747     362.6671     69.88264      1.229     3.30    -1.703672      19.7311     58.80572         6     0.717     0.617 -62.79   0
       281    743.9402     21.4989 300.4198586 +22.6055564     436.0421     70.02511      1.268     2.98    -2.113777      19.7311     74.00597         9     0.899     0.685  69.93   0
       282    152.5159    997.5587 299.9186529 +22.7082786     816.2379     69.90046      5.017     7.62     18.43115      19.7311     36.78811        11     1.795     0.905  65.02   2
       283    503.8796   1016.9938 300.0215593 +22.8193741     87.01727     69.86481      1.058     3.65    -5.204319      19.7311     40.21668         5     0.622     0.618  -8.59   0
