#   1 NUMBER                 Running object number                                     
#   2 X_IMAGE                Object position along x                                    [pixel]
#   3 Y_IMAGE                Object position along y                                    [pixel]
#   4 ALPHA_J2000            Right ascension of barycenter (J2000)                      [deg]
#   5 DELTA_J2000            Declination of barycenter (J2000)                          [deg]
#   6 FLUX_APER              Flux vector within fixed circular aperture(s)              [count]
#   7 FLUXERR_APER           RMS error vector for aperture flux(es)                     [count]
#   8 FLUX_RADIUS            Fraction-of-light radii                                    [pixel]
#   9 FWHM_IMAGE             FWHM assuming a gaussian core                              [pixel]
#  10 BACKGROUND             Background at centroid position                            [count]
#  11 THRESHOLD              Detection threshold above background                       [count]
#  12 FLUX_MAX               Peak flux above background                                 [count]
#  13 ISOAREA_IMAGE          Isophotal area above Analysis threshold                    [pixel**2]
#  14 A_IMAGE                Profile RMS along major axis                               [pixel]
#  15 B_IMAGE                Profile RMS along minor axis                               [pixel]
#  16 THETA_IMAGE            Position angle (CCW/x)                                     [deg]
#  17 FLAGS                  Extraction flags                                          
         1    453.8140     15.1324 300.3409087 +22.5071468     1292.271      70.0763      1.570     3.25    -1.768358     19.77065     122.5921        20     1.111     1.037 -78.98   0
         2    101.1085     13.1505 300.2318977 +22.4008379      886.858     70.11199      1.549     2.85    -2.137089     19.77065     114.2043        17     1.068     0.997  85.57   0
         3    251.5266   1020.6570 299.9512406 +22.7349590      353.595     67.77155      1.165     2.71   -0.5889592     19.77065     60.14123         7     0.862     0.523  29.84  16
         4    241.9814   1023.8262 299.9472421 +22.7329992     491.1075     53.58978      3.202     4.67    0.6950696     19.77065     37.12299         8     1.248     0.496  11.61  26
         5    238.9312   1020.3081 299.9474398 +22.7310747       693.69     68.85185      2.985     3.94    0.8000782     19.77065     32.18067         5     1.282     0.347  48.10  19
         6    153.0241   1023.5876 299.9196792 +22.7062011     376.8405     54.97237      2.250     3.89     8.824234     19.77065     25.27257         5     0.881     0.492  -1.74  24
         7    119.5661   1010.4882 299.9135515 +22.6923941     1372.322      70.0406     13.486    15.29     7.017713     19.77065     45.08363        39     2.707     2.402 -48.65  19
         8    101.0463    998.6807 299.9116439 +22.6834463     1470.899     70.05846     11.204    11.46     5.598303     19.77065     52.56496        35     2.162     2.070 -12.15   3
         9    106.1865   1016.7222 299.9073659 +22.6901590     1697.745     70.09415     21.352    30.92     7.920974     19.77065     52.74427       164     6.170     4.303   5.36  27
        10     90.7570    981.2695 299.9141171 +22.6753667     2013.385      70.0406      9.530    17.98     2.622848     19.77065     55.04515        72     3.783     2.373  11.65   3
        11     82.7046    993.9742 299.9074798 +22.6765860      2317.98     70.02274     14.584    48.81     3.150553     19.77065       54.996       449     9.850     6.713 -41.60  19
        12     83.4192   1011.4415 299.9020143 +22.6818041     3041.261     70.09415     15.308    26.13     4.978817     19.77065     62.42276       206     5.616     3.375 -23.62  19
        13    132.3749   1020.6027 299.9142366 +22.6991407     1111.355     67.93745      4.773     5.24     8.437122     19.77065     27.29625         5     1.054     0.736 -59.70  16
        14    568.6313   1017.1293 300.0510122 +22.8291898      858.275      70.0763      1.177     1.72    -5.188032     19.77065     178.8309        14     0.922     0.855  63.31   0
        15    234.8837   1017.5020 299.9470957 +22.7290546     803.0897     70.23676      3.734     4.58     1.111436     19.77065     39.29193         5     1.196     0.499   2.00  17
        16     66.9012   1009.5389 299.8975042 +22.6762948      1503.22     70.14767     11.016    15.05     2.418198     19.77065     48.36477        45     2.954     2.132 -21.13  19
        17    462.3788   1013.8045 300.0190339 +22.7963308      482.975      70.0406      1.072     3.10    -5.310628     19.77065     81.28479         9     0.899     0.684  19.95   0
        18    393.1667   1011.8340 299.9981483 +22.7749792     3785.502     70.14767      1.170     1.89    -5.541139     19.77065     695.3724        25     0.950     0.933 -69.58   0
        19     63.2443   1019.5748 299.8931007 +22.6780701      1028.78     70.09415      7.432    10.64     2.573346     19.77065     39.38092        18     2.637     1.196 -28.66  19
        20     67.7533   1023.3499 299.8932717 +22.6805066     915.5743     56.36544      5.355     8.03     3.670243     19.77065     47.86464        13     3.121     0.578   5.21  27
        21    425.8311    998.7373 300.0125719 +22.7810356     246.0691     70.09415      1.196     2.09    -5.429398     19.77065     47.83178         6     0.710     0.533  54.23   0
        22     88.4989   1022.8713 299.8998701 +22.6866046     1383.014     58.88337     13.661    15.40     7.135728     19.77065     66.05858        69     5.674     1.161   3.26  27
        23    939.3550    990.1583 300.1752695 +22.9327186     1219.974     70.14767      1.034     1.78    -5.178233     19.77065     251.3855        12     0.807     0.716  52.26   0
        24     88.5349   1017.8035 299.9015315 +22.6851638     2984.404     70.09415      5.036    14.65     6.725223     19.77065     63.47353        69     2.603     2.293 -14.39  19
        25    727.5054    978.4836 300.1130604 +22.8657992     287.8149     70.25457      0.968     3.46    -5.213429     19.77065     55.97071         6     0.941     0.472  35.12   0
        26    762.9964    973.4906 300.1257406 +22.8750184     509.8297       69.987      1.044     2.07    -5.185565     19.77065      110.774        10     0.913     0.659  79.70   0
        27    540.3995    974.2109 300.0562017 +22.8084070     330.7095     69.89758      1.234     3.20     -5.16696     19.77065     48.15576         6     0.893     0.588  24.00   0
        28    785.2531    967.1027 300.1347539 +22.8798649     6710.256      70.1655      1.124     1.80    -5.160626     19.77065     1347.145        30     0.982     0.917  32.78   0
        29    830.6851    967.1759 300.1488848 +22.8935189     273.5997      70.0406      0.990     1.64    -5.123543     19.77065     74.23865         5     0.652     0.447 -74.73   0
        30     96.6197    958.9534 299.9232032 +22.6707356     270.7363     70.11199      1.074     1.99    0.4368141     19.77065     64.59972         7     0.671     0.648  87.43   0
        31    490.5020    955.1612 300.0468780 +22.7879630     300.8644     70.05845      1.446     3.22    -5.178668     19.77065     42.96378         5     0.755     0.444 -67.87   0
        32     86.7071    950.3110 299.9229380 +22.6652811     170.5143     70.23676      1.130     3.42    -1.336596     19.77065     46.99866         5     0.765     0.442 -12.82   0
        33    793.8199    949.1132 300.1432800 +22.8772743     806.9992     70.00487      1.079     1.88    -5.150424     19.77065      168.879         8     0.720     0.623  63.22   0
        34    976.8297    947.9839 300.2006856 +22.9318560     250.7763      70.0763      1.057     2.13    -5.261483     19.77065     58.01361         6     0.711     0.537  53.68   0
        35    831.7242    942.6163 300.1572050 +22.8867836     447.8583      70.0763      1.062     2.23     -5.10484     19.77065      83.2906         8     0.818     0.612  -1.09   0
        36    879.9139    933.9744 300.1750357 +22.8987620     271.2482      70.0406      1.282     4.35    -5.051033     19.77065     50.36724         7     1.066     0.506 -30.84   0
        37    731.5361    932.8782 300.1291643 +22.8539259     434.9483      70.1655      1.046     2.18    -5.211464     19.77065     68.49178         8     0.749     0.645  14.63   0
        38    444.2124    929.4841 300.0408368 +22.7667016     2351.437     70.02274      1.141     2.10    -5.149403     19.77065     331.7443        19     0.950     0.892  56.37   0
        39    742.8528    930.0410 300.1336127 +22.8565080     155.9814      70.0763      0.973     2.67    -5.208236     19.77065     73.23113         6     0.867     0.527 -26.75   0
        40    813.9318    918.7311 300.1594373 +22.8745913     3395.274     70.12983      1.007     3.05    -5.122257     19.77065      833.599         9     1.001     0.385 -35.31   3
        41    817.9478    916.0522 300.1615607 +22.8750276     3449.754     70.11199      1.635     6.02    -5.116034     19.77065     462.1877        20     2.138     0.477 -44.18   3
        42    169.4394    915.1681 299.9600766 +22.6800701     451.6605     70.11199      1.046     3.06    -3.806913     19.77065     85.93463        10     0.961     0.748  84.86   0
        43    146.7395    912.4603 299.9539058 +22.6724744     895.9402     70.11199      1.113     2.00    -3.735779     19.77065     161.5141        12     0.848     0.732  60.46   0
        44   1018.2292    900.8636 300.2289354 +22.9307465     1206.946     70.09415      1.076     1.72    -5.131111     19.77065     260.6159        12     0.768     0.758  28.89   0
        45    972.5372    899.2936 300.2151988 +22.9165920     1222.026      70.1655      1.042     2.04    -5.004976     19.77065     191.3499        14     0.838     0.793  60.94   0
        46    180.1935    893.8927 299.9703426 +22.6772041     849.2288       69.987      1.105     2.73    -4.251436     19.77065     339.6637        10     1.142     0.576 -18.78   0
        47    756.2161    893.2966 300.1497365 +22.8499755     321.9163       69.987      1.184     2.03    -5.174169     19.77065     72.68721         6     0.672     0.612 -41.28   0
        48    624.1912    887.4134 300.1105386 +22.8086670     2587.551     69.96912      1.173     2.12    -4.941751     19.77065     390.0935        20     0.984     0.850  63.89   0
        49    113.6633    888.2037 299.9515260 +22.6555866     306.3562     70.05846      1.060     2.31    -4.161392     19.77065     44.97928         5     0.708     0.448 -74.14   0
        50    426.6295    884.7521 300.0499280 +22.7485965     342.8666     70.09415      1.109     2.78    -4.855099     19.77065     55.82446         5     0.731     0.442  70.44   0
        51    174.6494    881.5867 299.9726251 +22.6720121     751.0305     70.11199      1.223     2.30    -4.370924     19.77065     108.8218        12     0.906     0.767 -42.79   0
        52    644.8288    879.6878 300.1194782 +22.8126448     461.5942      70.0763      1.011     1.75    -4.936537     19.77065     85.23707         7     0.666     0.591   7.66   0
        53    443.0041    878.7220 300.0569840 +22.7517839     44.46724       69.987      1.098     3.53    -4.834528     19.77065      37.6177         5     0.801     0.580 -89.44   0
        54    193.1995    878.7926 299.9792982 +22.6767837     438.8619     69.89758      1.609     3.60    -4.532937     19.77065     48.14197         6     0.910     0.506 -32.37   0
        55    800.1293    867.0861 300.1719478 +22.8556299     2526.381     70.18332      1.168     1.98    -5.142704     19.77065     421.3905        20     0.967     0.839  38.55   0
        56   1017.1784    866.9976 300.2396314 +22.9207084     677.1744     70.02274      1.143     1.86    -4.765059     19.77065     136.0361        11     0.802     0.744  40.10   0
        57    208.6761    861.6694 299.9896798 +22.6765251     284.7256     70.14767      1.147     3.41    -4.721654     19.77065     50.92096         5     0.761     0.442  75.61   0
        58    517.2877    859.7745 300.0862614 +22.7686511     395.2574     70.02274      1.180     2.75    -4.771347     19.77065     58.89849         5     0.762     0.494 -42.43   0
        59    163.6807    857.9292 299.9769162 +22.6619373     545.6674     70.18332      1.122     2.67    -4.587252     19.77065      93.7055         9     0.904     0.657 -28.73   0
        60    578.8497    852.9892 300.1076284 +22.7851836     388.5742     70.09415      1.416     1.99    -4.752175     19.77065     64.55988         5     0.744     0.449  25.80   0
        61    313.3351    849.9704 300.0260167 +22.7046044     30603.85     70.09415      1.249     2.17    -4.715367     19.77065     4354.165        63     1.162     1.090  55.57   0
        62    571.2361    848.7670 300.1066327 +22.7816873     1031.546     70.09415      1.373     2.65    -4.733485     19.77065     135.4272        15     1.049     0.851  -0.58   0
        63    983.9628    847.7154 300.2355496 +22.9052114     481.5548     70.05845      1.030     1.80    -4.660392     19.77065     110.0192         7     0.660     0.620  74.71   0
        64    241.7423    848.1688 300.0043491 +22.6825871     270.3452     70.09415      0.966     2.49    -4.752378     19.77065      54.1184         5     0.865     0.350  44.23   0
        65    600.0952    844.9312 300.1168638 +22.7892486     611.4138     70.20114      1.319     2.24    -4.733399     19.77065     80.63872         9     0.754     0.720 -55.44   0
        66    611.1797    842.9934 300.1209449 +22.7920194     347.3635     70.05845      1.188     3.19    -4.733737     19.77065      55.2391         7     0.741     0.670 -34.61   0
        67    931.1589    840.3208 300.2214934 +22.8872523     275.7212     70.05845      1.376     2.55     -4.59382     19.77065     53.40356         5     0.891     0.360 -85.59   0
        68    716.3096    839.1879 300.1549176 +22.8224755     256.6336     70.02274      1.249     3.77    -4.898139     19.77065     42.47932         5     0.897     0.454  42.07   0
        69    753.7435    830.0615 300.1695470 +22.8310881     426.8006     70.14767      1.261     3.99    -4.853328     19.77065     75.25058        10     1.150     0.637 -53.34   0
        70    363.0380    827.1782 300.0488872 +22.7129945     18036.47     70.09415      1.266     2.25    -4.538898     19.77065       2716.4        46     1.126     1.043  64.57   0
        71    377.4239    827.6335 300.0532127 +22.7174444     1185.182     70.09415      1.329     2.21    -4.491745     19.77065     145.4787        14     0.938     0.807 -10.61   0
        72    885.9471    822.7525 300.2131180 +22.8686487     1579.215     70.11199      1.149     1.94    -4.559317     19.77065     303.5406        16     0.925     0.796 -89.87   0
        73    374.3419    821.7684 300.0541627 +22.7148373     442.1737     70.09415      1.173     2.15    -4.458343     19.77065     60.07143         6     0.672     0.604  28.85   0
        74    245.3555    819.1558 300.0149125 +22.6753556     626.0863     70.11199      1.578     3.39    -4.696921     19.77065     65.00475        10     0.910     0.869 -55.10   0
        75    643.8402    818.7795 300.1389922 +22.7948740     402.9292     70.11199      1.085     2.40    -4.635886     19.77065     101.5794         8     0.855     0.609  68.45   0
        76     50.1492    814.7615 299.9556984 +22.6154605     334.9273      70.0763      1.304     3.78    -5.022695     19.77065     45.80345         6     0.791     0.520 -37.10   0
        77    491.1517    813.9023 300.0930565 +22.7476489     467.0691     70.11199      1.108     3.01    -4.503623     19.77065     78.34609         8     0.849     0.679  25.58   0
        78    892.1947    810.7109 300.2189836 +22.8670658     262.2889       69.987      1.119     2.45    -4.444799     19.77065     58.70946         6     0.733     0.538 -58.83   0
        79    349.1866    809.5954 300.0503012 +22.7037939     248.6612     69.95125      1.291     3.37    -4.472927     19.77065     35.32547         5     0.747     0.441 -20.98   0
        80     78.2460    808.4818 299.9664670 +22.6221020      317.883     70.05846      1.342     2.40    -4.801756     19.77065     52.64688         6     0.676     0.626 -87.65   0
        81    536.2596    791.6398 300.1143360 +22.7548023     298.3009      70.0763      1.178     2.69    -4.424447     19.77065      52.6728         7     0.869     0.532 -63.11   0
        82    558.0382    789.3076 300.1218726 +22.7606695     865.1479      70.0763      1.365     2.35     -4.43182     19.77065      116.078        13     0.888     0.848  38.48   0
        83    952.3112    787.9506 300.2451294 +22.8785603     2721.672      70.0763      1.159     1.97    -4.379521     19.77065     474.1627        19     0.922     0.857  77.17   0
        84    940.8697    779.4485 300.2443287 +22.8726881     1001.985      70.0763      1.151     2.34    -4.327637     19.77065     145.8595        13     0.873     0.782  85.03   0
        85    303.8680    773.7549 300.0478714 +22.6799101     509.7064     70.05845      1.274     2.79    -4.222573     19.77065     67.98803        11     0.918     0.778  56.01   0
        86    766.8564    770.8053 300.1929124 +22.8180156     1475.221      70.0406      1.267     2.41    -4.216084     19.77065      208.115        16     0.968     0.876   2.34   0
        87    971.8197    769.4583 300.2572284 +22.8791003     966.3305     70.05845      1.100     1.95    -4.477373     19.77065     166.4326        13     0.881     0.797 -52.81   0
        88    152.9505    757.6140 300.0062199 +22.6299624     280.8462     70.11199      1.168     2.66    -4.596856     19.77065     49.92044         6     0.754     0.486  -2.91   0
        89    885.5721    747.6757 300.2374285 +22.8469828     86046.45      70.0763      1.186     2.11    -4.043815     19.77065     12610.61       116     1.250     1.151  75.61   0
        90    737.7285    747.8443 300.1913089 +22.8026876      358.091      70.0406      1.208     2.88    -3.963894     19.77065     62.08799         9     0.848     0.748  24.24   0
        91    918.1901    740.5364 300.2499180 +22.8547143     284.3355     70.02274      1.051     3.43    -4.104021     19.77065     39.41844         5     0.759     0.449 -20.86   0
        92    571.9279    736.7376 300.1432975 +22.7497554     886.8176     70.11199      1.391     2.78    -4.051522     19.77065     113.1303        12     0.955     0.785  89.82   0
        93    753.0449    733.9150 300.2006109 +22.8032840     5371.379     70.05845      1.287     2.32    -3.837644     19.77065     779.1969        27     1.019     1.002  25.85   0
        94    254.7604    729.4070 300.0470318 +22.6524493     2952.268     70.11199      1.291     2.27    -4.331913     19.77065     400.0136        24     1.091     0.951  65.40   0
        95    336.8271    727.4669 300.0731752 +22.6765323     724.3856     70.05845      1.334     2.93     -3.97419     19.77065      83.0711        10     0.921     0.694 -89.77   0
        96    212.4374    724.8778 300.0353514 +22.6384423     322.8553     70.05845      1.316     3.18     -4.61306     19.77065     47.87469         5     0.838     0.562  45.08   0
        97    545.2090    722.9651 300.1394615 +22.7377861     621.8133     70.05845      1.618     3.30    -4.010776     19.77065     67.12454        13     1.028     0.866  68.26   0
        98    536.4787    714.8076 300.1393978 +22.7328257     1824.731     70.00487      1.362     2.70    -3.985402     19.77065     238.9842        19     1.095     0.924  28.65   0
        99    526.9083    708.5761 300.1384463 +22.7281659     759.1239     70.00487      1.366     2.89    -3.973051     19.77065     115.7421        15     1.000     0.923  67.32   0
       100    204.6036    703.3534 300.0399172 +22.6299187     382.4202     70.05846      1.493     2.42    -4.388024     19.77065     55.61356         6     0.803     0.475   4.36   0
       101    230.2784    700.0164 300.0489814 +22.6366712      234.782      70.0763      1.115     3.43    -4.350618     19.77065     44.83915         6     0.895     0.444  53.06   0
       102    973.6822    699.5670 300.2805449 +22.8595877     355.4934      70.0406      1.268     3.26    -4.213299     19.77065     39.35471         5     0.719     0.460  19.36   0
       103    451.5645    698.4151 300.1183084 +22.7026398     1041.182      70.0763      1.360     2.60     -3.98807     19.77065     124.0395        15     0.982     0.853 -52.74   0
       104    551.1951    698.5811 300.1492552 +22.7325860     282.5424      70.0406      1.175     3.32    -3.909054     19.77065     33.04515         5     0.735     0.452 -19.84   0
       105    105.7038    693.6411 300.0123491 +22.5974348     11437.86      70.0763      1.278     2.26    -4.299645     19.77065     1656.932        40     1.146     1.039  68.50   0
       106     26.5010    695.3236 299.9872045 +22.5741286     432.1473     70.21896      1.369     2.97    -4.265192     19.77065     54.45116         7     0.905     0.498 -86.28   0
       107    536.8273    693.4451 300.1464541 +22.7268010     363.3844     70.09415      1.121     2.30     -3.90886     19.77065     79.28828         9     0.825     0.660  58.21   0
       108    954.4623    679.5875 300.2810504 +22.8480875     697.7849      70.0406      1.261     3.35    -4.069723     19.77065     90.22004        14     1.106     0.885 -51.87   0
       109     51.6596    677.7291 300.0007382 +22.5766422     946.4088     70.11199      1.697     4.93    -4.201796     19.77065      92.0561        18     1.541     0.772  86.66   0
       110    821.4781    677.9965 300.2401186 +22.8077558     285.4628       69.987      1.386     5.22    -4.085618     19.77065     36.65564         8     1.052     0.730  59.28   0
       111    499.9245    674.4556 300.1411461 +22.7102789     375.6597     70.09415      1.370     5.17    -3.940317     19.77065     40.40571         9     0.950     0.795  19.58   0
       112    894.7065    672.4233 300.2647524 +22.8281140     363.9545     70.00487      1.166     2.66    -4.120939     19.77065     52.00256         5     0.695     0.469 -17.48   0
       113    456.3226    666.7115 300.1300986 +22.6949725     427.0214     70.21896      1.375     5.01    -3.969839     19.77065     48.22257         9     1.117     0.698 -73.20   0
       114    605.1801    665.0461 300.1769646 +22.7391602     150.0433     70.11199      1.027     3.90    -3.654373     19.77065     27.38055         6     0.940     0.463 -52.03   0
       115    652.1508    663.8428 300.1919793 +22.7529058     325.1747     70.11199      1.348     3.46    -3.703569     19.77065     40.35064         5     1.096     0.316  80.77   0
       116    622.7323    663.4287 300.1829547 +22.7439617     267.4174      70.0763      1.172     2.97    -3.659548     19.77065     48.90397         5     0.789     0.588 -47.79   0
       117    500.9785    662.4155 300.1453893 +22.7071406     581.9581     70.05846      1.496     3.30    -3.881662     19.77065     60.88823         9     1.064     0.618 -43.25   0
       118    934.4401    657.6901 300.2819295 +22.8357958     1953.903      70.0763      1.205     2.22    -4.053193     19.77065     255.5253        18     0.936     0.896  67.06   0
       119    466.2825    657.8944 300.1360643 +22.6954318     1005.254     70.23676      1.282     2.58    -3.931497     19.77065     134.4223        14     0.925     0.890  71.75   0
       120     28.3325    651.8469 300.0019100 +22.5622173     2941.281     70.05845      1.267     2.38    -4.176328     19.77065     378.4781        22     1.038     0.929  78.47   0
       121    973.4705    647.2807 300.2974833 +22.8445069     244.6038     70.18332      1.367     3.36    -3.855999     19.77065     37.39268         5     0.773     0.423  65.74   0
       122    329.8041    644.8232 300.0978670 +22.6507214     5356.371      70.0406      1.438     2.78    -3.950387     19.77065     614.5576        32     1.156     1.111  89.80   0
       123    452.2664    641.7457 300.1369547 +22.6865926     5278.067     70.12983      1.426     2.64    -3.895441     19.77065     615.3859        32     1.209     1.082  69.57   0
       124    863.6773    635.3262 300.2671448 +22.8081572     1028.057     70.18332      1.283     2.35    -3.991731     19.77065     141.9058        16     0.996     0.851  63.49   0
       125    948.4212    632.7610 300.2943946 +22.8328272     7258.359     70.11199      1.266     2.23    -3.904913     19.77065     993.6653        38     1.117     1.064 -72.98   0
       126    512.7750    631.3189 300.1591712 +22.7017573     6596.272     70.05846      1.417     2.78     -3.69171     19.77065     733.1588        30     1.134     1.083  40.84   0
       127    682.2953    627.3869 300.2132201 +22.7514836     376.6309     70.00487      1.282     4.63    -3.592618     19.77065     45.72443         8     1.134     0.535 -68.17   0
       128    240.4045    626.9881 300.0758743 +22.6187698     901.9186     69.95125      1.457     3.00     -4.06408     19.77065     98.41141        14     1.044     0.819  62.71   0
       129    444.4644    619.5707 300.1417373 +22.6778889     2453.412     70.09415      1.449     2.81    -3.853895     19.77065     271.0167        25     1.120     1.071  76.97   0
       130    787.2725    619.4287 300.2485058 +22.7806820     446.4754      70.0763      1.396     4.09    -3.788553     19.77065     50.63036        10     0.962     0.916  22.35   0
       131    422.8740    618.0194 300.1355255 +22.6709649     699.8307      70.0763      1.445     2.99    -3.917367     19.77065     82.90834        12     0.934     0.853 -80.86   0
       132    177.0009    617.3893 300.0592914 +22.5969821     382.5824     69.89758      1.346     4.16    -4.184921     19.77065     46.83289         9     0.914     0.699  62.46   0
       133    864.0998    614.7359 300.2739713 +22.8023708     889.5699      70.1655      1.460     3.30    -3.922193     19.77065     96.56763        15     1.131     0.809 -29.10   0
       134    744.6890    611.6335 300.2377745 +22.7656738     493.2113      70.0406      1.439     3.11    -3.688789     19.77065     62.23351        10     0.884     0.798 -40.80   0
       135    561.0269    606.9830 300.1820998 +22.7092501     116870.3     70.09415      1.444     2.90    -3.474989     19.77065     11400.65       145     1.416     1.388 -61.41   0
       136    247.2620    607.1594 300.0844520 +22.6151416     2047.058     70.05845      1.400     2.72    -4.036413     19.77065     253.1201        23     1.130     1.004  65.21   0
       137    813.3463    603.0832 300.2619439 +22.7838069     367.6968     70.11199      1.311     3.35    -3.783028     19.77065     36.03361         5     0.763     0.426  70.51   0
       138    451.8161    587.5453 300.1544355 +22.6709058     1681.306      70.0406      1.615     3.09    -3.714901     19.77065     163.5015        24     1.451     0.980  85.94   0
       139    848.6165    573.1627 300.2826615 +22.7857891      1000.43      70.0763      1.350     2.79    -3.755037     19.77065     132.1924        14     1.006     0.873  51.85   0
       140    719.6492    570.9625 300.2431970 +22.7464873     1548.088     70.09415      1.420     2.79    -3.542927     19.77065     195.7685        20     1.212     0.983  29.71   0
       141    963.7997    567.9833 300.3202497 +22.8188295     294.0911     69.96912      1.433     2.87    -3.509988     19.77065     37.26134         5     0.797     0.479  38.13   0
       142    929.4831    568.0458 300.3095304 +22.8085613     355.7846      70.0406      1.994     4.16    -3.737288     19.77065     30.97577         5     1.125     0.438 -25.98   0
       143    507.3440    566.8062 300.1784536 +22.6816144     373.1354     70.05845      1.422     4.28    -3.512947     19.77065       50.223        11     1.101     0.809  72.69   0
       144    977.0867    564.6928 300.3254623 +22.8218666     678.2343     70.23676      1.276     2.71    -3.406991     19.77065     102.9071        14     1.020     0.815   8.10   0
       145    962.6989    563.9318 300.3212235 +22.8173356     405.6546      70.1655      1.420     2.64    -3.494214     19.77065     46.12028         7     0.721     0.650 -75.86   0
       146    848.8812    563.4195 300.2859112 +22.7830701     1240.925     70.05845      1.391     2.75     -3.72331     19.77065     154.5961        15     1.129     0.790  85.49   0
       147    886.9471    558.3798 300.2994132 +22.7930341     2506.571     70.05846      1.337     2.51    -3.701931     19.77065     313.2856        19     1.034     0.919  34.49   0
       148    119.3342    549.3459 300.0634925 +22.5601568      666.944     70.11199      1.428     2.68    -4.158773     19.77065     78.90779        11     0.926     0.774  12.52   0
       149    978.7913    548.7325 300.3311817 +22.8177921     424.1856      70.0763      1.262     2.77    -3.293265     19.77065     67.68255         7     0.886     0.542  58.95   0
       150    660.3922    528.9617 300.2383946 +22.7166577     480.9924     70.09415      1.441     3.01    -3.337971     19.77065     49.14579         9     0.859     0.700  27.19   0
       151    975.1394    520.9424 300.3390756 +22.8087133     225.5733     70.14767      1.165     3.68    -3.214138     19.77065     37.93872         6     0.758     0.570 -48.70   0
       152    721.2905    521.0519 300.2599306 +22.7326481     544.0164     70.09415      1.473     3.27    -3.434324     19.77065     64.80058         8     0.846     0.707  69.78   0
       153    878.3743    517.2657 300.3101044 +22.7786544      620.472     70.05846      1.328     3.41    -3.577711     19.77065     66.08784        12     1.010     0.841 -84.50   0
       154    862.6903    513.5737 300.3064160 +22.7728925     263.2633     70.02274      1.261     4.96    -3.571565     19.77065     34.41765         7     1.007     0.691 -41.56   0
       155    607.0349    511.9116 300.2273231 +22.6957606      1767.43     70.05845      1.516     3.13    -3.213292     19.77065     160.3612        22     1.165     1.050  48.96   0
       156    967.2568    510.1750 300.3401172 +22.8032573     352.0296      70.0763      1.547     3.43    -3.241683     19.77065     39.86231         5     0.974     0.350 -43.81   0
       157    654.4070    503.3522 300.2448537 +22.7075098     1411.701      70.0763      0.784     1.27    -3.148432     19.77065     491.9836         5     0.586     0.436 -30.00   0
       158   1017.9893    490.5828 300.3623045 +22.8128306     762.4009      70.0406      1.279     2.66    -2.736517     19.77065      105.944        12     0.952     0.739  54.93  16
       159    889.9672    490.7300 300.3223414 +22.7745063     381.5563      70.0763      1.564     4.19    -3.508484     19.77065     40.94164         9     1.115     0.590  -7.16   0
       160    976.5834    489.2641 300.3498209 +22.8000440     597.0543     70.05846      1.359     3.41    -3.084617     19.77065     71.16171        12     0.955     0.878 -87.38   0
       161    717.7654    485.5994 300.2703537 +22.7214103     580.6314      70.0406      1.508     3.61    -3.336067     19.77065     62.14097        11     0.985     0.878  53.62   0
       162    221.5720    484.2368 300.1164172 +22.5721719     386.6803     70.09415      1.521     3.83    -3.098902     19.77065     45.84439         7     0.931     0.744  41.15   0
       163    284.0987    479.9537 300.1372442 +22.5897078     2138.583     70.11199      1.490     2.91    -2.916079     19.77065     215.8511        26     1.201     1.073 -54.91   0
       164   1016.8790    477.9418 300.3660661 +22.8088653     2556.137     70.11199      1.309     2.23    -2.709301     19.77065     366.1104        21     1.002     0.926  77.49   0
       165    231.3311    474.7859 300.1225210 +22.5723896     4275.727     70.09415      1.428     2.69    -3.042776     19.77065     517.2418        30     1.200     1.088 -89.78   0
       166    371.9822    468.9130 300.1681575 +22.6129098     2675.815     70.02274      1.470     3.05     -2.74245     19.77065     265.8607        24     1.149     1.082  52.50   0
       167    996.9160    468.9766 300.3627537 +22.8003072     1033.924      70.0406      1.283     2.66    -2.879453     19.77065     145.4671        12     0.865     0.807  -6.92   0
       168    616.1442    465.5191 300.2452340 +22.6851727     10609.42     70.11199      1.576     3.18    -2.992191     19.77065     964.4732        48     1.317     1.250  77.03   0
       169    634.0555    465.6079 300.2507816 +22.6905693     451.4286      70.0763      1.866     4.91     -3.00283     19.77065     36.29686         8     1.252     0.544 -37.35   0
       170    949.8447    447.9749 300.3549002 +22.7801671     394.2124     70.09415      1.345     4.82    -3.094048     19.77065      43.4169         9     1.063     0.696 -78.72   0
       171    171.1626    445.8659 300.1132185 +22.5460354     1113.009     70.05845      1.401     2.86    -3.024318     19.77065     135.3255        17     1.081     0.875  77.58   0
       172    556.6995    434.9167 300.2366720 +22.6585594     3807.635     70.23676      1.610     3.23    -2.950241     19.77065     358.8029        35     1.356     1.163  59.18   0
       173    970.4125    435.1258 300.3654878 +22.7826379     708.1533     70.09415      1.348     2.55    -2.957908     19.77065     104.2384        11     0.942     0.811  24.46   0
       174    271.4633    435.4506 300.1477746 +22.5731473     332.9733     70.12983      1.392     4.54    -2.932736     19.77065     41.24786         7     1.138     0.637 -34.86   0
       175    129.4756    427.8065 300.1061330 +22.5283431     290.2764     70.00487      1.476     4.38    -3.082212     19.77065     28.78003         6     1.111     0.491  84.87   0
       176    670.9477    425.3015 300.2753642 +22.6900566     418.4358      70.1655      1.623     3.97     -3.12487     19.77065     35.99325         8     0.975     0.593 -63.80   0
       177    761.1493    423.7112 300.3039755 +22.7166416     634.8143      70.0763      1.552     3.31    -3.184633     19.77065     72.11931        12     0.954     0.871  31.04   0
       178    463.4519    421.3477 300.2120627 +22.6266972     3514.467     70.11199      1.546     3.13    -2.825703     19.77065       350.11        28     1.215     1.116  82.60   0
       179    952.6650    415.3781 300.3663698 +22.7716451     293.3615     70.05846      1.460     3.57    -2.902465     19.77065     47.83609         7     0.891     0.588  66.62   0
       180    855.3271    415.3359 300.3360412 +22.7424637      813.137     70.11199      1.451     3.13    -3.177128     19.77065     77.39839        15     1.017     0.924 -83.28   0
       181    448.0966    410.1265 300.2109305 +22.6188703     397.3411     70.20114      1.690     4.39    -2.756836     19.77065     34.70945         5     0.848     0.647  43.52   0
       182    828.4825    402.8576 300.3317290 +22.7308331     227.1512     70.14767      1.253     4.60    -3.140965     19.77065     35.00947         6     1.072     0.583  62.40   0
       183    351.0709    400.5083 300.1838762 +22.5870047     1387.836     70.21896      1.575     3.42    -2.781398     19.77065     133.1216        18     1.084     1.017  79.81   0
       184     69.3795    398.2737 300.0970581 +22.5018340     579.0436      70.0763      1.327     2.98    -3.028548     19.77065     91.46363        11     1.006     0.757  60.35   0
       185    320.3388    390.0665 300.1777115 +22.5747883     16943.53     70.11199      1.534     2.92     -2.90515     19.77065     1820.236        54     1.331     1.247  80.79   0
       186    854.9679    387.0494 300.3451178 +22.7342287     846.1983     70.11199      1.517     3.75    -3.121583     19.77065     85.38142        17     1.216     0.921  -2.83   0
       187     16.7292    377.9955 300.0872932 +22.4802138     2722.399     70.02274      1.344     2.47    -2.930868     19.77065     382.7715        24     1.089     0.993 -84.97   0
       188    730.7659    369.4149 300.3121477 +22.6919371     1112.478     70.05846      1.553     3.55    -3.035984     19.77065     102.3051        18     1.093     1.057 -27.30   0
       189    945.7242    362.0524 300.3815273 +22.7542403     440.6395      70.0763      1.414     5.16    -2.887467     19.77065     45.47704         9     1.225     0.614 -55.19   0
       190    392.6153    354.3597 300.2117846 +22.5862207     1307.007     70.09415      1.738     3.73    -2.907315     19.77065     113.3385        20     1.318     0.970  70.92   0
       191    831.6414    346.8286 300.3509117 +22.7156814     324.2377     70.09415      1.543     4.94      -3.0574     19.77065     32.46981         6     1.037     0.666  72.13   0
       192    713.8853    345.0841 300.3147917 +22.6798878      284.302     70.18332      1.877     5.29    -2.990303     19.77065     30.34484         5     1.366     0.579 -12.26   0
       193    468.0692    333.5794 300.2420051 +22.6028845     596.5677     70.05845      1.590     3.78     -2.57887     19.77065     64.87469        14     1.119     0.955  39.92   0
       194    713.1201    325.3247 300.3209701 +22.6739820     1295.186     70.18332      1.569     3.39     -2.97808     19.77065     113.8409        20     1.167     1.032   1.75   0
       195    974.2945    319.4929 300.4042572 +22.7505670     1801.743     70.23676      1.350     2.53    -2.954478     19.77065     217.7213        20     1.019     0.988  -1.54   0
       196    421.7565    309.6505 300.2353671 +22.5821254     340.0511     70.11199      1.631     5.25     -2.94604     19.77065     31.65545         7     0.934     0.833 -53.70   0
       197    127.6637    304.2202 300.1457047 +22.4923441     338.4857     70.05846      1.482     3.47    -2.986439     19.77065      39.7651         5     1.137     0.306  54.11   0
       198     96.4993    303.8850 300.1361323 +22.4828962     771.6365     70.23676      1.552     3.28    -2.978601     19.77065     77.15157        14     1.085     0.869 -66.71   0
       199    990.4259    299.9337 300.4156387 +22.7497768      166.924     70.05845      1.063     3.15    -2.990267     19.77065     36.93996         6     0.776     0.492  85.50   0
       200    180.7478    296.3298 300.1647601 +22.5060078     241.9262     70.05846      1.263     3.42    -2.985278     19.77065     33.99694         5     1.452     0.233  16.54   0
       201    784.2437    286.7542 300.3556502 +22.6842157     423.7141     70.11199      1.578     2.62    -3.048784     19.77065     38.51563         6     0.718     0.567 -43.60   0
       202    882.8850    275.7231 300.3899715 +22.7106015     1208.963     70.18332      1.474     2.49    -3.047493     19.77065     154.8226        19     1.099     1.002  87.57   0
       203    301.4862    273.5108 300.2096972 +22.5356787     1285.294     70.23676      1.649     3.76    -2.990287     19.77065     118.5509        21     1.293     1.053 -80.13   0
       204    379.4027    268.2587 300.2356315 +22.5575397     429.2086      70.0406      1.472     4.10    -3.008979     19.77065     54.06368        10     1.189     0.709  88.49   0
       205    196.3279    260.6079 300.1811983 +22.5004306     436.6762     70.05846      1.437     3.99    -2.756722     19.77065     40.42582         8     0.934     0.640 -17.97   0
       206    733.8982    257.2811 300.3495346 +22.6606597     1001.595     70.20114      1.655     4.27    -2.941998     19.77065     76.06216        19     1.197     1.138  11.54   0
       207    798.7991    256.9637 300.3698570 +22.6800165     299.7847      70.0763      1.451     3.24     -3.01717     19.77065     36.54927         5     0.805     0.483  31.86   0
       208    217.7019    253.7999 300.1900510 +22.5048887     323.5787     69.95125      1.459     4.18     -2.70467     19.77065     33.32797         6     0.766     0.651 -20.51   0
       209   1005.2957    249.5996 300.4366180 +22.7397600     599.3992     69.95125      1.566     2.56    -3.011134     19.77065     69.47037         9     0.841     0.698  16.06   0
       210    737.9246    248.7917 300.3535448 +22.6594270     327.4701     70.05846      1.357     4.61    -2.939912     19.77065     40.88768         7     0.957     0.631 -75.37   0
       211    658.4848    248.0334 300.3290494 +22.6354016     742.3929      70.0406      1.731     5.13    -2.952125     19.77065     64.63362        16     1.213     1.082  75.49   0
       212    853.9451    239.5223 300.3927038 +22.6915263     945.8855     70.11199      1.498     2.86    -2.971254     19.77065     105.5566        15     0.969     0.927  11.59   0
       213    584.8764    239.7084 300.3088340 +22.6109470     506.9239     70.21896      1.597     5.85    -2.801906     19.77065     43.26898        13     1.134     0.960   5.26   0
       214    866.1741    238.3837 300.3968848 +22.6948627     475.9654     70.09415      1.438     3.97    -2.964659     19.77065     44.62548        11     1.008     0.796  29.07   0
       215    982.6815    228.5127 300.4364110 +22.7269242     593.7227     70.20114      1.342     2.96    -3.010542     19.77065     88.22549        13     1.007     0.824  -8.80   0
       216      6.6342    226.4943 300.1333443 +22.4337253      180.048     70.05846      1.121     4.20    -2.343769     19.77065     26.80524         6     1.066     0.472  54.72  16
       217    217.2617    222.1541 300.2001858 +22.4956735     328.7909     70.09415      1.412     2.29    -2.480074     19.77065      49.0202         7     0.722     0.627  85.65   0
       218     78.7263    216.9867 300.1588191 +22.4526296     1210.037     70.09415      1.419     2.77    -2.438843     19.77065      155.852        17     1.136     0.932 -77.89   0
       219    901.7507    213.7790 300.4159608 +22.6984475     349.3468      70.0763      1.490     3.84    -2.954836     19.77065     47.90207        11     1.045     0.755  42.40   0
       220     28.7141    213.7312 300.1443430 +22.4366891     300.0146      70.1655      1.445     3.92    -2.424429     19.77065     42.30159         6     0.948     0.575 -62.30   0
       221    236.0937    210.3056 300.2098845 +22.4979212     3207.115     70.23676      1.514     3.07    -2.556954     19.77065     313.2709        29     1.296     1.079 -83.55   0
       222     20.2626    204.7764 300.1446246 +22.4315838     720.0188     70.05846      1.329     3.01    -2.469635     19.77065     88.03221        13     0.991     0.844 -85.37   0
       223    219.3204    201.2052 300.2076246 +22.4902778     308.6044     70.00487      1.446     2.83    -2.538194     19.77065     57.79836         6     1.023     0.643  69.52   0
       224    880.1249    191.4070 300.4164810 +22.6855383     2118.679     70.00487      1.498     2.96    -2.903871     19.77065     226.5816        24     1.218     1.061 -72.35   0
       225    983.6595    190.1025 300.4491833 +22.7161732     1680.099     70.14767      1.448     2.81    -2.781485     19.77065     175.2759        19     1.094     0.938  79.17   0
       226    429.5951    187.2090 300.2775509 +22.5493168     273.3499     69.93336      1.450     4.47    -2.591452     19.77065     40.02955         7     0.872     0.652 -12.14   0
       227    353.8575    178.9250 300.2566819 +22.5242291     447.3073     70.12983      2.134     5.03    -2.807757     19.77065     38.62209         6     1.265     0.565  -0.48   0
       228    120.3612    175.7958 300.1851198 +22.4532999     223.1918     70.09415      1.246     3.51    -2.449169     19.77065     34.41032         5     0.770     0.461 -77.45   0
       229    481.0031    174.2077 300.2977644 +22.5609946     1022.408     69.89758      1.602     3.71    -2.478873     19.77065     80.07604        20     1.145     1.091  72.10   0
       230    254.9786    154.2171 300.2339558 +22.4874833     3313.947     70.05845      1.545     2.92    -2.694646     19.77065     328.3434        32     1.321     1.157  88.66   0
       231    761.4908    154.2022 300.3915862 +22.6393047       236.85     70.00487      1.518     4.67    -2.676066     19.77065     29.27184         6     0.929     0.666  -7.67   0
       232    105.8791    153.7585 300.1877714 +22.4426306     460.6932     70.05845      1.684     5.17    -2.433542     19.77065     38.59711         8     0.940     0.805 -79.05   0
       233    500.9985    139.3574 300.3152949 +22.5569777     3562.581      70.0763      1.604     3.16    -2.458662     19.77065      335.269        34     1.268     1.221  44.29   0
       234    386.4652    139.2857 300.2796855 +22.5226226     403.5253      70.1655      1.388     3.32    -2.549617     19.77065     46.35685         7     1.031     0.595 -15.66   0
       235    753.7191    129.1862 300.3972821 +22.6297861     553.4373     70.05845      1.844     5.05    -2.547749     19.77065      45.8853         8     1.113     0.648   5.86   0
       236    845.5756    127.5968 300.4264197 +22.6568453     251.5349      70.0406      1.420     3.84    -2.657003     19.77065     43.84375         8     1.077     0.833 -24.05   0
       237    194.1990    123.0161 300.2251877 +22.4602976      248.883     69.95125      1.414     3.78     -2.53138     19.77065     34.86424         6     0.922     0.445  55.28   0
       238    451.4042    122.0407 300.3054817 +22.5371373     944.2231     70.09415      0.610     1.05    -2.428421     19.77065     474.1664         5     0.492     0.312   5.32   0
       239    629.3676    119.5337 300.3616850 +22.5897540     3476.542      70.0763      1.599     3.29    -2.360001     19.77065     338.1681        29     1.217     1.168  76.38   0
       240    404.3551    118.4237 300.2920187 +22.5219943     786.8099     70.11199      1.630     3.56    -2.420246     19.77065     88.92362        17     1.142     1.034  68.86   0
       241    670.3604    116.7214 300.3753622 +22.6012289     503.3011     70.05846      1.458     4.14     -2.25992     19.77065      54.3508        13     1.173     0.838  10.50   0
       242    686.5681    113.1140 300.3815801 +22.6050483     282.6172     70.05845      1.272     3.75    -2.251408     19.77065     40.64979         7     0.835     0.718  20.00   0
       243    956.2664    110.4307 300.4664950 +22.6850599     350.2458      70.0763      1.354     3.77    -2.584441     19.77065     64.23994        10     1.171     0.692  55.75   0
       244    153.1489    111.2112 300.2162612 +22.4445969     350.4973     70.09415      1.292     3.44    -2.362753     19.77065     44.73232         7     0.846     0.678  24.31   2
       245    673.5106    104.2958 300.3803745 +22.5986017     1557.642     70.25457      1.521     3.23    -2.095069     19.77065      162.097        21     1.127     1.049 -31.45   0
       246    688.1766    102.7448 300.3854452 +22.6025500     509.4762     70.11199      1.642     2.95    -2.139965     19.77065       54.966         9     0.851     0.749  85.14   0
       247    759.9301     95.8439 300.4100347 +22.6220626      861.553      70.0406      1.634     3.70    -2.375724     19.77065     84.72417        14     1.178     0.807   9.93   0
       248    698.1628     88.9362 300.3930351 +22.6015731     241.3619      70.0763      1.373     4.08    -2.088359     19.77065     39.60929         6     0.914     0.600  74.62   0
       249    503.6868     88.4930 300.3326334 +22.5431708     561.6324     70.23676      1.646     3.45    -2.330321     19.77065     53.58419        13     1.101     0.794  55.49   0
       250     76.7631     88.2106 300.1999917 +22.4150830     400.6371     70.05845      1.383     2.66    -2.370356     19.77065     47.41919         7     0.833     0.570  61.33   0
       251    407.2067     86.2154 300.3033543 +22.5135979     385.3307       69.987      1.693     2.81    -2.292244     19.77065     39.57937         7     0.900     0.701 -45.97   0
       252    179.0130     76.7598 300.2354736 +22.4424633     2210.217     70.09415      1.524     2.95     -2.52563     19.77065     246.6373        24     1.216     1.042 -64.39   0
       253    746.8448     76.7033 300.4121674 +22.6126407     331.3875     70.09415      1.586     5.21    -2.256307     19.77065     38.26235         7     0.980     0.782  50.17   0
       254    294.8228     69.0764 300.2739636 +22.4749835     825.5721      70.0763      1.548     5.44    -2.442134     19.77065     81.39775        17     1.508     0.858 -83.58   0
       255    740.0317     69.3193 300.4124403 +22.6084772     514.1992      70.0763      1.654     4.01    -2.184278     19.77065     48.47747         9     0.922     0.850  34.31   0
       256    777.7527     64.1056 300.4258831 +22.6182773     469.8664     70.09415      1.702     5.33    -2.410216     19.77065     42.46996        11     1.230     0.774 -74.52   0
       257    797.8750     60.1676 300.4334301 +22.6231722      1286.64      70.0763      1.579     3.61    -2.542849     19.77065     101.7191        21     1.174     1.134  80.71   0
       258    181.1772     55.6536 300.2429919 +22.4370525     533.1672     70.09415      1.302     3.84    -2.624478     19.77065     72.07153        10     0.882     0.872 -18.95   0
       259    972.8087     53.1002 300.4902515 +22.6735251     410.8498     69.95125      1.344     3.63    -2.647305     19.77065     50.88537         8     0.902     0.672  -6.78   0
       260    746.7753     52.4971 300.4199976 +22.6056613     473.7102       69.987      1.441     3.89    -2.164342     19.77065     47.56538        10     0.951     0.734  84.32   0
       261    598.9283     37.5320 300.3788080 +22.5570678     528.1613     70.11199      1.575     3.98    -1.797253     19.77065     62.21285        11     1.058     0.990 -81.38   0
       262    208.5415     35.2110 300.2581261 +22.4393884     304.0298     70.02274      1.227     3.11    -2.720801     19.77065     33.20783         5     0.733     0.444 -67.20   0
       263    762.0682     32.7122 300.4311790 +22.6045540     427.5161     70.21896      1.549     5.38    -2.231265     19.77065     51.31899        11     1.234     0.933 -81.51   0
       264    570.6509     30.6755 300.3722289 +22.5466247     992.2805      70.0763      1.571     3.63    -1.738041     19.77065     96.86062        15     1.067     0.946 -82.88   0
       265    293.5825     27.5513 300.2870457 +22.4626859     397.3277     70.11199      1.691     4.88    -2.121674     19.77065     40.28217         8     0.999     0.674  -0.15   0
       266      8.0967     26.7376 300.1986031 +22.3768412     317.9841      70.1655      1.451     3.65    -1.913592     19.77065     59.21706         9     1.143     0.669  71.86   0
       267    527.8047     24.5587 300.3608763 +22.5320284     722.5659     70.09415      1.629     3.28     -1.71166     19.77065     81.31671        16     1.150     0.926  22.05   0
       268    633.2619     21.1801 300.3948010 +22.5626546     721.8973      70.0406      1.455     3.17    -1.704524     19.77065     78.08627        15     1.060     0.924   3.25   0
       269    228.3810     20.3151 300.2691231 +22.4410595     326.7978     70.00487      1.697     5.52     -2.70507     19.77065     34.50505         7     1.330     0.646  27.83   0
       270    540.0363   1020.7798 300.0409244 +22.8216505     301.8928     67.47559      1.013     2.54    -5.173458     19.77065     55.15117         6     0.737     0.531 -33.30  16
