#   1 NUMBER                 Running object number                                     
#   2 X_IMAGE                Object position along x                                    [pixel]
#   3 Y_IMAGE                Object position along y                                    [pixel]
#   4 ALPHA_J2000            Right ascension of barycenter (J2000)                      [deg]
#   5 DELTA_J2000            Declination of barycenter (J2000)                          [deg]
#   6 FLUX_APER              Flux vector within fixed circular aperture(s)              [count]
#   7 FLUXERR_APER           RMS error vector for aperture flux(es)                     [count]
#   8 FLUX_RADIUS            Fraction-of-light radii                                    [pixel]
#   9 FWHM_IMAGE             FWHM assuming a gaussian core                              [pixel]
#  10 BACKGROUND             Background at centroid position                            [count]
#  11 THRESHOLD              Detection threshold above background                       [count]
#  12 FLUX_MAX               Peak flux above background                                 [count]
#  13 ISOAREA_IMAGE          Isophotal area above Analysis threshold                    [pixel**2]
#  14 A_IMAGE                Profile RMS along major axis                               [pixel]
#  15 B_IMAGE                Profile RMS along minor axis                               [pixel]
#  16 THETA_IMAGE            Position angle (CCW/x)                                     [deg]
#  17 FLAGS                  Extraction flags                                          
         1    454.1598     18.9308 300.3408049 +22.5071304     1255.578     70.01943      1.637     3.38     -2.64832     19.75964     118.4488        23     1.285     1.082  65.65   0
         2    101.4556     16.9866 300.2318005 +22.4008092     743.8174     70.03728      1.457     2.93    -2.103094     19.75964     94.44176        15     1.080     0.877 -88.60   0
         3     85.3421   1013.2401 299.9030823 +22.6816690     2553.388     70.01943     10.983    15.03      4.69452     19.75964     61.19005        66     3.065     2.049  19.88  19
         4    251.8090   1023.5937 299.9514199 +22.7346678     230.8987     54.80515      0.933     3.31   -0.7540673     19.75964     67.30411         6     1.044     0.544  25.17  24
         5     68.5966   1012.8513 299.8980094 +22.6765238      1587.31     70.03728      9.110    17.18     1.834455     19.75964     43.31429        51     3.918     2.094   5.57  19
         6    105.5998   1018.0673 299.9078010 +22.6891411     1718.234     69.98373     16.489    24.61     7.474332     19.75964     51.71153       114     5.053     3.328  -6.94  27
         7     68.3312   1023.1852 299.8945622 +22.6794039     827.9573     57.19248      4.393     4.61     2.434547     19.75964     37.58683         5     0.853     0.709 -13.05  25
         8    463.1151   1017.4987 300.0190965 +22.7964070     663.6559     70.19765      1.193     2.35    -5.824613     19.75964       91.644         9     0.787     0.712  15.88   0
         9    393.6686   1015.4304 299.9981734 +22.7749523     3738.186     70.01943      1.156     2.03    -5.237032     19.75964     606.9808        26     1.022     0.920  69.17   0
        10     86.6752    998.4338 299.9083171 +22.6778285     2183.749     70.03728     17.911    41.70     3.297068     19.75964     55.98156       306     9.259     5.212 -18.84  19
        11    110.5388   1009.7061 299.9120573 +22.6882306     929.0295     70.12641      4.846     4.54     6.370598     19.75964     34.20907         5     1.183     0.495  31.77   1
        12    101.2699   1003.6747 299.9111427 +22.6837168      1292.42      70.1086      8.247     7.54     5.590929     19.75964     67.39979        22     1.693     1.398 -16.32   3
        13     86.3033    987.2238 299.9118513 +22.6745055     2051.126     69.94802     11.119    26.03     1.884866     19.75964     48.46247       168     5.886     3.197 -26.25   3
        14    425.7410   1002.0292 300.0125102 +22.7807457     159.5463     70.03728      1.005     2.64    -5.325403     19.75964     50.21464         5     0.776     0.379  71.09   0
        15    867.1520    999.0912 300.1508706 +22.9124406     259.0643     70.05511      1.261     4.45    -5.861895     19.75964      38.5005         5     0.797     0.708 -77.29   0
        16    939.8220    993.9354 300.1751961 +22.9327692     1267.744     70.01943      1.183     2.06    -5.782297     19.75964       225.27        11     0.778     0.727 -75.13   0
        17    622.5750    989.1609 300.0779385 +22.8361712     256.1701     70.05511      1.429     5.06     -5.91232     19.75964     31.73154         6     1.026     0.706 -83.91   0
        18     86.5606   1021.0079 299.9009314 +22.6842602     2839.542     66.65534     20.192    29.38     5.988007     19.75964     67.69912       209     6.440     3.720   4.88  27
        19    728.5157    982.4824 300.1130949 +22.8660624     498.4026     70.16204      1.444     2.94    -5.912989     19.75964     60.16321         8     0.887     0.703  62.80   0
        20    763.3526    976.8833 300.1257669 +22.8749137     483.9463     70.03728      1.141     2.26    -5.825032     19.75964     92.51614        11     0.817     0.791 -24.66   0
        21    785.6698    970.6392 300.1347509 +22.8798212     6543.606     70.00159      1.113     1.95    -5.720415     19.75964     1104.023        29     0.990     0.931  53.32   0
        22    831.2662    970.7297 300.1489250 +22.8935325     245.1611     70.07294      0.982     1.90    -5.667327     19.75964     69.18404         5     0.687     0.430 -78.82   0
        23    976.6790    969.9660 300.1944897 +22.9369490     327.1176     69.98373      1.086     2.72    -5.704207     19.75964     44.14883         7     0.695     0.685 -34.79   0
        24     97.1196    962.5103 299.9232555 +22.6706770     308.1453     70.14423      1.223     2.78  -0.03957629     19.75964     57.95557         8     0.785     0.685 -87.55   0
        25    794.1310    952.6971 300.1432280 +22.8772129     826.8088     70.16204      1.116     2.23    -5.576377     19.75964     146.3335        15     1.046     0.801  67.44   0
        26    977.2663    951.9067 300.2005528 +22.9319417     314.4838     70.17985      1.267     3.68    -5.696143     19.75964     44.23391         7     0.737     0.685 -56.30   0
        27    832.5226    946.1939 300.1573048 +22.8868692     414.8607     69.94802      1.033     2.23    -5.492149     19.75964     77.64008         9     0.809     0.660  20.64   0
        28    940.6635    942.7306 300.1921307 +22.9183258     207.7781     70.07294      1.140     2.23    -5.706223     19.75964     46.10098         5     0.704     0.446  73.23   0
        29    880.8504    937.3055 300.1752563 +22.8988213     317.4249      70.1086      1.260     2.22    -5.496858     19.75964     61.45656         7     0.784     0.566  37.94   0
        30    732.0780    936.4111 300.1292039 +22.8539149     486.7757     70.01943      1.085     2.09    -5.834216     19.75964      72.7868         7     0.695     0.618  14.83   0
        31    444.8152    933.1468 300.0408681 +22.7667271     2388.116     70.01943      1.239     2.11    -5.293141     19.75964     385.9643        20     0.987     0.870  23.28   0
        32    743.4067    933.3954 300.1337136 +22.8564502     269.3327     69.89442      0.984     2.35    -5.788314     19.75964      59.9729         5     0.679     0.469  16.36   0
        33    105.9862    921.8129 299.9392563 +22.6616822     177.2647     69.96588      1.172     3.60    -4.641083     19.75964     37.80304         5     0.806     0.496 -51.76   0
        34    487.6601    920.9805 300.0581549 +22.7761059     223.6926     69.98373      1.315     3.96    -5.374636     19.75964     38.69357         6     1.033     0.491 -37.99   0
        35    169.9407    918.6733 299.9601418 +22.6800017     318.0431     70.07294      1.228     2.67      -3.9737     19.75964     62.95405         9     0.849     0.691 -62.41   0
        36    147.3054    915.8550 299.9540281 +22.6723922     940.4779     70.09077      1.186     2.25    -4.113039     19.75964     155.6824        12     0.904     0.778 -78.99   0
        37   1018.6291    904.3998 300.2289143 +22.9307128     1263.336     70.00159      1.098     1.98    -5.590184     19.75964     198.7107        14     0.925     0.738  73.19  16
        38    972.9442    902.9268 300.2151508 +22.9165852     1264.866     70.05511      1.168     1.77    -5.549692     19.75964     264.6307        15     0.881     0.820 -23.76   0
        39    756.7687    896.9581 300.1497359 +22.8500061     283.5728     70.07294      1.046     2.00    -5.477109     19.75964     71.37002         8     0.771     0.597 -30.13   0
        40    624.7932    891.0877 300.1105560 +22.8087074     2745.068     69.94802      1.272     2.09    -5.453795     19.75964     444.5488        22     1.051     0.929  74.84   0
        41    114.3760    891.9193 299.9515909 +22.6556382     268.0499     70.00159      1.170     2.55    -4.798771     19.75964     55.18957         5     0.732     0.674  27.99   0
        42    426.9249    888.4540 300.0498513 +22.7485395     393.7052     70.07294      1.361     2.76     -5.21205     19.75964     71.10744         7     0.900     0.627   5.09   0
        43    174.9126    885.1219 299.9726059 +22.6718809     750.7145     70.17985      1.198     2.36    -4.365403     19.75964     135.4191        13     0.962     0.751  43.33   0
        44    645.2404    882.9947 300.1195547 +22.8125239     517.2355     70.05511      1.566     4.37    -5.420738     19.75964     51.38236         9     0.928     0.895 -66.95   0
        45    194.1721    882.2990 299.9795077 +22.6768586     199.0664     69.96588      1.074     2.72    -4.459451     19.75964     42.43228         6     0.718     0.628 -78.58   0
        46    800.6397    870.6961 300.1719481 +22.8556359     2477.041     70.01943      1.188     2.22    -5.243249     19.75964      343.728        19     0.949     0.922 -43.11   0
        47   1017.5427    870.7142 300.2395401 +22.9207156     722.8361     70.14423      1.209     2.20     -5.46214     19.75964      107.767        11     0.806     0.768 -59.29   0
        48    208.8454    865.3408 299.9895850 +22.6764069     234.5472     70.07294      1.229     3.38    -4.564237     19.75964     39.75032         5     0.755     0.437 -17.31   0
        49    517.7776    863.3448 300.0862830 +22.7686207     363.9344     70.05511      1.179     3.04    -5.288689     19.75964     57.97332         7     0.919     0.509 -62.08   0
        50    164.1572    861.5746 299.9769277 +22.6619010     344.9427     70.07294      1.192     2.87    -4.581919     19.75964     74.97871         9     0.882     0.651  74.28   0
        51    579.3522    856.4960 300.1076713 +22.7851428     378.9961     70.07294      1.274     2.84    -5.205518     19.75964     51.39891         7     0.877     0.538  55.10   0
        52    313.8311    853.6309 300.0260214 +22.7045881     30739.66     70.05511      1.282     2.23    -4.694324     19.75964     4443.127        62     1.217     1.089  70.77   0
        53    571.5720    852.4611 300.1065631 +22.7816497     952.3428     70.03728      1.172     2.26     -5.16329     19.75964     127.0285        15     0.934     0.869 -76.62   0
        54    984.5269    851.2945 300.2355669 +22.9052367     522.2424     70.17985      1.138     2.15    -5.338692     19.75964     91.43082         7     0.743     0.595 -13.75   0
        55    600.5457    848.4520 300.1168847 +22.7891976     476.7462     70.07294      1.306     2.62    -5.147771     19.75964     74.41373        12     0.906     0.823  18.71   0
        56    611.8542    846.7626 300.1209541 +22.7921076     369.1052     70.03728      1.181     2.58    -5.152157     19.75964     59.43973         8     0.860     0.623  59.99   0
        57    568.0565    845.3721 300.1077760 +22.7785608     1504.011     70.03728      0.783     1.65    -5.091244     19.75964     597.1899         7     0.660     0.456 -33.61   0
        58    931.5447    843.6871 300.2215271 +22.8871595     297.4236      70.1086      1.221     3.42    -5.136513     19.75964     41.00665         5     0.722     0.476  74.36   0
        59    716.6456    842.9602 300.1548149 +22.8224699     347.5687      70.1086      1.371     3.77     -5.27092     19.75964     44.27452         8     1.002     0.660  52.70   0
        60    754.4638    832.8239 300.1698905 +22.8309105     431.3288     70.01943      1.175     3.36    -5.252818     19.75964     61.25908         7     0.935     0.483  81.10   0
        61    363.5300    830.8011 300.0489001 +22.7129694     17934.93     69.98373      1.314     2.31    -4.764339     19.75964     2457.382        52     1.184     1.129  52.08   0
        62    377.9284    831.4487 300.0531660 +22.7174792     1143.017     70.01943      1.332     2.30    -4.796532     19.75964      163.191        16     0.989     0.896  25.26   0
        63    886.3730    826.3092 300.2131043 +22.8686195     1602.623     70.00159      1.156     2.07    -4.952956     19.75964      237.761        17     0.904     0.878 -65.83   0
        64    644.6226    822.6279 300.1390073 +22.7950194      477.296     70.03728      1.153     2.36    -5.119959     19.75964     85.87189         9     0.906     0.601   7.54   0
        65    245.8756    822.7159 300.0149606 +22.6753131     453.0286     70.14423      1.349     2.90    -4.560702     19.75964     63.21301         9     0.829     0.746  75.85   0
        66    481.3479    822.3040 300.0883048 +22.7459116     242.7629      70.1086      1.022     2.98    -4.893471     19.75964     37.12848         5     0.736     0.444  73.00   0
        67    491.5351    817.2942 300.0931038 +22.7475334     501.1104     70.14423      1.271     2.78    -4.828106     19.75964     68.47536        10     0.861     0.806 -70.56   0
        68     50.7303    818.5575 299.9556988 +22.6154910     364.0819     70.00159      1.457     4.10    -5.219852     19.75964     33.30738         7     1.030     0.467 -10.67   0
        69    892.7174    813.9745 300.2190951 +22.8669818      305.629     70.01943      1.188     2.27    -4.892837     19.75964     54.92815         7     0.736     0.620  83.22   0
        70     79.4389    812.0357 299.9667346 +22.6222488     305.1743      70.1086      1.252     2.98    -5.219852     19.75964     58.41713         7     0.929     0.564 -27.52   0
        71    243.5791    807.3038 300.0192612 +22.6702051      220.954     69.94802      1.095     3.25    -4.551414     19.75964     44.74326         7     0.941     0.482  82.37   0
        72    536.3907    795.1339 300.1142690 +22.7546432      340.473     70.03728      1.470     5.75    -4.586415     19.75964     36.65862         9     1.236     0.753  33.64   0
        73    445.8477    794.5852 300.0862810 +22.7273026     224.6159     70.07294      1.330     3.44    -4.639071     19.75964     31.31902         5     0.817     0.419  21.68   0
        74    952.8337    791.5898 300.2451151 +22.8785880      2610.36     70.01943      1.158     2.06    -4.959197     19.75964     412.3575        22     0.988     0.876  59.67   0
        75    558.5086    792.7689 300.1219207 +22.7606043     865.1589     69.98373      1.362     2.73    -4.606404     19.75964     112.8704        15     1.009     0.849 -57.08   0
        76    941.1103    782.8563 300.2443023 +22.8725640     992.0334     70.07294      1.212     2.05    -4.847757     19.75964     174.5381        13     0.952     0.744  33.75   0
        77    304.2754    777.0999 300.0479507 +22.6797758     428.1023     70.16204      1.263     2.86    -4.516834     19.75964     66.27977         7     0.815     0.641  36.96   0
        78    767.6606    774.5306 300.1929673 +22.8181401     1462.283     70.07294      1.313     2.52    -4.884407     19.75964     170.2865        14     0.918     0.853  49.81   0
        79    972.3480    773.0432 300.2572324 +22.8791153     942.0212     70.07294      1.228     2.15    -4.973195     19.75964      147.692        13     0.972     0.765  88.47   0
        80    153.3259    761.2577 300.0061999 +22.6298940     366.0847     70.07294      1.611     4.65    -4.838845     19.75964      36.6733         8     0.962     0.742 -57.49   0
        81    886.0490    751.3104 300.2374045 +22.8469908     84695.95     70.03728      1.279     2.18    -4.487011     19.75964     12224.24       105     1.278     1.169  67.08   0
        82    648.6226    755.3039 300.1621556 +22.7769019     279.2315     69.94802      1.837     4.35    -4.633267     19.75964     32.15185         5     1.156     0.465 -82.59   0
        83    738.6426    752.1057 300.1912249 +22.8029969     440.3921     70.03728      1.302     3.59    -4.639241     19.75964     60.50921        10     0.965     0.757  49.25   0
        84    919.0411    744.1965 300.2500006 +22.8548440     293.5706     70.05511      1.265     2.54     -4.59198     19.75964     46.83151         7     0.718     0.657   9.72   0
        85    572.5697    740.4579 300.1433133 +22.7498167     986.2493     70.05511      1.416     3.00    -4.463672     19.75964     110.5448        14     1.001     0.907 -78.70   0
        86    753.6334    737.5941 300.2006140 +22.8033294     5441.492     70.03728      1.315     2.38    -4.430338     19.75964     690.9709        30     1.067     1.055  53.74   0
        87    255.3066    732.9636 300.0470876 +22.6524138      2930.92     70.00159      1.397     2.64    -4.459795     19.75964     319.6159        25     1.160     1.014  62.92   0
        88    337.3575    731.1891 300.0731679 +22.6765450     561.5039     70.03728      1.228     2.56    -4.434174     19.75964     87.28416        12     0.908     0.799  28.85   0
        89    212.7030    728.5225 300.0352934 +22.6383450     212.0186     70.16204      1.254     3.62    -4.501584     19.75964     45.06305         7     0.872     0.675  66.41   0
        90    545.3493    726.3218 300.1394407 +22.7375906     412.9326     70.03728      1.404     3.19    -4.332792     19.75964     46.04722         8     0.932     0.579 -15.36   0
        91    537.1294    718.5287 300.1394176 +22.7328875     1926.602      70.1086      1.427     2.58    -4.258493     19.75964     220.2802        22     1.088     1.025  76.73   0
        92    527.5623    712.3415 300.1384532 +22.7282407     791.4781     70.05511      1.438     2.76    -4.184649     19.75964     104.3687        13     0.946     0.843 -62.97   0
        93    191.1086    708.5434 300.0350817 +22.6261309     417.9682     70.09077      1.485     3.30    -4.485099     19.75964     53.59001         6     0.856     0.653  10.96   0
        94    205.0124    707.2415 300.0398248 +22.6299336     303.2768     70.03728      1.145     3.15    -4.445268     19.75964     51.98801         5     0.792     0.491 -61.73   0
        95    974.2060    702.9536 300.2806111 +22.8595443     345.9384     70.03728      1.593     4.07    -4.728179     19.75964     36.37331         7     0.731     0.679   7.42   0
        96    452.0777    702.0906 300.1183046 +22.7026414     1037.488     70.17985      1.415     3.06    -4.095881     19.75964     116.5328        18     1.120     0.921  56.06   0
        97    485.6304    701.6220 300.1288939 +22.7125789     185.4271     70.03728      1.745     3.84    -4.083271     19.75964      26.7381         5     1.036     0.409  15.86   0
        98     26.8373    699.0245 299.9871597 +22.5740561     360.0045     70.05511      1.407     3.41    -4.377257     19.75964     56.63823         8     1.035     0.784  50.35   0
        99    106.2010    697.2368 300.0123843 +22.5973858     11299.29     70.03728      1.348     2.47     -4.49003     19.75964     1353.672        39     1.187     1.078  63.22   0
       100    537.1757    697.4726 300.1462800 +22.7268598     708.4749     70.07294      1.688     3.10    -4.024063     19.75964     58.18286        11     0.927     0.800  37.50   0
       101    954.8439    683.2985 300.2809675 +22.8480931     598.7664     70.03728      1.363     2.98    -4.545306     19.75964     74.84197        10     0.867     0.764  52.26   0
       102     52.2603    681.3032 300.0008152 +22.5766145     940.8789      70.1086      1.702     4.51    -4.247843     19.75964     94.90355        14     1.456     0.627  86.92   0
       103    821.5636    681.3184 300.2400770 +22.8075521      123.248     70.00159      1.031     3.41    -3.969373     19.75964     29.43097         5     1.063     0.317  67.92   0
       104    118.4324    682.1282 300.0210958 +22.5967287     223.7252     70.03728      1.300     3.45     -4.37877     19.75964     30.88329         5     0.767     0.449  70.22   0
       105    895.0085    675.9455 300.2647091 +22.8280375     461.7799     70.03728      1.622     3.49    -4.199539     19.75964     52.89905         9     0.917     0.734 -15.98   0
       106    457.6364    670.2869 300.1303757 +22.6951859     200.9333     70.01943      1.090     3.72    -3.766289     19.75964     46.94059         9     1.038     0.739 -84.21   0
       107    604.8378    668.9163 300.1766227 +22.7389710     291.8193     70.01943      1.364     3.64    -3.777718     19.75964     35.77359         6     0.793     0.664  77.49   0
       108    623.1640    667.3438 300.1828383 +22.7440188     264.8555     70.05511      1.317     3.88    -3.774634     19.75964     37.26339         6     1.018     0.423 -13.47   0
       109    501.1289    665.9025 300.1453309 +22.7069823     420.1373     70.16204      1.405     2.96    -3.744953     19.75964     62.37014         9     0.841     0.743  16.85   0
       110    934.9476    661.3254 300.2819112 +22.8358160     1904.484     70.05511      1.361     2.46    -4.260871     19.75964     260.4833        21     1.090     0.935  70.73   0
       111    466.9289    661.5416 300.1361098 +22.6954661     890.7891     70.07294      1.361     2.82    -3.729129     19.75964     101.6185        15     0.983     0.910  44.61   0
       112     28.9803    655.5726 300.0019532 +22.5622454     2893.071     70.03728      1.350     2.48    -4.096518     19.75964     362.9922        26     1.097     1.067  82.07   0
       113    975.0007    651.1570 300.2977033 +22.8449056     110.2104     70.03728      1.107     2.44    -4.465731     19.75964     40.02248         5     0.774     0.478  57.36   0
       114    330.3595    648.4257 300.0979058 +22.6507063     5351.815     70.09077      1.478     2.71    -4.002833     19.75964     535.0754        37     1.256     1.153  50.16   0
       115    452.7454    645.3204 300.1369723 +22.6865547     5022.667     70.07294      1.456     2.77    -3.650165     19.75964      552.257        33     1.227     1.075  64.48   0
       116    864.3736    639.0381 300.2671639 +22.8082512     1044.288     70.05511      1.288     2.43    -3.953287     19.75964     134.0304        17     1.096     0.890  63.39   0
       117    948.9301    636.4318 300.2943643 +22.8328589     7112.645     70.03728      1.322     2.39    -4.170301     19.75964     900.6459        35     1.115     1.067 -85.32   0
       118    513.3527    634.9229 300.1592067 +22.7017615     6544.097     70.03728      1.483     2.74    -3.609904     19.75964     693.6655        36     1.237     1.148  70.67   0
       119    240.8060    630.5075 300.0758968 +22.6186787     802.7856     69.94802      1.503     2.85    -4.250811     19.75964     98.76786        14     1.037     0.846  62.52   0
       120    682.8065    630.6192 300.2133468 +22.7513724       325.41     70.00159      1.477     2.98    -3.703142     19.75964     32.15491         5     0.719     0.462  15.61   0
       121    487.9762    627.9702 300.1535723 +22.6921505     349.1234     70.03728      1.411     4.64    -3.573078     19.75964      47.5021         8     1.173     0.646 -76.10   0
       122    444.9898    623.0626 300.1417964 +22.6778407     2561.305     69.96588      1.479     2.91    -3.547977     19.75964     255.8112        28     1.218     1.109  35.55   0
       123    787.8205    623.0055 300.2485265 +22.7806876     377.3256     70.01943      1.468     4.54    -3.802044     19.75964     44.07627         8     0.840     0.765  78.85   0
       124    423.5461    621.6128 300.1355983 +22.6709884      656.116     70.05511      1.546     3.69    -3.543332     19.75964      62.8562        14     1.175     0.861  73.18   0
       125    177.9741    621.5175 300.0592968 +22.5972331     475.8835     70.01943      1.611     3.86    -4.314114     19.75964     45.99285         8     0.985     0.585  43.49   0
       126    864.6498    618.3176 300.2739869 +22.8023835     946.4394     70.05511      1.418     2.78    -3.867256     19.75964     105.4566        15     0.975     0.928   7.89   0
       127    561.5706    610.6353 300.1821062 +22.7092610     118448.8     70.05511      1.550     2.93    -3.542405     19.75964      12312.6       154     1.466     1.451  78.71   0
       128    745.1370    615.6330 300.2376288 +22.7657680     381.3581     70.03728      1.249     4.44    -3.691368     19.75964     52.06425        11     1.099     0.769 -85.33   0
       129    247.7643    610.7445 300.0844837 +22.6151000     2109.943     70.05511      1.517     2.74    -4.234096     19.75964     237.7281        24     1.166     1.028  46.61   0
       130    452.2912    591.1539 300.1544403 +22.6708763     1585.824     70.01943      1.702     3.33    -3.480066     19.75964     156.4061        24     1.258     1.134  67.26   0
       131    296.4438    593.3432 300.1052697 +22.6247241      71.4679     70.03728      1.331     4.78    -4.041528     19.75964     33.14873         6     0.968     0.670 -70.66   0
       132    849.0795    576.8154 300.2826273 +22.7857949     902.6442     70.05511      1.358     2.91     -3.71369     19.75964     108.2006        13     0.964     0.844 -43.57   0
       133    720.3140    574.6343 300.2432261 +22.7465505     1461.855     70.00159      1.525     3.04    -3.599148     19.75964     137.6748        20     1.112     0.996  69.32   0
       134    507.6461    571.1939 300.1781481 +22.6817601     437.5696     70.05511      1.683     2.93    -3.482032     19.75964     44.44725         5     0.726     0.454 -74.48   0
       135    977.6979    568.4192 300.3254434 +22.8219465      870.978     69.96588      1.476     2.97     -3.91093     19.75964     89.97849        16     1.068     0.902  15.35   0
       136    963.2583    567.5258 300.3212323 +22.8173610     508.3843     70.07294      1.881     4.31    -3.854997     19.75964     42.43831         9     0.959     0.803  49.57   0
       137    849.4785    566.8306 300.2859972 +22.7830468     1374.432     70.03728      1.867     5.03    -3.677476     19.75964     111.6509        21     1.705     0.906  80.32   0
       138    602.5723    565.3530 300.2095863 +22.7085657     446.8515     70.05511      1.576     3.98    -3.509096     19.75964     36.08204         6     0.950     0.478   0.31   0
       139    887.4901    562.0917 300.2993825 +22.7930834     2488.852     70.19765      1.413     2.71    -3.671298     19.75964     268.2413        23     1.061     1.035 -39.40   0
       140    119.8789    553.2940 300.0634255 +22.5602233     524.1046     70.16204      1.291     2.91    -4.157882     19.75964     79.74735        10     0.950     0.693  83.88   0
       141    979.1006    552.3329 300.3311095 +22.8177454      521.842     70.12641      1.683     2.14    -3.859552     19.75964     59.20766         7     0.680     0.652 -10.47   0
       142    112.4363    543.1305 300.0644168 +22.5550738     329.1224     70.01943      1.654     5.20    -4.112697     19.75964     36.87524         8     1.184     0.645  83.21   0
       143    660.8781    532.5224 300.2384068 +22.7166312     467.2712     70.14423      1.505     4.29    -3.497816     19.75964     40.35115        10     1.092     0.728  12.63   0
       144    721.7153    524.9801 300.2598010 +22.7327129     463.6982     69.96588      1.535     4.75    -3.556809     19.75964     39.76955        12     1.047     0.862 -69.26   0
       145    975.9490    524.8958 300.3390445 +22.8089175     390.7069      70.1086      1.452     3.76    -3.811548     19.75964     58.62444         8     1.008     0.673 -78.17   0
       146    878.7275    520.8923 300.3100422 +22.7786215     636.4713     70.17985      1.526     4.31    -3.593828     19.75964     64.30418        12     1.236     0.726  70.79   0
       147    863.6322    517.5073 300.3064383 +22.7731232     353.1257     69.96588      1.563     4.26    -3.590908     19.75964     37.26597         7     0.951     0.545  61.69   0
       148    607.5143    515.4673 300.2273374 +22.6957271     1827.216     70.12642      1.571     3.29    -3.368429     19.75964     171.0572        24     1.210     1.070  34.61   0
       149    968.1633    513.9783 300.3401653 +22.8034469     339.1477     70.05511      1.460     4.43    -3.769539     19.75964     47.04399         7     1.057     0.528 -31.27   0
       150   1018.7484    494.3240 300.3623241 +22.8129615     841.9825     70.05511      1.302     2.61    -3.996018     19.75964     103.1316        14     0.933     0.846 -10.84  16
       151    977.2339    493.0848 300.3497829 +22.8001624      527.186     70.00159      1.270     4.06    -3.797117     19.75964     64.29083        10     1.067     0.671  82.68   0
       152    890.5474    494.1714 300.3224092 +22.7744889      408.126     70.05511      1.614     3.21    -3.582568     19.75964     43.84403         8     0.887     0.654  34.46   0
       153    718.2220    489.0982 300.2703733 +22.7213608      616.886     69.96588      1.462     3.64     -3.56466     19.75964     66.15294        12     1.128     0.745  87.56   0
       154    221.9663    487.8588 300.1164033 +22.5721062     486.1489     70.05511      2.086     5.66    -3.698088     19.75964     31.56509        10     1.144     0.788  44.68   0
       155    284.6338    483.7047 300.1372289 +22.5897254     2242.833     70.01943      1.627     2.99    -3.664083     19.75964     225.0683        26     1.281     1.062  62.44   0
       156   1017.4486    481.6265 300.3660448 +22.8089230     2662.839     70.05511      1.378     2.49    -3.986626     19.75964     302.6893        26     1.140     1.038  74.36  16
       157    231.7756    478.4656 300.1225034 +22.5723561     4365.298     70.01943      1.555     3.04    -3.646574     19.75964     447.6883        32     1.262     1.123  64.42   0
       158    372.4384    472.5169 300.1681607 +22.6128673     2815.113     70.00159      1.607     3.39    -3.231974     19.75964     257.2494        25     1.261     1.060  62.03   0
       159    997.4063    472.5962 300.3627298 +22.8003210     1141.564     69.87653      1.408     2.69    -3.848923     19.75964     132.5338        15     1.015     0.868  23.33   0
       160    616.6445    469.1137 300.2452411 +22.6851570     10482.62     70.01943      1.626     3.24    -3.232435     19.75964     914.8438        50     1.378     1.273  86.62   0
       161    633.9611    469.6477 300.2504581 +22.6905043     462.4424     70.07294      2.148     3.12    -3.319927     19.75964     39.17278         7     0.727     0.681  29.72   0
       162    950.0184    451.6242 300.3547701 +22.7800913     507.7835     70.05511      1.403     3.49    -3.613293     19.75964      64.4911        10     1.121     0.703 -52.76   0
       163    171.4932    449.6059 300.1131486 +22.5459808     1256.081     69.93016      1.652     3.19     -3.64244     19.75964     129.9541        20     1.205     1.021  81.07   0
       164    970.7725    438.7451 300.3654244 +22.7826107     763.1009     70.03728      1.397     3.13    -3.632723     19.75964     79.26167        14     1.023     0.885 -68.84   0
       165    557.2870    438.5721 300.2366893 +22.6585832     3711.964     70.03728      1.664     3.30    -2.951392     19.75964       326.42        36     1.382     1.201  48.59   0
       166    272.2636    438.0627 300.1482117 +22.5729167     411.8534     70.07294      1.547     2.95    -3.601985     19.75964     49.13062         6     0.845     0.510  52.60   0
       167    130.2307    431.6403 300.1061666 +22.5284401     399.0317     70.07294      1.436     2.20    -3.622526     19.75964     45.19112         5     0.690     0.459 -15.89   0
       168    670.9401    429.4726 300.2750226 +22.6900576     284.7158     70.07294      1.369     3.46    -3.487288     19.75964     36.05528         6     0.783     0.499   2.59   0
       169    761.5682    427.3699 300.3039284 +22.7166293     700.7853     70.03728      1.702     3.71    -3.564385     19.75964     65.70851        15     1.164     0.848 -59.22   0
       170    463.9069    424.9077 300.2120745 +22.6266476     3450.446     70.19765      1.636     3.33    -2.813887     19.75964     276.8356        34     1.340     1.216 -85.94   0
       171    952.8873    419.1403 300.3662176 +22.7716164     370.2482     70.12641      1.364     4.50    -3.564299     19.75964     36.68127         8     0.844     0.683  35.82   0
       172    855.7792    418.9027 300.3360293 +22.7424412     770.8516     69.96588      1.470     3.00    -3.557126     19.75964       75.583        11     0.884     0.811  46.45   0
       173    828.3307    406.4022 300.3315374 +22.7306214     211.9499     70.00159      1.506     5.32    -3.553069     19.75964     36.86057         6     1.071     0.747 -50.55   0
       174    351.4399    404.3864 300.1837635 +22.5870131     1402.564     70.05511      1.621     3.48    -2.875843     19.75964     132.4846        21     1.158     1.073  71.80   0
       175     69.9954    401.7043 300.0971821 +22.5017693      544.108     69.94802      1.519     3.46    -3.600068     19.75964     65.30065        11     1.160     0.715  63.47   0
       176    320.8488    393.7241 300.1777158 +22.5747736     17040.17     70.03728      1.646     3.24    -3.091457     19.75964     1490.995        66     1.475     1.344  63.81   0
       177    855.2744    390.9048 300.3449664 +22.7342454      858.888     70.17985      1.629     3.26    -3.544061     19.75964     93.27904        16     1.115     0.916  12.83   0
       178     17.3365    381.7150 300.0873233 +22.4802259     2930.466     70.14423      1.475     2.68    -3.598671     19.75964     322.8198        28     1.225     1.026  77.42   0
       179    731.1879    373.3803 300.3120029 +22.6920116     1075.283     70.00159      1.673     4.15    -3.129344     19.75964     86.34947        23     1.391     1.099  54.76   0
       180    946.2555    365.8752 300.3814516 +22.7543209     306.8092     70.05511      1.336     3.38    -3.539018     19.75964     37.58162         5     0.731     0.679  37.17   0
       181    393.0499    358.0546 300.2117491 +22.5861987     1169.099     70.07294      1.746     4.06     -2.83616     19.75964     87.04336        20     1.223     1.100  69.03   0
       182    832.2615    350.7134 300.3508493 +22.7157988     286.9162     70.12641      1.256     2.79    -3.513538     19.75964     43.15981         6     0.699     0.650  47.83   0
       183    468.8883    337.4256 300.2420360 +22.6030262     629.6895     69.98373      1.787     6.44    -2.837548     19.75964     50.72418        13     1.118     1.041  48.50   0
       184    713.5203    329.0124 300.3209091 +22.6739688     1252.718     70.01943      1.653     3.56    -2.879519     19.75964     113.2111        21     1.218     1.082  50.63   0
       185    974.8245    323.2765 300.4041918 +22.7506377     1812.405     70.05511      1.450     2.88    -3.352092     19.75964     182.6416        22     1.136     1.033 -40.18   0
       186    422.5012    313.6909 300.2353138 +22.5822973     287.8512     70.19765      1.350     3.07    -2.844624     19.75964     37.79742         5     0.761     0.695 -29.34   0
       187     97.0993    307.7263 300.1361155 +22.4829459      704.486     70.16204      1.567     3.69    -3.348526     19.75964     67.26512        17     1.117     0.997  58.26   0
       188    128.2407    308.0070 300.1456969 +22.4923733     329.8911     70.07294      1.267     2.93    -3.353832     19.75964     44.28116         7     0.712     0.681 -39.89   0
       189    990.3085    304.2644 300.4151928 +22.7498117     273.0439     70.14423      1.568     4.93    -3.230494     19.75964     34.23847         7     1.214     0.566 -72.72   0
       190    785.7225    290.2129 300.3559954 +22.6844646     354.0156     70.05511      1.625     3.94    -3.052885     19.75964     32.43145         6     0.790     0.563 -44.34   0
       191    883.3273    279.3625 300.3899299 +22.7105981     1195.666     70.00159      1.643     3.69    -3.080357     19.75964     95.79312        18     1.164     0.988 -67.96   0
       192    302.0335    277.2313 300.2096922 +22.5356914     1147.477     70.05511      1.514     3.27    -2.881807     19.75964      109.353        17     1.115     0.936 -78.60   0
       193    379.9653    272.0055 300.2356186 +22.5575697     662.2866     70.01943      1.719     4.55    -2.868837     19.75964     57.08215        10     1.051     0.877  23.01   0
       194    782.0837    270.9160 300.3611267 +22.6778287      431.619     70.16204      1.977     4.78    -2.983074     19.75964     29.56364         6     1.125     0.576 -22.04   0
       195    196.9391    264.2799 300.1812343 +22.5004415     369.7713     70.09077      1.171     3.97    -2.869734     19.75964     52.88395         9     1.266     0.470  64.26   0
       196    734.3769    261.0184 300.3494802 +22.6606854     986.5312     70.03728      1.683     4.17    -2.846126     19.75964     75.73996        17     1.108     1.041  -5.57   0
       197    799.1929    260.0079 300.3699977 +22.6798218     264.8171     69.89442      1.425     5.43    -2.993877     19.75964     38.39442         7     1.320     0.670  14.91   0
       198    218.4519    257.7195 300.1900485 +22.5050137     299.1501     70.03728      1.304     4.13    -2.777526     19.75964     31.74748         7     1.005     0.485  82.75   0
       199   1006.0601    252.8732 300.4367889 +22.7397560     557.5558     70.07294      1.984     5.68    -3.146172     19.75964     42.26013        11     1.212     0.749 -63.27   0
       200    738.6148    251.9570 300.3537415 +22.6593519     509.8007     70.05511      1.932     5.12    -2.851069     19.75964     33.70928         9     1.449     0.512  62.82   0
       201    658.6653    251.6042 300.3289600 +22.6352850     800.1947     70.05511      1.791     4.60    -2.829221     19.75964      54.0671        16     1.086     1.029  54.70   0
       202    854.3926    242.9892 300.3927209 +22.6914729     764.3474     69.91228      1.542     3.05    -2.923104     19.75964     96.61915        18     1.089     1.023 -85.71   0
       203    585.1667    243.2857 300.3087804 +22.6108602     569.6872     70.00159      1.798     4.80    -2.842602     19.75964     44.40869        10     1.052     0.847 -62.36   0
       204    866.3366    242.4275 300.3966252 +22.6948904     533.1438     70.03728      1.649     5.16    -2.918669     19.75964     42.11721        10     1.091     0.739 -23.50   0
       205    983.2692    232.4984 300.4362966 +22.7270704     576.2795     70.16204      1.499     3.95    -3.114239     19.75964     55.93689        13     1.072     0.871 -72.54   0
       206      6.8090    229.3907 300.1335060 +22.4333699     292.1877     69.93016      1.497     4.14    -2.513958     19.75964     28.12215         5     0.904     0.542  51.02   0
       207    217.1014    225.9736 300.1999326 +22.4954965     343.5743     69.98373      1.467     4.14    -2.485841     19.75964     45.23724         9     1.022     0.768  88.24   0
       208     79.3637    220.8318 300.1588127 +22.4526900     1346.275     70.07294      1.529     3.05    -2.473763     19.75964     133.9252        20     1.108     1.049 -70.66   0
       209     28.8512    217.7486 300.1441278 +22.4366455       196.86     70.07294      1.173     4.35    -2.466565     19.75964     38.48074         5     0.779     0.691 -34.29   0
       210    902.1369    216.9975 300.4160367 +22.6983073      367.232     70.03728      1.606     3.93    -2.927006     19.75964     51.26439         8     1.086     0.894  61.56   0
       211    236.5917    213.9852 300.2098802 +22.4979027     3311.035     69.94802      1.630     2.97    -2.529916     19.75964     334.8806        32     1.325     1.173  74.71   0
       212     20.8803    208.5326 300.1446437 +22.4316089     749.6172     70.14423      1.590     3.73    -2.448641     19.75964     80.40541        14     1.141     0.889 -83.47   0
       213    220.1890    204.4230 300.2078860 +22.4902367     245.1716     70.03728      1.471     4.85    -2.455795     19.75964     33.10816         6     1.122     0.595  72.59   0
       214    880.5212    195.1975 300.4163752 +22.6855640     2051.005     69.94802      1.596     3.05    -2.769999     19.75964     178.9926        24     1.202     1.061  26.50   0
       215    984.1071    193.8774 300.4490931 +22.7162167     1616.546     70.17985      1.477     3.04    -3.148266     19.75964     158.8617        23     1.197     0.981 -82.56   0
       216    429.8054    191.1517 300.2773614 +22.5493004     380.3219     70.01943      1.792     2.16    -2.839468     19.75964     47.27631         6     0.729     0.528 -37.53   0
       217    354.4117    182.2831 300.2567929 +22.5241428     488.0323     70.00159      2.039     4.26    -2.955015     19.75964     41.68367         6     0.941     0.642  17.50   0
       218    120.4251    180.2710 300.1847282 +22.4533716      356.549     70.03728      1.354     3.41    -2.416378     19.75964     36.34616         5     0.730     0.462  71.77   0
       219    481.4899    178.0059 300.2977049 +22.5610229     1034.521     69.94802      1.677     3.52    -2.461784     19.75964     97.88822        21     1.171     1.135 -55.54   0
       220    255.4886    157.8940 300.2339545 +22.4874687      3429.08     70.21544      1.621     3.10     -2.44336     19.75964      352.067        31     1.253     1.183  84.85   0
       221    106.6339    157.2199 300.1879237 +22.4426176     444.9881     70.05511      1.289     3.42    -2.393886     19.75964     41.07691         5     0.730     0.464 -76.70   0
       222    501.3966    143.1157 300.3152193 +22.5569691     3570.554     69.96588      1.681     3.36    -2.386812     19.75964       317.42        37     1.392     1.248  67.18   0
       223    386.9815    143.3518 300.2795529 +22.5227303     333.9391     70.07294      1.669     3.80    -2.880741     19.75964     34.82278         6     0.810     0.657 -31.43   0
       224    754.0434    132.5726 300.3972910 +22.6296653      394.551     70.05511      1.532     3.17    -2.510827     19.75964     47.38829         7     0.912     0.705  41.46   0
       225    194.6551    127.2102 300.2250046 +22.4604110     133.8787     70.03728      1.084     2.96    -2.415933     19.75964     35.75587         5     0.745     0.437 -71.85   0
       226    629.8046    123.1061 300.3616749 +22.5897122     3599.921     69.93016      1.711     3.35    -2.476584     19.75964     305.5952        36     1.384     1.269 -80.54   0
       227    404.7560    122.1836 300.2919483 +22.5219805     830.4534     70.05511      1.669     4.20    -2.766853     19.75964     68.30507        16     1.074     1.041 -39.78   0
       228    670.8152    120.4398 300.3753082 +22.6012370     412.1529     70.05511      1.645     6.02    -2.516466     19.75964     49.02666        10     1.154     0.884 -83.49   0
       229    741.1819    118.2120 300.3979441 +22.6216836     240.7082     70.00159      1.744     4.34    -2.489637     19.75964     22.67279         5     0.850     0.632  42.68   0
       230    686.8083    116.3826 300.3816043 +22.6048639     437.0877     69.98373      1.632     4.94    -2.502814     19.75964     42.25276        13     1.108     0.943  62.92   0
       231    154.0307    115.0112 300.2163402 +22.4447221      323.681     70.03728      1.388     3.59    -2.439435     19.75964     36.49232         5     0.670     0.553 -89.86   0
       232    674.0330    107.8498 300.3803945 +22.5985830     1596.894     70.07294      1.756     3.93    -2.483397     19.75964     126.5663        26     1.463     1.114  73.40   0
       233    689.1039    106.8083 300.3854252 +22.6028001     516.8464     69.93016      1.833     5.61    -2.475173     19.75964     36.52258        10     1.115     0.795  76.58   0
       234    760.4961     99.5130 300.4100263 +22.6220958     787.6943     70.21544      1.627     4.25    -2.425691     19.75964     67.78846        16     1.186     0.964 -28.96   0
       235    504.4645     92.6362 300.3325503 +22.5433867     635.7451     70.03728      1.795     5.26    -2.529038     19.75964     50.87772        15     1.263     1.099  47.40   0
       236     77.4292     92.6952 300.1997854 +22.4153348     333.0182     69.98373      1.481     3.11    -2.294206     19.75964     34.61306         5     0.715     0.461 -70.87   0
       237    408.5175     89.9857 300.3035630 +22.5138600     333.8864     70.01943      1.184     4.36    -2.628817     19.75964     47.34001         8     1.189     0.454 -79.09   0
       238    747.4274     81.1740 300.4119047 +22.6129083       335.83     70.00159      1.579     5.90    -2.320513     19.75964     39.47766         9     1.500     0.653  29.99   0
       239    179.4058     80.5168 300.2354129 +22.4424311     2057.538     69.96588      1.625     3.25    -2.478859     19.75964     205.4558        26     1.266     1.146  51.70   0
       240    740.7700     73.0475 300.4124671 +22.6085775     477.8933     70.05511      1.592     3.93    -2.246564     19.75964     40.78598        10     0.915     0.765  -8.95   0
       241    295.6231     72.5730 300.2741078 +22.4750063     737.1109     70.01943      1.603     4.62    -2.580126     19.75964      75.4332        12     1.199     0.765  71.56   0
       242    779.0108     67.4490 300.4261947 +22.6184252     286.5807     70.05511      1.902     4.50    -2.386882     19.75964     33.12785         5     1.011     0.569  74.94   0
       243    798.3642     63.9788 300.4333494 +22.6232256     1303.842     70.05511      1.605     3.17    -2.486208     19.75964     120.6721        22     1.214     1.055 -79.36   0
       244    619.0678     66.5990 300.3766630 +22.5702552     2199.101     70.00159      0.633     0.42     -2.46486     19.75964     1270.317         9     0.613     0.412 -58.77   0
       245    182.0154     59.6214 300.2430009 +22.4372144      511.669     70.01943      1.363     3.28    -2.493685     19.75964      62.6468        11     0.995     0.779 -20.37   0
       246    973.4171     57.1145 300.4901328 +22.6736842     415.2771     70.00159      1.500     4.37    -2.541292     19.75964     44.31833         7     0.921     0.591   6.38   0
       247    747.1439     56.2604 300.4198974 +22.6056613     494.6776      70.1086      1.602     5.74    -2.161347     19.75964     43.61225        10     1.159     0.799 -43.42   0
       248    599.4266     41.9897 300.3785305 +22.5572964     489.0835     70.03728      1.666     5.48    -2.573758     19.75964     44.57045        12     1.368     0.800  83.77   0
       249    762.8575     35.9333 300.4313846 +22.6045251     385.3752     70.07294      1.894     6.13    -2.196367     19.75964     31.58621        10     1.317     0.802  80.41   0
       250    570.9642     34.4919 300.3721031 +22.5466116     1076.352     69.98373      1.636     3.59     -2.61436     19.75964     112.1403        20     1.265     1.010  38.41   0
       251    293.9644     32.3215 300.2866465 +22.4629488     449.4398     69.98373      1.597     2.55    -2.742841     19.75964     48.15783         7     0.731     0.635  -6.91   0
       252      8.9642     30.3557 300.1987432 +22.3768999     390.3333     70.09077      1.362     2.86    -2.119641     19.75964     43.02591         7     0.747     0.643  20.09   0
       253    528.2983     28.0985 300.3608986 +22.5319869      767.541     70.23323      1.822     3.89    -2.650831     19.75964     70.39561        16     1.158     1.024 -67.27   0
       254    633.8557     24.7143 300.3948508 +22.5626486     731.8566      70.1086      1.620     4.84    -2.304562     19.75964     58.74921        15     1.147     0.967  58.94   0
       255    569.2008   1020.9804 300.0509663 +22.8292680     870.8757     66.69282      1.136     2.09    -5.995726     19.75964     158.8692        11     0.828     0.753 -50.50  16
