#   1 NUMBER                 Running object number                                     
#   2 X_IMAGE                Object position along x                                    [pixel]
#   3 Y_IMAGE                Object position along y                                    [pixel]
#   4 ALPHA_J2000            Right ascension of barycenter (J2000)                      [deg]
#   5 DELTA_J2000            Declination of barycenter (J2000)                          [deg]
#   6 FLUX_APER              Flux vector within fixed circular aperture(s)              [count]
#   7 FLUXERR_APER           RMS error vector for aperture flux(es)                     [count]
#   8 FLUX_RADIUS            Fraction-of-light radii                                    [pixel]
#   9 FWHM_IMAGE             FWHM assuming a gaussian core                              [pixel]
#  10 BACKGROUND             Background at centroid position                            [count]
#  11 THRESHOLD              Detection threshold above background                       [count]
#  12 FLUX_MAX               Peak flux above background                                 [count]
#  13 ISOAREA_IMAGE          Isophotal area above Analysis threshold                    [pixel**2]
#  14 A_IMAGE                Profile RMS along major axis                               [pixel]
#  15 B_IMAGE                Profile RMS along minor axis                               [pixel]
#  16 THETA_IMAGE            Position angle (CCW/x)                                     [deg]
#  17 FLAGS                  Extraction flags                                          
         1    165.1567     16.7186 300.2567008 +22.4138487     656.9412     70.07883      1.578     3.00    -2.458879     19.78145     78.34348        14     0.974     0.941  68.71   0
         2    103.4262   1021.5129 299.9109597 +22.6834297     1455.001     64.84454     12.717    17.57     4.150777     19.78145     65.45155        45     5.266     1.630   4.55  27
         3     71.1469   1020.1354 299.9013830 +22.6733337     1038.406     69.21585      5.365    12.28    0.3683038     19.78145     40.86829        25     2.378     1.766 -82.96  19
         4     76.7061   1021.2377 299.9027505 +22.6753203     1316.536     65.87906      5.482    12.16     1.271361     19.78145     46.96689        31     3.232     1.273 -41.44  27
         5     88.3118   1004.9395 299.9116627 +22.6741408     1981.352     70.18597     10.617    26.62      1.49917     19.78145     46.51506       168     6.595     2.984 -33.98  19
         6     89.9183   1017.1175 299.9081957 +22.6781112     2317.214     70.23946     12.114    25.76     2.761408     19.78145     60.48743       167     5.200     3.543 -18.43  19
         7    942.6265   1011.8957 300.1752327 +22.9326718     1201.246     70.06097      1.050     1.83    -5.573403     19.78145     245.6758        11     0.760     0.697  13.50   0
         8    731.5725   1000.5157 300.1131730 +22.8660728     503.6887     70.11456      1.880     6.66    -5.463098     19.78145     62.80899        11     1.691     0.794  58.21   0
         9    108.4767   1000.2468 299.9194540 +22.6788570     999.2119     70.11456      3.511     3.43      2.05427     19.78145     37.69373         5     1.088     0.313 -21.02   2
        10    429.2250   1020.7472 300.0124757 +22.7810940     388.2192     67.54952      1.605     5.56    -5.347741     19.78145     39.45325         8     0.980     0.889  39.58  16
        11    766.3151    995.0239 300.1257836 +22.8749252     492.9783      70.0967      1.154     2.45    -5.457983     19.78145     91.77217         9     0.849     0.663 -82.40   0
        12    788.5065    988.8287 300.1347145 +22.8798082     6716.803     70.04309      1.144     1.93    -5.443806     19.78145     1109.781        28     0.956     0.951  59.68   0
        13    979.4561    988.4871 300.1943399 +22.9370041     364.3972     70.18597      1.216     2.71    -5.284127     19.78145     53.45291         6     0.812     0.496 -86.45   0
        14    834.1931    988.4682 300.1490668 +22.8934150     380.1868     70.07883      1.220     2.01    -5.385467     19.78145     52.65466         5     0.677     0.457  23.58   0
        15     99.8634    980.8643 299.9230904 +22.6707172     340.0702     70.15028      1.147     2.19    0.2497899     19.78145     63.76537         7     0.698     0.641  86.90   0
        16    840.2878    976.5975 300.1548320 +22.8918385     282.8919     70.04309      1.166     3.11    -5.354685     19.78145     53.02402         6     0.837     0.692  -1.09   0
        17    493.3859    977.2584 300.0465991 +22.7878973     207.0365      70.0967      1.129     3.45    -5.252571     19.78145     36.93794         5     0.741     0.463  74.99   0
        18    797.1045    970.7867 300.1432690 +22.8772132     841.7501     70.04309      1.230     2.33    -5.397136     19.78145     140.1245        13     1.110     0.775  48.52   0
        19    980.3220    969.5804 300.2007675 +22.9318384     182.1098     70.11456      0.867     2.72    -5.059956     19.78145     55.30414         5     0.869     0.444 -78.74   0
        20    649.5174    968.6716 300.0979910 +22.8323106     156.4438     70.23946      1.025     3.49    -5.248254     19.78145      51.0975         5     0.802     0.437  68.94   0
        21    834.9866    964.5750 300.1570953 +22.8867988     549.8425     70.11456      1.429     3.12    -5.338212     19.78145     74.19128         9     0.925     0.694  87.65   0
        22    883.0132    954.9885 300.1751843 +22.8984585     422.2826     70.02522      1.550     5.56    -5.173347     19.78145     49.93872         9     1.525     0.753  72.02   0
        23    735.0368    954.6480 300.1291896 +22.8539572     395.6691     70.15028      1.197     3.05     -5.37893     19.78145     58.48083         7     0.871     0.617  -4.26   0
        24    746.2906    951.5386 300.1337074 +22.8564428     452.3844      70.2038      1.211     3.45    -5.375876     19.78145     51.29763        10     1.029     0.751 -50.09   0
        25    447.7254    951.0948 300.0409133 +22.7666862     2468.645     70.25729      1.272     2.11    -5.225574     19.78145     370.6015        22     1.005     0.968 -83.44   0
        26    172.7373    936.8412 299.9600626 +22.6800040     305.1928      70.0967      1.052     2.52     -3.33311     19.78145     85.02139         9     0.835     0.710  16.48   0
        27     81.4448    935.6525 299.9320904 +22.6522327     254.1681     70.13242      1.143     4.37     -4.29885     19.78145      33.9983         7     1.022     0.533  28.39   0
        28    150.0876    934.0800 299.9539246 +22.6724078     953.9724     70.25729      1.259     2.54    -3.623235     19.78145     140.3649        14     1.006     0.781 -18.28   0
        29   1021.6183    922.6030 300.2289430 +22.9307427     1164.996      64.2821      1.069     2.08    -4.481381     19.78145     186.7213        16     0.939     0.816 -52.59  24
        30     24.6537    923.7175 299.9183400 +22.6317480     392.3777     70.15028      1.748     3.40    -4.938202     19.78145     41.26234         7     0.942     0.633   3.92   0
        31    975.7497    921.0234 300.2151538 +22.9165317     1215.229     70.11456      1.179     2.01    -4.480711     19.78145     229.2616        15     0.947     0.787 -38.25   0
        32    759.4528    915.3567 300.1495885 +22.8500138     368.7632     70.15028      1.226     2.82    -5.167004     19.78145     80.77162         6     0.875     0.440  14.52   0
        33    181.7875    915.0386 299.9699726 +22.6764766     302.2104     70.11456      1.228     3.82    -4.078199     19.78145     34.41677         5     0.820     0.510  39.42   0
        34    627.4604    909.1077 300.1105181 +22.8086082      2772.79     70.18597      1.323     2.40    -5.015036     19.78145     363.9787        22     1.058     0.934  25.63   0
        35    116.9306    909.9584 299.9514771 +22.6555353     259.8414     70.07883      1.195     3.09    -4.577567     19.78145     45.24537         6     0.750     0.567  49.35   0
        36    429.7988    906.3924 300.0498911 +22.7484888     367.1292     69.93575      1.170     1.62    -5.024587     19.78145     60.85052         5     0.637     0.462 -21.02   0
        37    177.7275    903.1819 299.9725708 +22.6718598     824.8623     70.11456      1.387     2.46    -4.207286     19.78145     121.3894        13     1.017     0.799  56.00   0
        38    648.2380    901.5909 300.1194343 +22.8126887     422.5772     70.13242      1.314     3.69    -4.947626     19.78145     56.01503        11     1.205     0.672  27.55   0
        39    196.7404    900.7126 299.9792825 +22.6768641     239.1135     70.18597      1.117     3.89    -4.170652     19.78145     42.75568         6     0.970     0.448   4.22   0
        40    803.5319    888.8220 300.1719598 +22.8556274     2389.703     70.13242      1.242     2.20     -4.77685     19.78145     353.8612        20     0.963     0.908  20.32   0
        41   1020.3342    888.9130 300.2395115 +22.9206873     618.6517      68.7985      1.095     1.97    -4.193695     19.78145     113.1504         9     0.781     0.649  41.39  16
        42    211.8434    883.1918 299.9896790 +22.6763806     230.9403     70.13242      1.125     2.67     -4.20775     19.78145     46.09498         6     0.763     0.524 -38.33   0
        43    520.5602    881.3221 300.0862902 +22.7685510     414.8909      70.0967      1.420     3.97    -4.925106     19.78145     39.53522         9     0.954     0.703  62.99   0
        44    167.1761    879.8343 299.9768923 +22.6620005     627.1171     70.13242      1.299     2.60    -4.524233     19.78145     101.6144        12     0.934     0.813  26.95   0
        45    316.7286    871.7569 300.0260029 +22.7046062     30523.32     70.07883      1.347     2.40    -4.402028     19.78145     4155.945        65     1.218     1.190  58.69   0
        46    574.3854    870.5039 300.1065632 +22.7816062     909.0218     70.02522      1.384     2.92    -4.895636     19.78145      104.121        13     0.949     0.820  57.57   0
        47    987.1075    869.1025 300.2355992 +22.9050359     447.8026     70.29293      1.161     2.91     -4.02487     19.78145     82.89529         8     0.887     0.631  30.81   0
        48    603.4009    866.5175 300.1168928 +22.7891720     437.6854     70.00733      1.239     2.86    -4.879616     19.78145     67.69468         9     0.961     0.612 -88.50   0
        49      3.0063    866.6365 299.9301987 +22.6088938     518.8472     62.96346      1.273     2.70    -4.758641     19.78145      71.7081        10     0.897     0.803  86.26  16
        50    614.4821    864.9168 300.1208634 +22.7920388     303.4207     70.23946      1.031     3.40     -4.86159     19.78145     54.96706         6     0.794     0.500 -89.95   0
        51    719.0175    861.4725 300.1545354 +22.8224222     310.8234     70.11456      1.420     4.89     -4.66841     19.78145     30.79988         6     0.996     0.681 -54.92   0
        52    756.8720    851.2662 300.1696486 +22.8308525     462.8672     70.15028      1.521     3.64    -4.484898     19.78145     57.03452        10     0.963     0.740  39.81   0
        53    366.3839    848.9672 300.0488603 +22.7129850     18114.75      70.0967      1.399     2.53    -4.467436     19.78145     2326.792        55     1.263     1.158  52.04   0
        54    380.7511    849.5063 300.0531528 +22.7174536     1095.244     70.15028      1.389     2.77    -4.536655     19.78145     123.1738        14     0.979     0.832  34.19   0
        55    889.2130    844.4576 300.2131022 +22.8686007     1439.624     70.07883      1.219     2.19    -4.072006     19.78145     230.3579        15     0.910     0.852  20.88   0
        56    377.4618    843.5075 300.0540823 +22.7147462     407.1469      70.2038      1.703     3.32    -4.500675     19.78145     52.42924         6     0.901     0.460  75.58   0
        57    647.3270    840.5621 300.1390165 +22.7949105     432.1255     70.07883      1.192     3.14    -4.689245     19.78145     58.63158         9     0.882     0.735 -18.66   0
        58    483.4776    840.4475 300.0880559 +22.7456982     397.0996     70.11456      2.190     5.86     -4.73122     19.78145     32.19196         6     1.228     0.787 -33.51   0
        59    248.9536    840.7650 300.0150213 +22.6753687     402.4382     70.13242      1.329     2.19    -4.162927     19.78145      94.4471         6     0.778     0.570 -83.13   0
        60    494.3450    835.6157 300.0930098 +22.7475750     530.0055     70.07883      1.390     2.83    -4.724579     19.78145     57.57218        10     0.832     0.819 -12.24   0
        61     53.6135    836.2596 299.9557989 +22.6153985     219.7423     70.07883      1.215     3.43    -4.486566     19.78145     32.99287         5     0.758     0.448 -71.89   0
        62    895.8251    832.3405 300.2191071 +22.8671063     286.3886     70.11456      1.230     3.40    -4.012285     19.78145     38.19756         5     0.747     0.448 -15.01   0
        63    246.3576    824.8976 300.0193782 +22.6700414     178.0645     70.11456      1.013     3.05    -4.110095     19.78145     51.39641         5     0.921     0.351  42.73   0
        64    561.2225    811.2643 300.1217469 +22.7606655     822.8949      70.0967      1.371     2.69    -4.629132     19.78145     111.2522        14     1.024     0.897  74.58   0
        65    539.7549    813.2607 300.1144159 +22.7547947     513.6472     70.13242      2.002     3.74    -4.656694     19.78145     40.94384         7     0.859     0.596  56.52   0
        66    955.5430    809.7385 300.2450799 +22.8785292     2538.319     70.18597      1.182     2.16    -3.904562     19.78145     359.6673        20     0.940     0.908  72.76   0
        67    944.1975    801.0446 300.2443720 +22.8726311     912.8573     70.11456      1.253     2.43    -3.897695     19.78145     151.4904        13     0.895     0.845  50.42   0
        68    307.6125    795.3399 300.0480380 +22.6799642     408.3212     70.07883      1.057     2.33    -4.173663     19.78145     61.93612         6     0.658     0.608 -10.26   0
        69    770.3041    792.5151 300.1929539 +22.8180247     1417.281     70.29293      1.375     2.56    -3.977683     19.78145     150.1692        20     1.132     0.999 -77.39   0
        70    975.1656    791.1379 300.2572515 +22.8790739     838.4506     70.13242      1.222     2.19    -3.876806     19.78145      158.051        13     0.871     0.821  79.99   0
        71    156.5011    779.6126 300.0061904 +22.6300751     341.6096     70.02522      1.373     2.44    -4.224502     19.78145     57.94786         7     0.916     0.652 -82.39   0
        72    888.8120    769.3849 300.2374091 +22.8469329     85018.37     70.04309      1.317     2.43    -3.951445     19.78145     10471.94       102     1.259     1.220  75.10   0
        73    741.3376    769.7180 300.1913487 +22.8027930     428.8421      70.2038      1.547     5.05    -4.029445     19.78145     43.24092         8     1.092     0.666 -42.47   0
        74    575.2906    758.5291 300.1432854 +22.7497611     938.6246     70.27511      1.453     3.14     -4.23803     19.78145     95.96238        16     1.068     0.922  48.25   0
        75    756.4102    755.6668 300.2006157 +22.8032824     5331.263     70.11456      1.396     2.66    -4.025236     19.78145     584.8425        31     1.116     1.086  18.59   0
        76    258.0885    751.1143 300.0470318 +22.6524153     2774.521     70.25729      1.446     2.77    -4.004583     19.78145     309.5332        27     1.195     1.049  76.89   0
        77    340.1483    749.0920 300.0732013 +22.6764742     599.3369     70.16812      1.328     2.97     -4.03897     19.78145     76.39947        11     0.937     0.755 -82.64   0
        78    548.4742    744.2400 300.1395878 +22.7376147     443.7865      70.0967      1.781     4.98    -4.150865     19.78145      37.1091         9     1.141     0.615  57.45   0
        79    539.8998    736.6855 300.1393770 +22.7328745     1853.232     70.27511      1.482     3.09     -4.09831     19.78145     160.6101        20     1.079     1.008  52.76   0
        80    530.2353    730.4196 300.1384076 +22.7281768     844.1471     70.13242      1.656     3.61    -4.046528     19.78145     86.00022        18     1.181     1.009  60.88   0
        81    923.5198    727.5344 300.2618449 +22.8453271     264.4389     70.22163      1.144     2.84    -3.911686     19.78145     48.90632         6     0.848     0.461  74.26   0
        82    194.1349    726.5764 300.0351380 +22.6261768     252.8463      70.0967      1.253     2.86    -4.010759     19.78145     49.81158         5     0.927     0.335  85.60   0
        83    208.1256    725.0335 300.0399876 +22.6299359      311.766     70.11456      1.346     3.06    -3.997528     19.78145     51.99137         6     0.898     0.451  52.12   0
        84    455.1539    720.2701 300.1183473 +22.7027321     1084.872      70.0967      1.556     3.25    -4.011568     19.78145      95.8305        18     1.082     1.012  59.83   0
        85    109.0791    715.3750 300.0123555 +22.5974222     11499.06      70.0967      1.419     2.65    -4.088699     19.78145      1205.04        50     1.296     1.154  65.82   0
        86     29.7577    717.2488 299.9871105 +22.5741336     396.9684     70.13242      1.251     3.55    -4.096274     19.78145     49.64997        10     1.111     0.613 -85.38   0
        87    540.1161    715.4288 300.1463593 +22.7268418     603.7498     70.11456      1.500     4.05    -3.935568     19.78145     55.18004        13     1.039     0.830  75.93   0
        88    957.6047    701.2385 300.2810261 +22.8479971     574.4006     70.13242      1.195     2.94    -3.858546     19.78145         76.6        12     1.006     0.750 -25.31   0
        89     54.9316    699.7114 300.0006321 +22.5766699     856.9945     70.27511      1.776     6.11    -4.123596     19.78145     72.44444        15     1.474     0.766 -68.07   0
        90    897.8822    693.9616 300.2647746 +22.8280007     469.1403     70.07883      1.472     3.24    -3.930218     19.78145     49.84268         8     0.854     0.625 -48.54   0
        91    460.3685    688.2527 300.1303841 +22.6951138     370.2892     70.13242      1.602     4.67    -3.826665     19.78145     39.40337         8     1.013     0.638  84.04   0
        92    654.8607    684.8168 300.1920369 +22.7524872     205.0386     70.06097      1.072     3.95    -3.726209     19.78145      26.4524         6     0.764     0.584  44.89   0
        93    625.5259    685.3137 300.1827416 +22.7438291      352.806     70.23946      1.539     2.97    -3.655624     19.78145     41.79274         5     0.751     0.698 -35.00   0
        94    504.4957    684.1317 300.1454544 +22.7071745     521.3835     70.23946      1.808     3.76    -3.706251     19.78145     42.16387         9     1.033     0.631  20.93   0
        95    937.5906    679.5341 300.2818463 +22.8357643     1923.127     70.07883      1.421     2.51    -3.864552     19.78145     221.5709        24     1.110     1.058 -67.12   0
        96    469.6760    679.6169 300.1360887 +22.6954301     990.5496     70.11456      1.513     3.39    -3.732003     19.78145     99.33687        16     1.064     0.950  70.73   0
        97     31.9455    673.4982 300.0020191 +22.5622537     2951.077      70.2038      1.417     2.59     -4.16699     19.78145     346.2044        29     1.198     1.074  79.84   0
        98    333.2139    666.5632 300.0978896 +22.6507279     5178.894     70.11456      1.568     3.10    -3.974133     19.78145     488.7645        36     1.248     1.200  49.87   0
        99    455.5337    663.4601 300.1369435 +22.6865513     5068.871     70.15028      1.644     3.10    -3.730375     19.78145     501.3178        36     1.333     1.193  76.85   0
       100    867.0611    657.1263 300.2671492 +22.8081833     1068.405     70.15028      1.379     2.88    -3.842553     19.78145     116.7326        16     1.041     0.897 -79.63   0
       101    951.6348    654.4832 300.2943729 +22.8327815     6983.564     70.07883      1.388     2.66    -3.795027     19.78145      723.799        34     1.162     1.074  54.53   0
       102    516.1325    653.0356 300.1591891 +22.7017456     6576.707     70.11456      1.546     3.13    -3.580037     19.78145     647.3734        37     1.266     1.204  74.53   0
       103    243.7580    648.5347 300.0759422 +22.6187035     640.3705      70.0967      1.502     3.83     -4.02996     19.78145     68.08148        12     1.169     0.715  85.98   0
       104    685.4828    648.7553 300.2133014 +22.7513242     364.9196     70.07883      1.337     5.51    -3.589541     19.78145      37.3198         8     1.211     0.707 -60.45   0
       105    447.8527    641.2156 300.1417879 +22.6778654     2422.844      70.0967      1.568     3.36    -3.683335     19.78145     185.8866        26     1.218     1.136  57.79   0
       106    790.7133    641.0754 300.2485778 +22.7806808     396.0591     70.23946      1.448     4.85    -3.614285     19.78145      45.7714         9     0.994     0.671  18.76   0
       107    426.1841    639.7803 300.1355139 +22.6709509      727.308      70.0967      1.669     4.05    -3.764967     19.78145     63.59992        13     1.090     0.934  11.59   0
       108    180.3812    639.5699 300.0591612 +22.5971051     485.3495     70.11456      1.198     3.60    -4.040432     19.78145     67.51259         9     1.073     0.708  78.40   0
       109    867.3650    636.6302 300.2739097 +22.8023896      900.908     70.13242      1.497     3.38    -3.711014     19.78145     86.86408        15     1.114     0.848  -4.65   0
       110    748.4520    633.8953 300.2377468 +22.7659456     474.0121     70.18597      1.463     2.89    -3.574637     19.78145     51.30193         8     0.851     0.627 -44.14   0
       111    564.3870    628.7485 300.1821053 +22.7092556     117904.4     70.15028      1.662     3.31    -3.447042     19.78145     10752.41       150     1.532     1.479  62.73   0
       112    250.5730    628.8616 300.0844577 +22.6151086     2092.865     70.11456      1.576     2.90     -4.07425     19.78145      222.375        25     1.228     1.065  76.73   0
       113    455.1154    609.2158 300.1544528 +22.6708650     1522.788     70.07883      1.756     4.29    -3.539679     19.78145     111.9707        22     1.450     0.970 -76.37   0
       114    299.6302    612.2114 300.1051218 +22.6250602     306.4533     70.11456      1.381     3.35    -4.075321     19.78145     32.42905         5     0.734     0.455 -73.79   0
       115    851.7292    594.9949 300.2825756 +22.7857468     979.6146     70.06097      1.570     3.21    -3.512614     19.78145     94.35461        18     1.099     0.984  20.18   0
       116    723.1394    592.7722 300.2432341 +22.7465496     1483.391     70.13242      1.620     3.54    -3.395596     19.78145     122.7863        18     1.153     0.972  34.09   0
       117    510.7506    588.8300 300.1783919 +22.6817095     420.8022     70.13242      1.576     6.35    -3.363715     19.78145     42.03827        10     1.211     0.935 -79.95   0
       118    980.3378    586.5064 300.3254282 +22.8218632     688.6253      70.2038      1.408     2.74     -3.48219     19.78145     93.86141        13     0.937     0.846 -73.91   0
       119    966.1369    585.6616 300.3212748 +22.8173640      589.592     70.15028      2.066     2.74       -3.513     19.78145     54.24775         9     0.896     0.643  75.26   0
       120    852.0355    585.1134 300.2858840 +22.7830012     1322.608      70.0967      1.672     4.10    -3.505742     19.78145     114.5555        22     1.408     1.016  66.13   0
       121    890.2629    580.2458 300.2993814 +22.7930641     2333.614     70.15028      1.492     3.06    -3.541693     19.78145     223.2029        23     1.152     1.053  45.07   0
       122    981.7667    570.5054 300.3310763 +22.8176955     429.0064      70.0967      1.395     3.22    -3.336187     19.78145     51.14175         9     0.929     0.693  35.02   0
       123    122.7078    570.7667 300.0636116 +22.5600633     578.0076     70.06097      1.744     4.92    -3.880031     19.78145     46.73999        10     0.919     0.846  66.84   0
       124    664.5090    550.5010 300.2387171 +22.7168319     478.1493     70.27512      1.741     5.25    -2.938777     19.78145     49.81651         9     1.162     1.001  -6.14   0
       125    977.8753    542.7676 300.3388806 +22.8085616     400.2817     70.11456      2.025     4.60    -3.139629     19.78145     37.60539         6     0.979     0.613  61.47   0
       126    881.9719    538.8967 300.3102399 +22.7787037     537.8339     70.06097      1.404     3.23    -3.491611     19.78145     54.73117        10     0.897     0.770 -64.02   0
       127    866.0565    535.1551 300.3064955 +22.7728582     421.6168     70.13242      1.528     3.99    -3.477811     19.78145     53.37329         9     0.990     0.851 -73.39   0
       128    610.3419    533.7618 300.2272927 +22.6957812       1750.7     70.11456      1.648     3.41    -2.819615     19.78145     147.4473        22     1.195     1.072  13.14   0
       129    724.7355    543.1453 300.2598654 +22.7327814     476.8297     70.16812      1.624     3.83    -3.223656     19.78145     54.21005        10     0.917     0.769 -13.05   0
       130   1021.5449    512.4063 300.3623688 +22.8129268     666.1751     64.70923      1.420     3.23    -2.773386     19.78145      90.1852        14     1.025     0.894   1.52  24
       131    893.6597    512.5053 300.3224618 +22.7746274     315.7205     70.18597      1.326     3.94    -3.516536     19.78145      37.6084         6     1.070     0.415  54.32   0
       132    979.8001    511.0321 300.3497969 +22.8000220     474.1995     70.07883      1.320     3.14      -3.1332     19.78145     55.91424        10     0.900     0.730   8.96   0
       133    721.2411    507.5707 300.2703405 +22.7215200     723.5045     70.13242      1.839     6.05    -2.979885     19.78145     54.28687        16     1.386     0.991  31.07   0
       134    225.0734    506.3851 300.1163463 +22.5723313     436.3309     70.11456      1.481     4.55    -3.613448     19.78145     46.29655         8     1.158     0.641  10.86   0
       135    287.3051    501.6635 300.1372255 +22.5896542     2100.781      70.2038      1.666     3.28    -3.290119     19.78145     217.8196        25     1.272     1.075  71.00   0
       136   1020.1208    499.7092 300.3660517 +22.8088521     2429.056     69.34238      1.444     2.87     -2.78326     19.78145     260.2762        23     1.103     1.050  84.88  16
       137    234.5727    496.5947 300.1224806 +22.5723744     4267.646      70.0967      1.634     3.01    -3.540757     19.78145     465.4935        36     1.299     1.209  68.45   0
       138    999.9841    490.7663 300.3626783 +22.8002486     1027.412      70.0967      1.438     3.06     -2.95842     19.78145     98.74255        19     1.059     1.045 -35.62   0
       139    375.3325    490.6387 300.1681806 +22.6129062     2737.235     70.07883      1.808     3.47    -3.112086     19.78145     266.9149        34     1.417     1.278  30.88   0
       140    619.4026    487.2016 300.2452468 +22.6851337        10727     69.89993      1.744     3.69    -2.799371     19.78145     831.0271        52     1.433     1.352  58.63   0
       141    953.1099    469.2871 300.3550423 +22.7800308      461.868     70.27511      1.538     3.89    -3.340392     19.78145     54.07387        10     1.019     0.806 -51.78   0
       142    174.1007    467.5163 300.1131365 +22.5458843     1168.771     70.27511      1.529     3.08    -3.520085     19.78145      132.331        20     1.224     1.001  34.10   0
       143    559.9795    456.7665 300.2366386 +22.6585758     3691.719     70.11456      1.740     3.91    -2.908844     19.78145     319.1486        33     1.331     1.265  34.49   0
       144    973.4846    456.9013 300.3654204 +22.7825781     695.9319     70.27511      1.484     3.15    -3.152701     19.78145     72.78539        11     0.975     0.768  67.20   0
       145    275.2883    456.1294 300.1482864 +22.5729862     303.3429     70.27511      1.353     5.38    -3.260994     19.78145     33.90443         7     1.128     0.723 -58.03   0
       146    764.3726    445.6529 300.3038987 +22.7166717      662.749     70.13242      1.849     6.90     -2.86129     19.78145     46.45144        16     1.229     1.086 -66.38   0
       147    673.4335    447.1453 300.2750880 +22.6898358      280.075     70.13242      1.514     4.67    -2.760368     19.78145     29.51519         5     1.021     0.675 -25.29   0
       148    466.8023    443.1433 300.2120684 +22.6267184     3493.135     70.07883      1.720     3.51    -3.037652     19.78145     295.5133        33     1.323     1.265  44.05   0
       149    955.6736    437.3409 300.3662230 +22.7716210     390.1207     70.15028      1.856     5.96    -3.189045     19.78145      36.0156         9     1.228     0.815 -38.83   0
       150    858.6086    437.1282 300.3360333 +22.7424706     792.8455      70.0967      1.638     4.15    -3.087605     19.78145     62.78852        14     1.192     0.831 -87.94   0
       151    831.3973    425.1606 300.3314415 +22.7308771     249.9541     70.15028      1.422     4.44     -2.94675     19.78145     25.63455         7     0.904     0.619   9.29   0
       152    354.3546    422.2791 300.1838689 +22.5869981      1330.11     70.11456      1.680     3.64    -2.961558     19.78145     135.4913        25     1.327     1.129  66.32   0
       153     72.8510    419.8200 300.0971777 +22.5018144     562.7972      70.0967      1.441     3.42    -2.862547     19.78145     68.82784        11     1.020     0.755  46.61   0
       154    323.6379    411.7857 300.1777262 +22.5747715     16865.37     70.13242      1.734     3.50    -3.040668     19.78145     1434.372        63     1.487     1.380  70.15   0
       155    858.0730    408.9396 300.3450254 +22.7342127     740.8986     70.15028      1.644     4.03    -2.931166     19.78145     70.82738        17     1.141     1.036  87.86   0
       156     20.0431    399.8117 300.0872769 +22.4802246     2700.709     70.11456      1.530     2.99    -2.815502     19.78145     272.1968        30     1.285     1.149  86.74   0
       157    733.9391    391.2177 300.3121043 +22.6919152     1066.726     70.06097      1.712     3.93    -2.858018     19.78145     87.31451        20     1.178     1.092  46.37   0
       158    949.0021    384.0958 300.3814424 +22.7543233     361.9782     70.02522      1.414     4.81    -3.183235     19.78145     33.64184         8     0.868     0.754  18.99   0
       159    395.6829    376.1640 300.2117036 +22.5861624     1188.256      70.0967      1.796     4.44    -2.988684     19.78145     89.87748        22     1.363     1.103  44.63   0
       160    834.8334    369.6193 300.3505566 +22.7159522     356.9982     70.11456      1.505     4.19     -2.89719     19.78145     34.56154         6     0.753     0.664 -66.35   0
       161    471.7102    355.5181 300.2420617 +22.6030395     639.8758     70.22163      1.733     5.15    -2.995257     19.78145     48.16858        14     1.083     0.966 -63.47   0
       162    716.2720    347.2969 300.3208682 +22.6740049     1267.677     70.23946      1.751     4.05    -2.892979     19.78145     90.03591        21     1.262     1.102 -81.60   0
       163    977.4490    341.4153 300.4041770 +22.7505814     1951.679     70.15028      1.579     3.08    -3.276904     19.78145     173.8759        25     1.191     1.109  32.78   0
       164     99.9405    325.4805 300.1362343 +22.4828881    -809.8185     70.16812      1.428     3.57    -2.963396     19.78145     82.32349        16     1.085     0.996  68.17   0
       165    992.9261    321.5325 300.4154614 +22.7495038     222.1438     70.18597      1.288     4.36    -3.276829     19.78145     55.72691         7     1.079     0.628  42.43   0
       166    183.6223    317.1659 300.1649346 +22.5056137     315.0083     70.13242      1.382     3.37    -3.107338     19.78145     40.98716         6     0.926     0.641   4.85   0
       167    787.5508    308.6360 300.3556302 +22.6842628     322.9535     70.13242      1.208     3.45    -2.890853     19.78145     28.56332         5     1.098     0.314 -68.47   0
       168    885.9948    297.4332 300.3899482 +22.7105426     1138.916      70.0967      1.666     3.50    -2.935612     19.78145     119.3548        20     1.240     1.071  76.86   0
       169    304.8549    295.1222 300.2097773 +22.5356589     1180.194     70.15028      1.671     3.88    -2.963107     19.78145     99.28975        20     1.239     1.052 -51.48   0
       170    382.6265    290.4969 300.2354646 +22.5576580     511.9834     70.06097      1.702     6.02    -2.782934     19.78145     42.22077        12     1.155     0.952  70.97   0
       171    784.6534    289.6038 300.3609080 +22.6779267     143.6432      70.0967      1.172     3.47     -2.89175     19.78145     28.52569         5     1.034     0.337 -21.25   0
       172    199.3330    283.1483 300.1808631 +22.5005672     497.8267     70.13242      1.496     3.09    -3.017501     19.78145     64.26086         6     0.982     0.591 -36.76   0
       173    737.1793    278.7332 300.3496476 +22.6605766     886.3397      70.0967      2.048     5.99    -2.843522     19.78145     85.62331        16     1.318     1.038 -74.28   0
       174    221.0144    274.7141 300.1903401 +22.5046517     335.4837     70.06097      1.861     4.77    -3.045272     19.78145     32.69982         7     1.654     0.390  79.13   0
       175   1008.6623    271.4524 300.4366325 +22.7398229     550.6939     70.16812      1.262     4.05    -3.263723     19.78145     54.66344         7     0.989     0.473  10.22   0
       176    741.6458    270.3595 300.3537580 +22.6595095     444.4418     70.18597      1.968     5.35    -2.793942     19.78145     34.60467         7     1.134     0.713  54.28   0
       177    661.8323    270.0797 300.3289895 +22.6355083     703.1572     70.11456      1.681     5.23    -2.833247     19.78145     51.05109        15     1.094     1.024  -2.96   0
       178    588.1295    261.6302 300.3087847 +22.6109888      629.285     70.11456      1.945     5.38    -2.551112     19.78145     49.97795        11     1.325     0.617  85.16   0
       179    857.0779    260.8938 300.3928000 +22.6913788     764.3505     70.23946      1.659     4.55    -2.794168     19.78145      78.8699        17     1.199     1.050  72.99   0
       180    869.2259    260.1150 300.3968393 +22.6947946     524.0799      70.0967      1.646     6.25    -2.807316     19.78145     45.55268        12     1.247     0.881  37.64   0
       181    985.6008    250.4409 300.4362629 +22.7268757     674.0882     70.13242      1.450     3.39    -3.171823     19.78145     61.96561        13     0.952     0.888 -45.56   0
       182    220.2525    244.0798 300.2000490 +22.4956322     336.4175     70.13242      1.430     4.06     -2.76307     19.78145     43.05645         8     0.864     0.739  75.64   0
       183     82.0784    238.8450 300.1588146 +22.4526752     1239.531     70.11456      1.575     3.32    -2.510401     19.78145     101.9747        19     1.140     0.998  83.58   0
       184    905.0837    235.2050 300.4161046 +22.6983781     426.1619     70.04309      1.311     4.45    -2.817318     19.78145     43.71076         9     1.043     0.692  81.76   0
       185     31.4315    235.7946 300.1440742 +22.4366024     239.6985     70.11456      1.608     4.65    -2.486404     19.78145     35.90589         5     1.334     0.461 -59.55   0
       186    239.3368    232.0561 300.2098842 +22.4979064     3140.439     70.16812      1.731     3.37    -2.633147     19.78145     289.7326        33     1.385     1.230 -76.28   0
       187     23.8376    226.6494 300.1446845 +22.4317002     634.3005     70.13242      1.479     3.86    -2.442031     19.78145     76.18091        15     1.186     0.902  51.99   0
       188    223.3273    223.1555 300.2077972 +22.4905497     279.2886      70.0967      1.347     3.58    -2.567056     19.78145     31.57891         5     1.180     0.312  -9.30   0
       189    883.3275    213.3903 300.4164046 +22.6855910     1960.261     70.11456      1.662     3.64     -2.64254     19.78145     158.7274        28     1.405     1.158  62.14   0
       190    986.8193    211.8566 300.4491697 +22.7161492     1693.759     70.11456      1.624     3.01    -3.070571     19.78145     164.1558        26     1.286     1.112  77.81   0
       191    123.1591    197.6458 300.1849497 +22.4531801     362.1253     70.16812      1.477     4.37    -2.388492     19.78145     43.80151         8     1.079     0.709  30.21   0
       192    483.9810    196.0761 300.2976502 +22.5609408     846.7388     70.11456      1.593     3.82      -2.2718     19.78145     87.27274        17     1.163     1.023 -43.64   0
       193    258.2904    176.0934 300.2339408 +22.4875291     3309.054     70.27511      1.701     3.44    -2.328038     19.78145     297.8563        31     1.321     1.232 -82.72   0
       194    109.5188    175.7197 300.1878282 +22.4427964     361.0147     70.23946      1.544     5.12    -2.178682     19.78145     33.69426         9     1.015     0.758   5.64   0
       195    504.2345    161.1610 300.3152851 +22.5569852     3541.344     70.15028      1.778     3.61    -2.192259     19.78145     271.3444        34     1.357     1.283 -49.15   0
       196    390.2350    161.2845 300.2797765 +22.5228442      473.246     70.07883      2.002     5.52    -2.463939     19.78145     30.75929        10     1.045     0.822 -82.74   0
       197    756.2298    151.0629 300.3970276 +22.6296025     392.8783     70.13242      1.448     3.82    -2.085922     19.78145     38.51595         6     0.908     0.462  52.03   0
       198    632.5280    141.2238 300.3616922 +22.5897098     3567.932     70.15028      1.777     3.67    -2.031984     19.78145     283.6279        34     1.343     1.289  73.83   0
       199    407.6530    140.4712 300.2919490 +22.5220900     796.2443      70.0967      1.773     4.80     -2.37734     19.78145     59.47621        13     1.162     0.852 -57.19   0
       200    673.9972    138.8126 300.3753885 +22.6014436     316.2572     69.95365      1.443     4.91    -1.966389     19.78145     35.86763         8     1.048     0.651 -10.84   0
       201    156.8591    132.8580 300.2164461 +22.4446971     458.4378     70.18597      1.691     5.59    -2.109982     19.78145     35.59994        11     1.087     0.871 -64.20   0
       202    959.5070    131.9551 300.4665870 +22.6849985     311.8396     70.13242      1.610     4.59    -2.349675     19.78145     32.11719         7     0.990     0.605  31.73   0
       203    676.7378    126.1525 300.3803503 +22.5986271     1570.672     70.15028      1.754     3.66    -1.891825     19.78145     144.2215        28     1.323     1.272  32.95   0
       204    691.9319    125.0581 300.3854377 +22.6028653     503.7223     70.13242      1.991     5.43    -1.891977     19.78145     36.33137         9     1.038     0.800  45.89   0
       205    763.1447    117.7574 300.4099902 +22.6221027     795.5886     70.11456      1.725     4.24    -1.863298     19.78145     56.53473        18     1.268     0.985 -83.59   0
       206    701.0078    111.1971 300.3927623 +22.6016016     322.6907     69.93575      1.701     4.45    -1.808525     19.78145     32.90199         5     1.416     0.398  -0.05   0
       207    506.6674    110.4021 300.3325138 +22.5431354     595.2361     70.11456      1.895     4.76    -1.993291     19.78145     44.76783        11     1.079     0.815  74.62   0
       208     80.3099    110.9675 300.1997662 +22.4154529       302.98     70.07883      1.738     4.59    -1.944671     19.78145     28.35325         6     0.872     0.686  57.62   0
       209    411.1359    108.5080 300.3034041 +22.5139553     440.5851     70.22163      1.511     3.37     -2.27563     19.78145     54.66916         5     0.983     0.335  85.50   0
       210    182.2332     98.5760 300.2354544 +22.4424678     2251.838     70.11456      1.779     3.51    -2.093008     19.78145     198.3422        31     1.397     1.304   2.92   0
       211    750.6625     99.4541 300.4120404 +22.6131030     256.8531     70.16812      1.097     3.41    -1.734948     19.78145     43.65863         5     0.787     0.427 -22.74   0
       212    743.3029     90.5131 300.4126487 +22.6083287     520.0635     70.29293      1.909     6.14    -1.721456     19.78145     39.18951        11     1.288     0.891  24.24   0
       213    298.1219     90.4391 300.2741185 +22.4748840     681.3848      70.0967      1.771     5.02    -2.227032     19.78145     65.79041        12     1.176     0.928 -30.20   0
       214    800.9553     81.8542 300.4334209 +22.6231098     1318.304     70.13242      1.749     4.21    -1.721456     19.78145     109.8211        20     1.252     1.089  58.83   0
       215    184.4126     77.5083 300.2429666 +22.4370740     601.2698     70.06097      1.619     3.79    -2.178624     19.78145     59.03754        14     1.024     0.952  25.34   0
       216    975.9889     75.2640 300.4901219 +22.6736334     513.7428     70.06097      1.790     4.20    -1.916745     19.78145     37.47277         7     0.743     0.678  53.66   0
       217    749.3220     74.4566 300.4197333 +22.6055170     401.4697     70.15028      1.454     3.89    -1.721456     19.78145     50.55048         6     0.970     0.606  51.00   0
       218    602.4310     59.3632 300.3788819 +22.5571713       388.77     70.15028      1.630     5.71     -1.73331     19.78145     37.75405         9     1.151     0.797 -26.25   0
       219    765.4206     54.2497 300.4313044 +22.6045313     435.0355     70.11456      1.634     5.19    -1.721456     19.78145     44.47963        10     1.024     0.743   3.04   0
       220    573.8594     52.3580 300.3722594 +22.5465973     988.1201      70.0967      1.709     3.71    -1.655813     19.78145     97.83148        18     1.176     1.075 -77.79   0
       221    296.4736     50.4843 300.2865676 +22.4629175     306.8268     70.22163      1.386     4.16    -2.184771     19.78145     46.48756         8     0.899     0.756 -45.18   0
       222     11.8119     48.7840 300.1986641 +22.3770603     335.1096     70.06097      1.447     2.51    -1.639883     19.78145     45.82166         6     0.733     0.543  56.76   0
       223    531.0914     46.4621 300.3608593 +22.5320874     748.1522      70.2038      1.813     5.11    -1.571146     19.78145     60.26263        16     1.371     0.914  -4.55   0
       224    636.4255     43.0118 300.3947710 +22.5626583     844.4673     70.11456      1.769     5.42      -1.6185     19.78145     59.95302        18     1.329     1.006 -81.21   0
       225    232.0536     42.3266 300.2691864 +22.4412602     270.2963     70.11456      1.540     4.24    -2.337229     19.78145     28.03405         5     1.082     0.473 -63.97   0
       226    456.8371     36.8912 300.3408562 +22.5070846     1250.468      70.0967      1.797     4.31    -1.342873     19.78145     98.21551        21     1.275     1.126 -84.93   0
       227    104.2028     34.6964 300.2319308 +22.4007297     864.2778     70.02522      1.533     3.38     -1.74711     19.78145     91.30698        15     1.072     0.978  79.31   0
