#   1 NUMBER                 Running object number                                     
#   2 X_IMAGE                Object position along x                                    [pixel]
#   3 Y_IMAGE                Object position along y                                    [pixel]
#   4 ALPHA_J2000            Right ascension of barycenter (J2000)                      [deg]
#   5 DELTA_J2000            Declination of barycenter (J2000)                          [deg]
#   6 FLUX_APER              Flux vector within fixed circular aperture(s)              [count]
#   7 FLUXERR_APER           RMS error vector for aperture flux(es)                     [count]
#   8 FLUX_RADIUS            Fraction-of-light radii                                    [pixel]
#   9 FWHM_IMAGE             FWHM assuming a gaussian core                              [pixel]
#  10 BACKGROUND             Background at centroid position                            [count]
#  11 THRESHOLD              Detection threshold above background                       [count]
#  12 FLUX_MAX               Peak flux above background                                 [count]
#  13 ISOAREA_IMAGE          Isophotal area above Analysis threshold                    [pixel**2]
#  14 A_IMAGE                Profile RMS along major axis                               [pixel]
#  15 B_IMAGE                Profile RMS along minor axis                               [pixel]
#  16 THETA_IMAGE            Position angle (CCW/x)                                     [deg]
#  17 FLAGS                  Extraction flags                                          
         1    101.2617     17.4461 300.2318635 +22.4007462     779.4471     70.22862      1.495     3.08    -2.809566     19.80858     94.89629        17     1.125     0.936  34.90   0
         2    945.0118     16.2661 300.4948199 +22.6532199     121.2849     70.17496      1.265     4.88    -2.380988     19.80858     29.51525         5     0.907     0.744  -6.95   0
         3    104.8143   1019.7616 299.9072262 +22.6892547     1671.074     69.99581     10.400    14.89     9.514868     19.80858     40.73308        55     2.736     2.252  69.78  27
         4    115.7043   1016.1144 299.9117961 +22.6914824      1552.51     70.38935     12.380    20.70     8.918504     19.80858     46.72031        71     4.378     2.718 -12.00  27
         5    100.3219   1003.7532 299.9110442 +22.6833190     1395.665     70.21074     11.087    14.06     7.202051     19.80858      67.8487        42     3.640     1.512 -74.70  19
         6     85.3062   1016.0901 299.9023636 +22.6823406     2883.005     70.37151     14.203    40.24     6.640447     19.80858      75.4195       416     8.665     5.187  17.95  27
         7    463.0349   1017.9116 300.0191675 +22.7963351     490.5132     70.19286      1.176     2.41    -4.713483     19.80858     86.27688         9     0.784     0.707   3.24   0
         8    393.5857   1016.0739 299.9981667 +22.7749516     3664.095     70.21074      1.166     1.97     -4.73885     19.80858     636.7085        21     0.962     0.873  81.18   0
         9    177.1621   1018.5740 299.9300852 +22.7106541      327.127     70.22862      1.995     4.49      7.58622     19.80858     27.11246         5     1.191     0.482  -5.92  16
        10     85.6643    999.5885 299.9078485 +22.6777214     2267.725     70.15707     16.250    27.05     4.867046     19.80858     50.80708       183     7.801     2.605 -20.38  19
        11     81.9560    989.7422 299.9099032 +22.6737865     1930.905     70.22862     11.198    27.22     3.081668     19.80858     48.78309       155     7.665     2.684 -33.21  19
        12    426.1088   1003.0963 300.0125073 +22.7809991     309.8015     70.38935      1.143     1.85    -4.715965     19.80858     69.35925         6     0.706     0.518  54.46   0
        13    939.8143    994.4335 300.1752757 +22.9327029     1215.647     70.19286      1.079     2.00    -5.419618     19.80858      198.275        13     0.868     0.743  73.58   0
        14    437.4855    991.0219 300.0199778 +22.7809541     216.6147     70.15707      1.168     4.55    -4.700129     19.80858     30.67032         5     1.057     0.556 -15.12   0
        15    728.9726    983.2621 300.1132225 +22.8662343     501.4762     70.21074      1.787     6.03    -5.599694     19.80858     61.67552        11     1.439     0.831  60.02   0
        16    105.1642    983.8974 299.9190137 +22.6790861     868.9456     70.21074      7.139     7.74     4.302605     19.80858     32.07276        10     1.550     1.082 -12.95   3
        17    100.1531    982.3462 299.9179625 +22.6771360     799.8193      70.2465      3.385     3.57     4.009291     19.80858     40.69539         5     0.838     0.438  15.09   1
        18    540.6702    978.7838 300.0560633 +22.8084275     254.2134     70.22862      1.099     2.77    -4.599154     19.80858     46.84287         5     0.749     0.428  71.47   0
        19    763.6651    977.5978 300.1258720 +22.8750206     681.9272     70.22862      1.092     2.16    -5.492885     19.80858     99.46515         6     0.637     0.611 -87.79   0
        20    785.5854    971.2452 300.1347686 +22.8797759     6547.145     70.22862      1.122     1.92    -5.402134     19.80858     1095.574        30     0.976     0.957 -50.71   0
        21    976.7299    970.6472 300.1945302 +22.9369497     330.1824     70.19286      1.085     2.88    -5.404095     19.80858     49.38501         5     0.700     0.474   6.86   0
        22    918.1445    964.4042 300.1783009 +22.9175842     116.9133     70.17496      1.059     3.45    -5.217368     19.80858     29.41476         5     0.791     0.434  20.28   0
        23    491.1033    959.8890 300.0467941 +22.7881280     333.6257     70.38935      1.350     2.98     -4.68512     19.80858       46.208         5     0.760     0.512  61.67   0
        24    837.5495    958.7255 300.1550344 +22.8917755     273.7489     70.21074      1.173     3.44    -4.922958     19.80858     36.29116         5     0.759     0.450  69.69   0
        25    794.0534    953.3194 300.1432438 +22.8771736     851.1075     70.22862      1.147     2.03    -5.326914     19.80858     148.2646        11     0.917     0.659 -68.91   0
        26    976.8823    951.8069 300.2007130 +22.9315877     326.8287     70.13917      1.263     2.76    -5.391409     19.80858     57.70423         8     0.844     0.665 -80.06   0
        27    832.4459    946.8593 300.1573082 +22.8868393     450.9338      70.2465      1.205     2.92    -4.971821     19.80858     68.47009         9     0.967     0.633  23.21   0
        28    940.9683    943.5215 300.1922151 +22.9184372     287.9744     70.19286      0.979     2.65     -5.31111     19.80858      65.8248         6     0.862     0.498   3.17   0
        29    880.9729    938.2639 300.1752280 +22.8989312     392.4856     70.21074      1.345     3.24    -4.789058     19.80858     66.25484         8     1.147     0.598  58.12   0
        30    731.8877    937.0743 300.1291704 +22.8538588     451.8737     70.35367      1.458     2.73    -5.387997     19.80858     52.50208         7     0.787     0.673 -26.64   0
        31    444.7562    933.7610 300.0408840 +22.7667208     2427.795      70.3001      1.215     2.11    -4.649594     19.80858     378.7101        20     0.968     0.941 -36.48   0
        32    743.4833    934.1150 300.1337453 +22.8564894     422.1812     70.33582      1.108     3.23    -5.365558     19.80858      54.3382         6     0.777     0.497  85.03   0
        33    223.5235    922.2307 299.9758596 +22.6969758     317.0103     70.21074      1.442     4.60    -4.398513     19.80858     32.06512         7     1.410     0.426 -55.85   0
        34     86.8488    921.6281 299.9335989 +22.6557435     196.4875     70.22862      1.145     3.41    -3.933077     19.80858     27.12098         5     0.781     0.431  19.66   0
        35    170.0821    919.5607 299.9601246 +22.6801572     381.8328     70.17496      1.183     3.57    -3.718011     19.80858     60.64748        11     1.082     0.721  39.87   0
        36    147.1246    916.6165 299.9539513 +22.6724167     969.0638     70.21074      1.271     2.45    -3.711767     19.80858      127.375        14     0.900     0.891 -11.21   0
        37     78.4529    917.7921 299.9322404 +22.6521218     313.4076     70.21074      1.223     3.24     -4.09423     19.80858     35.32172         7     0.832     0.615 -12.53   0
        38     22.1729    907.0930 299.9182482 +22.6321460     358.5863     70.15707      1.659     4.52    -4.751853     19.80858     43.70239         6     1.113     0.521 -72.93   0
        39   1018.7097    905.0350 300.2289836 +22.9307055      1193.62     70.17496      1.139     1.87    -5.303246     19.80858     237.5668        13     0.882     0.775 -11.46  16
        40    972.8797    903.6167 300.2151559 +22.9165540     1139.912     70.21074      1.105     1.86    -5.151498     19.80858     207.7995        15     0.989     0.752 -52.55   0
        41    678.0959    904.7566 300.1229418 +22.8284449     361.5938     70.22862      1.847     5.13    -5.071004     19.80858     35.10001         8     1.402     0.530 -37.78   0
        42    179.7100    898.1105 299.9700982 +22.6769025     222.8435     70.37151      1.310     4.72    -4.203498     19.80858     41.65756         5     0.976     0.647 -59.91   0
        43    756.5594    897.4482 300.1497555 +22.8498925     247.7015     70.26437      0.965     2.59    -5.083376     19.80858     61.54637         5     0.698     0.458 -21.53   0
        44    624.6735    891.7186 300.1105545 +22.8086722     2645.022     70.31796      1.204     2.23    -4.801306     19.80858     392.5956        18     0.922     0.881  21.23   0
        45    114.2197    892.8995 299.9514510 +22.6557355     313.7228     70.13917      1.078     3.19    -4.226062     19.80858     52.34792         5     0.946     0.370 -32.48   0
        46    427.1477    888.9860 300.0499835 +22.7485956      289.861      70.2465      1.068     2.83    -4.592357     19.80858     58.75388         6     0.816     0.576   0.36   0
        47    836.0870    888.6414 300.1773971 +22.8712247     1193.751     70.19286      0.632     0.71    -4.689272     19.80858     728.9061         7     0.513     0.381 -84.67   0
        48    174.9537    885.9645 299.9725740 +22.6719930     712.4505      70.2465      1.287     2.65    -4.373882     19.80858     110.4439        11     0.912     0.742  74.19   0
        49    645.1820    884.0811 300.1194251 +22.8126361     397.1245     70.21074      1.327     3.20    -4.782817     19.80858      57.8884         8     0.803     0.686 -60.16   0
        50    194.5835    883.3823 299.9795131 +22.6771493     170.7379     70.19286      1.346     4.03    -4.510031     19.80858     34.28845         5     0.949     0.489 -85.38   0
        51    800.6011    871.4453 300.1719391 +22.8556441      2349.39     70.21074      1.149     2.08     -4.64923     19.80858       356.55        19     0.969     0.853 -87.93   0
        52   1017.5410    871.2895 300.2396049 +22.9206665     651.5029      70.3001      1.068     2.33    -5.035285     19.80858     103.5907        11     0.844     0.750 -27.72   0
        53    208.8514    865.8420 299.9896553 +22.6764076     246.8808     70.21074      1.191     2.19      -4.7299     19.80858     48.52959         6     0.739     0.524  48.35   0
        54    517.7854    863.8855 300.0863492 +22.7686070     268.1812     70.15707      1.088     2.64    -4.563411     19.80858     59.69416         8     0.813     0.634 -36.85   0
        55    164.0880    862.2974 299.9769014 +22.6619465     604.7155     70.38935      1.262     3.57      -4.7419     19.80858     108.0766        10     1.030     0.686 -77.29   0
        56    313.7850    854.2571 300.0260382 +22.7046001     31202.69     70.19286      1.278     2.22    -4.415746     19.80858     4572.977        66     1.171     1.144  82.92   0
        57    579.4099    857.3002 300.1076693 +22.7852145     384.7777     70.12127      1.386     2.97     -4.51534     19.80858     40.19178         5     0.713     0.461  71.71   0
        58    571.5867    852.8470 300.1066839 +22.7815891     1000.454     70.22862      1.302     2.55    -4.478429     19.80858     126.4741        15     1.032     0.939  66.11   0
        59    984.2770    852.1277 300.2354705 +22.9051901     590.6629     70.31796      1.107     2.17    -4.802102     19.80858     94.01115         8     0.768     0.628 -52.52   0
        60    242.1500    852.0161 300.0045023 +22.6824455     467.4738     70.22862      1.847     3.72    -4.651743     19.80858     47.73239         8     0.971     0.654 -65.93   0
        61    600.3758    849.0159 300.1168910 +22.7891302     496.9183     70.21074      1.183     2.58    -4.491724     19.80858     70.46331         9     0.848     0.656  28.48   0
        62    363.4512    831.5083 300.0488828 +22.7129906     18106.38     70.26437      1.286     2.30    -4.356606     19.80858     2213.438        48     1.164     1.095  62.45   0
        63    754.5019    834.0361 300.1697554 +22.8310785     546.8138     70.21074      1.375     2.71    -4.571792     19.80858     67.55795        10     0.935     0.665  26.37   0
        64    377.6749    832.1129 300.0531088 +22.7174344     1072.123     70.33582      1.247     2.55    -4.356606     19.80858     163.2224        13     0.896     0.815  43.40   0
        65    886.4688    827.0317 300.2131505 +22.8686530     1527.043     70.19286      1.149     1.95    -4.262013     19.80858     274.1173        17     0.914     0.856  54.00   0
        66    374.9801    826.0404 300.0542470 +22.7148841     379.2582      70.2465      1.146     3.62    -4.319109     19.80858     44.57739         5     0.622     0.615  84.13   0
        67    644.4329    823.3976 300.1389430 +22.7950014     572.1507     70.17496      1.239     2.87    -4.407588     19.80858     67.96768         9     0.837     0.749  55.41   0
        68    245.9002    823.4552 300.0149623 +22.6753846     467.0486      70.3001      1.147     2.92    -4.618313     19.80858     70.59012         7     0.898     0.495   3.90   0
        69    491.5829    818.3260 300.0930244 +22.7476748     601.2776     70.21074      1.359     2.75    -4.275196     19.80858     75.83411        11     0.900     0.796  78.63   0
        70     50.8496    819.1547 299.9557712 +22.6155667     382.5786     70.22862      1.523     3.21    -4.665312     19.80858     36.88442         8     0.814     0.668  42.66   0
        71    892.7368    814.8902 300.2190554 +22.8670474      160.331      70.3001      1.085     3.12    -4.175163     19.80858     51.22069         6     0.855     0.496  51.20   0
        72    349.5962    814.3720 300.0501514 +22.7039171     281.8715     70.17496      1.506     4.11    -4.242637     19.80858     25.03698         5     0.989     0.488 -86.73   0
        73    437.2799    813.1318 300.0778225 +22.7298850     246.1425     70.31796      1.463     3.92    -4.239202     19.80858     41.14987         5     0.969     0.454  41.58   0
        74     78.9975    812.8312 299.9665695 +22.6222104     433.1379     70.17496      1.401     2.79    -4.701941     19.80858     46.56047         8     0.823     0.638 -48.51   0
        75    243.5742    807.7009 300.0193659 +22.6701697     259.1071     70.15707      0.962     2.14    -4.633695     19.80858     52.95363         5     0.668     0.467  70.13   0
        76    536.4570    796.5784 300.1140634 +22.7549048     342.5247     70.22862      1.400     2.76    -4.134546     19.80858     51.10635         7     0.902     0.477  79.29   0
        77    558.2489    793.6779 300.1217886 +22.7606126     751.7463     70.21074      1.329     2.91     -4.12509     19.80858     89.24252        14     1.038     0.848  20.29   0
        78    445.8138    795.4093 300.0862437 +22.7273638     260.1159     70.12127      1.287     3.21    -4.141911     19.80858      32.3259         5     0.734     0.451 -19.68   0
        79    952.8204    792.3894 300.2451057 +22.8786052     2528.131     70.19286      1.127     1.94    -4.273591     19.80858     446.3741        20     0.964     0.869  66.62   0
        80    478.3524    793.2521 300.0970675 +22.7365117     187.4301      70.2465      1.269     2.42     -4.13008     19.80858     41.50092         5     0.724     0.436  70.26   0
        81    941.3239    783.8634 300.2442963 +22.8727099     917.7178     70.28224      1.155     2.37    -4.162502     19.80858     133.8293        12     0.918     0.732  -3.16   0
        82    304.3400    778.0803 300.0478904 +22.6799233     232.3147     70.26437      1.130     2.45    -4.119174     19.80858     63.49571         7     0.758     0.663  30.65   0
        83    767.4907    775.2020 300.1929469 +22.8180894     1428.109     70.13917      1.320     2.36    -4.150797     19.80858     196.8116        18     1.013     0.955 -21.66   0
        84    972.3080    773.7211 300.2572558 +22.8790880     953.7964     70.33582      1.141     2.06    -4.280489     19.80858      159.032        12     0.885     0.738  25.85   0
        85    153.0866    762.0099 300.0061162 +22.6298977     392.0233     70.15707      1.417     3.54    -4.514042     19.80858     49.59491         7     0.966     0.560  34.05   0
        86    850.2025    760.8512 300.2233848 +22.8387775     355.8492     70.21074      1.616     5.14    -4.029761     19.80858     30.37167         8     0.995     0.751  26.16   0
        87    886.0254    752.0297 300.2374184 +22.8469876     85288.12     70.21074      1.287     2.17    -4.020358     19.80858     13106.96       112     1.280     1.179  72.33   0
        88    738.8339    752.5726 300.1913840 +22.8029982     476.9552     70.22862      1.429     3.97    -4.052795     19.80858      49.1209        10     1.041     0.788 -82.80   0
        89    918.4246    744.4321 300.2499883 +22.8545213     313.0906     70.21074      1.392     4.80     -4.02553     19.80858     49.31857         8     1.323     0.543  29.96   0
        90    572.2842    741.2330 300.1432198 +22.7497775     865.4174     70.17496      1.269     2.77    -3.967072     19.80858     117.7101        14     1.022     0.801 -83.06   0
        91    753.4974    738.1666 300.2006379 +22.8032616     5444.065     70.19286      1.341     2.53    -3.985976     19.80858     643.3451        33     1.113     1.087  46.72   0
        92    255.1893    733.5435 300.0471020 +22.6523961     2849.202     70.19286      1.338     2.54    -4.042171     19.80858     330.3336        23     1.086     0.985  61.42   0
        93    337.1225    731.6356 300.0731914 +22.6764466      769.195     70.17496      1.291     2.48    -4.041315     19.80858     91.26071        10     0.896     0.658  61.08   0
        94    545.4313    727.1191 300.1394544 +22.7376704     433.2991     70.21074      1.270     2.79    -3.889509     19.80858     67.95416         8     0.962     0.593  27.20   0
        95    536.9917    719.2606 300.1393845 +22.7328832       1783.1     70.19286      1.396     2.71    -3.853485     19.80858     207.8787        18     1.013     0.939 -74.76   0
        96    527.2947    712.9326 300.1384254 +22.7281578     915.1369     70.35367      1.390     2.73    -3.841616     19.80858     92.45789        14     0.956     0.859  80.96   0
        97    190.7490    709.0092 300.0350575 +22.6260131     395.2665     70.21074      1.465     3.86    -4.151344     19.80858     35.62461         6     0.904     0.471 -53.80   0
        98    204.8646    707.6944 300.0398711 +22.6298745     409.6859     70.31796      1.313     2.79     -4.10518     19.80858     56.63733         7     0.757     0.619  27.24   0
        99     90.8539    707.8906 300.0043901 +22.5956947     270.2983     70.26437      1.365     4.00    -4.282671     19.80858     26.42364         6     0.782     0.585  43.66   0
       100    452.0028    702.7963 300.1182981 +22.7026558     1075.155     69.99581      1.471     2.96    -3.967001     19.80858     110.3841        16     1.081     0.865  36.53   0
       101    230.7170    704.1760 300.0490489 +22.6366278     325.0311     70.17496      1.638     3.94     -4.04295     19.80858     38.54344         7     0.976     0.791   8.72   0
       102    973.9864    703.7051 300.2805582 +22.8594840     183.5454     70.13917      0.994     2.33    -3.882271     19.80858     48.12518         5     0.835     0.456  -0.83   0
       103    551.0261    702.0214 300.1493594 +22.7321479     324.4247     70.19286      1.567     5.68    -3.721233     19.80858     44.30826         7     1.401     0.648 -76.02   0
       104    106.1591    697.9034 300.0123918 +22.5974281     11449.96     70.22862      1.333     2.38    -4.239566     19.80858      1510.84        42     1.212     1.059  59.73   0
       105     26.9741    699.4731 299.9872914 +22.5740964      443.608     70.21074      1.226     2.16    -4.247485     19.80858     72.99028         8     0.786     0.625 -88.79   0
       106    536.7940    698.1721 300.1461825 +22.7267730     558.0427     70.21074      1.459     3.31    -3.726391     19.80858     72.61745        10     0.922     0.856  30.11   0
       107    954.8369    683.8545 300.2810451 +22.8480421     533.7325     70.22862      1.248     2.91     -3.80315     19.80858      73.3414        11     0.875     0.804 -66.94   0
       108     52.0375    682.0983 300.0007242 +22.5766439     927.9026     70.21074      1.753     5.41    -4.181021     19.80858     72.51825        19     1.597     0.875 -85.65   0
       109    821.8116    682.0875 300.2401613 +22.8076501     143.4583     70.15707      1.248     4.47    -3.760979     19.80858     39.83939         5     0.920     0.650 -65.92   0
       110    500.1665    678.7267 300.1411102 +22.7102033     289.2638     70.21074      1.569     4.44    -3.782281     19.80858      29.3619         5     0.816     0.688  31.03   0
       111    894.9502    676.5712 300.2647468 +22.8279962     476.9737     70.22862      1.650     3.68    -3.757201     19.80858      53.4789         9     0.996     0.706 -25.68   0
       112    457.2913    670.9437 300.1303029 +22.6951046     467.0181     70.26437      1.546     4.11    -3.901157     19.80858      51.9218         8     1.021     0.703  48.69   0
       113    622.9593    667.5550 300.1829585 +22.7438377      303.658     70.28224      1.316     2.52    -3.492304     19.80858     40.92278         6     0.775     0.496   3.16   0
       114    501.3796    666.8233 300.1453589 +22.7071518     445.0258     70.21074      1.226     3.23     -3.71029     19.80858       55.856         8     0.890     0.599  81.61   0
       115    934.9146    662.0878 300.2819142 +22.8358182     1917.128     70.33582      1.307     2.50    -3.715618     19.80858      255.097        20     0.988     0.923  58.90   0
       116    466.8035    662.2479 300.1360900 +22.6954641     1040.935     70.19286      1.447     2.79    -3.808765     19.80858     140.9606        17     1.041     0.959  62.73   0
       117     28.8399    656.0887 300.0019793 +22.5622216     3032.851     70.19286      1.415     2.49    -3.950114     19.80858     393.4607        26     1.097     1.042 -86.60   0
       118    330.2807    649.0902 300.0979110 +22.6507180     5249.795     70.31796      1.442     2.73     -4.00398     19.80858     564.9695        29     1.136     1.088  54.56   0
       119    452.6764    646.0485 300.1369633 +22.6865771     5155.077     70.21074      1.496     2.88    -3.762619     19.80858     554.5588        37     1.286     1.147  74.53   0
       120    864.1827    639.7227 300.2671423 +22.8081896     1062.768     70.21074      1.365     3.04    -3.640337     19.80858      115.937        18     1.246     0.817  66.00   0
       121    948.8043    637.0866 300.2943750 +22.8328011     6969.246     70.13917      1.297     2.33    -3.616874     19.80858     945.6099        34     1.107     1.037  88.25   0
       122    513.1807    635.6227 300.1591770 +22.7017398     6596.673     70.21074      1.524     2.89    -3.445577     19.80858     644.0379        39     1.278     1.195 -72.43   0
       123    683.2274    631.1675 300.2135557 +22.7514705     206.8475     70.21074      1.276     3.87    -3.425614     19.80858     40.76771         7     1.033     0.507 -65.98   0
       124    240.7122    631.3100 300.0758511 +22.6187330     776.8691     70.37151      1.340     2.92    -3.911835     19.80858     95.60958        14     0.966     0.919  33.82   0
       125    444.9274    623.9014 300.1417544 +22.6778975     2489.627     70.33582      1.475     2.94    -3.689293     19.80858     242.7357        26     1.169     1.092  59.98   0
       126    787.9150    623.7770 300.2485643 +22.7807431     406.0484     70.15707      1.202     2.14    -3.495271     19.80858     59.70406         6     0.682     0.567  51.87   0
       127    423.1381    622.1091 300.1355598 +22.6708450     735.7207      70.3001      1.619     4.10    -3.842397     19.80858     65.25711        16     1.109     1.033 -67.26   0
       128    177.5696    622.2512 300.0591757 +22.5971797     389.8686      70.2465      1.336     3.71     -3.94866     19.80858     57.80519         6     0.959     0.413 -71.60   0
       129    864.5707    618.9973 300.2740028 +22.8023539     890.7267     70.15707      1.407     3.07    -3.589267     19.80858     96.73993        17     1.102     0.942 -59.32   0
       130    745.2339    615.9411 300.2378173 +22.7656947     416.4149     70.22862      1.409     4.42    -3.458345     19.80858     45.92185         8     0.847     0.660  54.02   0
       131    561.4736    611.3038 300.1821125 +22.7092487     117083.8     70.33582      1.570     3.03    -3.238232     19.80858     11048.21       139     1.442     1.432 -52.12   0
       132    247.6951    611.5757 300.0844376 +22.6151693     2086.246     70.10336      1.486     2.71    -3.877982     19.80858     259.1576        26     1.239     1.045 -63.98   0
       133    813.3616    606.7954 300.2620139 +22.7834966     356.4751     70.22862      2.202     4.24    -3.432839     19.80858     27.29676         5     0.953     0.537  38.86   0
       134    452.0428    592.0241 300.1543321 +22.6708856      1575.89     70.26437      1.626     3.72    -3.431041     19.80858     158.9235        21     1.376     0.966  88.28   0
       135    848.9563    577.5533 300.2826123 +22.7857701     1030.695      70.2465      1.480     3.09    -3.213646     19.80858      93.9614        15     1.034     0.897  55.45   0
       136    720.2684    575.3319 300.2432451 +22.7465484     1446.309     70.26437      1.463     3.07    -3.242891     19.80858     135.2409        18     1.121     0.941 -76.68   0
       137    507.6909    571.4457 300.1783348 +22.6816752     430.0549     70.19286      1.635     5.82    -3.054008     19.80858     38.52611        11     1.118     0.853  85.87   0
       138    977.4433    569.1249 300.3254017 +22.8218621     786.7686     70.19286      1.340     3.09    -3.259742     19.80858      86.8045        13     0.944     0.911   2.79   0
       139    963.1998    568.4113 300.3211929 +22.8173883     348.5255     70.03168      1.243     2.88    -3.241933     19.80858     50.95945         7     0.814     0.607  86.91   0
       140    849.2988    568.1393 300.2857796 +22.7831690     1077.377     70.28224      1.397     3.14    -3.111747     19.80858     114.0695        16     0.998     0.976  -1.19   0
       141    887.3934    562.7791 300.2993939 +22.7930488     2341.839     70.19286      1.405     2.83    -3.109465     19.80858      241.862        22     1.118     1.010  46.56   0
       142    119.7436    553.5754 300.0635372 +22.5601259      569.695     70.21074      1.355     2.69    -3.580044     19.80858     80.39941        11     0.960     0.752  48.05   0
       143    979.4992    553.0508 300.3312684 +22.8178602     451.6328      70.3001      1.342     3.96    -3.163399     19.80858     48.50814         9     0.933     0.683  19.78   0
       144    112.6673    543.6131 300.0645772 +22.5551447     180.8741     70.21074      1.232     4.15    -3.496238     19.80858     33.25053         7     1.049     0.611 -71.70   0
       145    719.8478    537.5622 300.2553922 +22.7355770     297.2885     70.22862      1.503     4.73     -3.11299     19.80858     31.98869         6     0.946     0.672 -79.77   0
       146    660.6843    533.4078 300.2383192 +22.7166436     473.0146     70.13918      1.508     3.81    -3.109605     19.80858     57.46154         8     0.847     0.786  87.69   0
       147    975.4700    525.4899 300.3389713 +22.8087341     249.5786     70.37151      1.225     4.51    -2.887632     19.80858     47.46576         7     1.055     0.551  46.22   0
       148    879.2034    521.7756 300.3101703 +22.7788155     570.2177     70.17496      1.468     4.22    -2.868428     19.80858     51.50282        12     1.066     0.815  88.67   0
       149    863.3643    518.0988 300.3064293 +22.7730118     353.3835     70.21074      1.380     5.05    -2.841887     19.80858     47.60027         8     1.112     0.648 -71.12   0
       150    607.4422    516.2603 300.2273172 +22.6957539     1875.425     70.19286      1.594     3.16     -3.06431     19.80858     169.5263        25     1.230     1.114  51.51   0
       151    721.6182    525.8290 300.2597574 +22.7327386     548.2657     70.19286      1.566     4.04    -3.088655     19.80858     45.23893        12     1.036     0.810  33.13   0
       152   1018.7267    495.0438 300.3623553 +22.8129474     716.9301     70.19286      1.238     2.44    -2.307399     19.80858     111.7069        12     0.975     0.730  85.02  16
       153    977.0137    493.5621 300.3498300 +22.8000227     503.1958     70.22862      1.425     3.13    -2.532626     19.80858     65.18095        10     0.979     0.657  56.34   0
       154    717.8980    490.3103 300.2701428 +22.7214231      648.483     70.38935      1.762     5.10    -3.022151     19.80858     57.85602        14     1.244     0.832 -80.47   0
       155    222.3303    488.8685 300.1164396 +22.5723588     485.4188     70.26437      1.936     3.91    -3.044079     19.80858     44.83978         9     0.998     0.879 -89.99   0
       156    284.4559    484.4241 300.1371929 +22.5897268      2094.36     70.22862      1.577     3.06    -2.971953     19.80858     214.4876        24     1.200     1.057  70.54   0
       157   1017.3173    482.1725 300.3660990 +22.8088262     2445.613     70.21074      1.283     2.50    -2.098941     19.80858     307.6438        18     1.038     0.865  76.62  16
       158    231.6731    479.0957 300.1225187 +22.5723590     4451.565     70.33582      1.562     3.02    -2.934772     19.80858     442.9521        35     1.265     1.189  76.45   0
       159    372.4304    473.2299 300.1681825 +22.6129104     2867.682     70.19286      1.617     3.16    -2.956615     19.80858     279.0698        31     1.306     1.184  87.33   0
       160    997.2555    473.2428 300.3627451 +22.8002491     948.4114     70.21074      1.286     2.52    -2.232475     19.80858     114.1218        16     1.083     0.836  82.22   0
       161    616.5107    469.7927 300.2452415 +22.6851318     10825.73     70.12127      1.622     3.22    -2.994935     19.80858     1034.044        51     1.343     1.305  46.39   0
       162    634.3441    469.9899 300.2507292 +22.6905358     481.7648     70.21074      2.199     5.21     -3.00374     19.80858     42.40681         7     1.488     0.515 -16.52   0
       163    237.0539    457.5872 300.1311797 +22.5678030     302.0504     70.22862      1.637     4.17    -2.929837     19.80858     28.25401         5     0.773     0.642 -80.02   0
       164    950.0682    452.0987 300.3549038 +22.7800340     339.1144      70.3001      1.341     5.11    -2.629969     19.80858     37.62917         9     1.161     0.637 -83.94   0
       165    171.3753    450.2018 300.1131702 +22.5459743     1198.918     70.15707      1.547     3.26    -3.068662     19.80858     117.6698        20     1.149     1.034  66.97   0
       166    557.1473    439.2773 300.2366794 +22.6585688     3738.341      70.2465      1.626     3.49    -2.533334     19.80858     333.0457        33     1.254     1.218 -57.98   0
       167    970.6396    439.3780 300.3654508 +22.7825424     657.1466      70.2465      1.295     2.64    -2.460433     19.80858     82.05923        11     0.893     0.775  17.24   0
       168    271.7292    438.7212 300.1480868 +22.5727946     371.8889     70.31796      1.701     4.50    -2.932035     19.80858     33.45053         6     1.060     0.543  56.40   0
       169    129.9445    432.1608 300.1061603 +22.5283649     160.8241     70.21074      1.460     4.75    -3.001934     19.80858     35.81916         7     1.112     0.574 -68.59   0
       170    670.5796    429.9966 300.2750062 +22.6899153     279.2419     70.17496      1.231     3.80    -2.827919     19.80858     35.48415         5     0.794     0.580   0.39   0
       171    761.3914    428.2149 300.3038674 +22.7166265     617.1684     70.12127      1.620     3.86    -2.920048     19.80858     46.77907        13     1.116     0.804  68.37   0
       172    463.8491    425.6589 300.2120733 +22.6266789     3541.041     70.26437      1.641     3.31    -2.726034     19.80858     281.4054        31     1.261     1.202  33.03   0
       173    855.7078    419.8123 300.3359831 +22.7424806     793.7178     70.15707      1.531     3.45    -2.877151     19.80858      83.9264        16     1.067     0.974  65.38   0
       174    952.8503    419.7572 300.3662798 +22.7715738     318.0446      70.2465      1.236     3.85    -2.645983     19.80858     46.18522         6     1.071     0.536 -70.95   0
       175    828.4409    407.2156 300.3315789 +22.7306899     290.3474     70.22862      1.224     3.11    -2.881188     19.80858     37.15482         5     0.731     0.448  68.30   0
       176    351.3817    404.8479 300.1838544 +22.5869706     1567.404      70.2465      1.712     3.82     -2.91531     19.80858     121.8391        23     1.255     1.147  81.58   0
       177     69.9880    402.1478 300.0972874 +22.5017609     448.3857     70.21074      1.508     4.42     -2.94209     19.80858     59.81194         9     0.995     0.742  39.66   0
       178    320.7176    394.3282 300.1777375 +22.5747527     17242.37     70.33582      1.629     3.23    -2.896267     19.80858     1659.819        60     1.418     1.301 -89.21   0
       179    855.3361    391.5040 300.3450640 +22.7342355       834.98      70.3001      1.593     3.83    -2.843386     19.80858     76.19685        13     1.029     0.878 -15.31   0
       180     17.1658    382.3841 300.0873042 +22.4802376     2723.063     70.19286      1.422     2.82    -2.859473     19.80858     281.7215        23     1.126     1.004  87.56   0
       181    770.8685    380.7937 300.3222255 +22.7058444     354.5223     70.17496      1.714     4.22    -2.947707     19.80858     37.47505         6     0.804     0.633 -79.85   0
       182    731.1289    373.8907 300.3120893 +22.6919505     1077.231     70.37151      1.657     3.73    -2.947789     19.80858     90.23638        20     1.175     1.123  21.35   0
       183    392.9424    358.7036 300.2117674 +22.5861917     1276.916     70.28224      1.760     3.84    -2.858532     19.80858     97.78527        23     1.327     1.054  63.15   0
       184    831.8586    351.3060 300.3508057 +22.7156497     348.7359     70.26437      1.292     4.62    -2.870315     19.80858     39.98107         8     0.953     0.637  12.38   0
       185    468.6690    337.9335 300.2420683 +22.6029386     672.4328     70.26437      1.665     5.74     -2.95272     19.80858     56.75137        13     1.239     0.900  77.63   0
       186    713.5952    329.6833 300.3209870 +22.6739955     1181.521     70.13918      1.621     3.62    -2.802094     19.80858     106.6554        19     1.109     1.087 -68.42   0
       187    974.6149    323.8358 300.4042244 +22.7505248     1637.214     70.21074      1.377     2.71    -2.407262     19.80858     214.8814        20     1.057     1.004 -79.05   0
       188    422.5658    313.3640 300.2357055 +22.5820592     206.3522     70.28224      0.948     4.25    -2.759987     19.80858     37.90701         6     1.335     0.387  75.94   0
       189     96.6909    308.1744 300.1361003 +22.4828161     788.7311     70.15707      1.700     3.29    -2.738404     19.80858     81.00711        16     1.060     1.029 -55.23   0
       190    127.7693    308.2198 300.1457393 +22.4921545     239.9487     70.21074      1.297     3.82    -2.835977     19.80858     35.44918         6     0.775     0.541 -43.48   0
       191    990.3506    304.2106 300.4155044 +22.7495967     261.9846     70.22862      1.277     3.49    -2.439701     19.80858     36.03585         5     0.807     0.436  73.38   0
       192    784.8954    290.8775 300.3557982 +22.6842129     427.6575     70.33582      1.582     5.16    -2.932725     19.80858     43.38399         9     1.006     0.748  44.57   0
       193    883.1848    280.0431 300.3899439 +22.7105479     1249.766     70.22862      1.564     3.04    -2.966781     19.80858     113.9784        17     1.084     0.913  64.93   0
       194    301.9862    277.7283 300.2097803 +22.5356665     1276.511     70.21074      1.628     3.61    -2.590734     19.80858     118.3605        22     1.231     1.086  63.43   0
       195    379.7584    273.0020 300.2354972 +22.5576337     590.1521     70.21074      1.605     4.03    -2.567624     19.80858     57.87628        14     1.146     0.892  29.97   0
       196    781.5961    271.3214 300.3611203 +22.6776047     346.0001     70.12127      1.509     4.96    -2.849658     19.80858     46.73618         8     1.125     0.840 -87.36   0
       197    196.9402    264.9999 300.1812629 +22.5005040     362.3797     70.15707      1.402     3.57    -2.663107     19.80858     39.28882         9     0.809     0.767  -7.31   0
       198    734.4624    261.4455 300.3496446 +22.6606433     1087.836      70.2465      1.727     3.61    -2.661483     19.80858     104.3405        17     1.189     0.955  50.58   0
       199    799.3412    260.9425 300.3700187 +22.6799389     301.8158     70.28224      1.440     3.39    -2.860907     19.80858     35.81828         5     0.793     0.418 -70.64   0
       200   1005.8358    253.8303 300.4366922 +22.7397503     484.2401     70.22862      1.395     2.98    -2.379108     19.80858     66.99911        11     0.972     0.818  -4.20   0
       201    658.9600    252.4907 300.3290388 +22.6354440     732.5457     70.21074      1.712     4.09     -2.39369     19.80858     72.08927        17     1.262     0.962 -80.61   0
       202    738.3822    253.2663 300.3535210 +22.6594676     434.1329     70.19286      1.391     4.97    -2.650207     19.80858     46.11739        10     1.006     0.715  -7.19   0
       203    585.0132    244.1195 300.3087354 +22.6108760     563.3085     70.19286      1.530     4.09    -2.406298     19.80858     57.14479        10     0.949     0.879 -10.71   0
       204    866.2315    243.3061 300.3965880 +22.6949098     474.7964     70.13918      1.405     5.34    -2.751239     19.80858     51.89357         9     0.977     0.826  36.76   0
       205    854.3809    243.6603 300.3927799 +22.6914615     767.7999     70.15707      1.462     3.53    -2.766387     19.80858     79.80981        16     1.119     0.921  59.75   0
       206    983.1881    232.9909 300.4363959 +22.7269760     539.6218     70.10336      1.392     2.96    -2.416769     19.80858     66.22197        12     0.936     0.830 -86.84   0
       207    217.3891    226.7507 300.2000343 +22.4956596     379.7307     70.22862      1.316     3.05    -2.562075     19.80858      56.4314         5     0.801     0.488 -41.40   0
       208     79.1381    221.4751 300.1587949 +22.4526724     1242.062     70.26437      1.541     3.20    -2.601201     19.80858      102.409        18     1.050     1.018 -83.50   0
       209    902.0309    217.6972 300.4160596 +22.6982719     364.2126     70.15707      1.440     3.25    -2.555449     19.80858     40.13733         7     0.829     0.754  81.84   0
       210     28.3840    217.6448 300.1442764 +22.4363453     269.5589     70.22862      1.382     5.03    -2.609442     19.80858     30.11015         6     0.982     0.729 -84.43   0
       211    236.5423    214.6478 300.2099154 +22.4979301     3256.301     70.26437      1.604     2.85    -2.570837     19.80858     359.1866        35     1.322     1.212  77.69   0
       212     20.5766    209.2585 300.1445741 +22.4315965     756.5999     70.21074      1.406     2.89    -2.612046     19.80858     80.66752        13     0.951     0.845 -43.86   0
       213    220.1994    205.3854 300.2078426 +22.4903696     279.5361     70.06753      1.446     2.64     -2.57005     19.80858     46.41972         5     0.871     0.387 -82.69   0
       214    880.5649    195.9642 300.4164236 +22.6855945      2020.03     70.28224      1.511     3.25    -2.583808     19.80858     189.1279        25     1.228     1.069  17.42   0
       215    984.0439    194.2828 300.4492282 +22.7161025     1543.983     70.17496      1.429     3.07    -2.451747     19.80858     169.8439        22     1.140     1.014  60.67   0
       216    353.8137    183.0843 300.2566173 +22.5240355     439.1528     70.15707      1.686     5.42    -2.572844     19.80858     43.37259         6     1.314     0.632  81.21   0
       217    409.6211    180.1052 300.2749402 +22.5399122     253.1436     70.12127      1.895     4.25    -2.587202     19.80858     28.82636         5     1.176     0.437  78.89   0
       218    481.3278    178.4996 300.2977682 +22.5609473     1063.591     70.37151      1.725     3.13    -2.551219     19.80858      99.4503        17     1.062     0.996  77.80   0
       219    120.1355    179.7389 300.1850752 +22.4529940     452.0926      70.2465      1.506     6.17    -2.567916     19.80858     38.27959        11     1.258     0.850  57.77   0
       220    255.3666    158.5468 300.2339738 +22.4874699     3417.685     70.22862      1.597     2.97    -2.623582     19.80858     378.6867        32     1.273     1.219  64.25   0
       221    106.3558    158.2692 300.1877620 +22.4426984     449.1301     70.17496      1.485     3.97    -2.549508     19.80858     45.89586         8     0.926     0.625 -84.64   0
       222    227.2919    152.9458 300.2270654 +22.4774426     147.9491     70.26437      1.306     4.14    -2.518243     19.80858     32.16382         6     1.208     0.404 -58.38   0
       223    501.3581    143.8024 300.3152608 +22.5569842     3627.045     70.21074      1.631     3.27    -2.590948     19.80858     350.1916        31     1.260     1.209  61.13   0
       224    386.6735    143.4885 300.2796860 +22.5225163     492.0053     70.37151      1.804     4.62    -2.623522     19.80858     44.02567         9     1.177     0.822 -47.61   0
       225    753.7577    134.0820 300.3969957 +22.6298213     453.0563     70.17496      1.833     6.60    -2.188682     19.80858     39.28435        10     1.309     0.934 -77.67   0
       226    194.6801    127.8619 300.2250700 +22.4604611     244.2629      70.3001      1.136     2.44    -2.229509     19.80858      44.0851         5     0.740     0.424  71.25   0
       227    629.7102    123.7673 300.3617117 +22.5896922     3633.273     70.17496      1.694     3.34    -2.442913     19.80858     322.2736        33     1.288     1.264  68.41   0
       228    404.4583    122.6702 300.2919726 +22.5218686     824.2911     70.22862      1.630     4.75    -2.650821     19.80858     66.00272        20     1.306     1.222   2.21   0
       229    670.7514    121.0511 300.3753719 +22.6012084     580.8205      70.2465      1.752     3.84    -2.444121     19.80858     56.11569        10     1.068     0.725 -38.03   0
       230    687.5417    117.3538 300.3818001 +22.6051762     301.1484     70.26437      1.520     4.91    -2.380716     19.80858     26.11286         6     0.996     0.684  22.23   0
       231    153.4766    115.6749 300.2162213 +22.4446054      414.675      70.3001      1.531     3.97    -2.152272     19.80858     45.43351         9     1.047     0.778 -22.95   0
       232    957.2998    114.4881 300.4667861 +22.6851482     308.2061     70.37151      1.407     4.15    -2.532408     19.80858     35.25777         6     1.000     0.605  60.20   0
       233    673.9888    108.7133 300.3803832 +22.5986325     1546.745     70.15707      1.614     3.40    -2.444417     19.80858     136.3829        24     1.207     1.140  88.33   0
       234    688.8379    106.9029 300.3855948 +22.6025608     552.8361     70.21074      1.985     5.03    -2.376408     19.80858     42.47633         9     1.051     0.681  89.93   0
       235    760.2654    100.1882 300.4100207 +22.6220279     830.1276     70.15707      1.605     3.62    -2.147987     19.80858     85.98566        15     1.154     0.891 -44.46   0
       236    503.8437     92.8243 300.3325751 +22.5430836     646.7992      70.2465      1.598     3.67    -2.655599     19.80858     65.17632        13     1.076     0.904  43.02   0
       237    698.7343     93.3272 300.3930815 +22.6016237      439.729      70.2465      1.484     3.45    -2.297633     19.80858     47.15779         8     0.910     0.616   7.26   0
       238     76.6327     92.8889 300.1997428 +22.4150170     267.2851     70.17496      1.295     4.00    -2.658177     19.80858     34.30603         6     1.135     0.404 -75.64   0
       239    407.5386     91.4464 300.3030612 +22.5138233     486.3929     70.22862      1.788     5.11    -2.627009     19.80858     43.48812         8     1.209     0.611 -34.19   0
       240    179.2804     81.2599 300.2354039 +22.4424636     2178.843     70.26437      1.637     3.17    -1.876973     19.80858     193.4625        25     1.261     1.128  40.46   0
       241    747.6693     81.5985 300.4121283 +22.6129110     217.8686     70.15707      1.328     3.36    -2.068748     19.80858     41.16217         5     0.728     0.481  10.13   0
       242    295.0329     73.2627 300.2739751 +22.4748743     681.1463     70.21074      1.444     4.13    -2.253918     19.80858     67.52279        13     1.207     0.793  45.32   0
       243    739.8746     73.3609 300.4123728 +22.6082081      449.887     70.17496      1.559     4.50    -2.023359     19.80858     50.93335         8     1.127     0.742  12.85   0
       244    778.3143     67.9873 300.4260906 +22.6181769     553.3868     70.15707      1.965     5.00    -1.998143     19.80858     35.65003         7     1.118     0.632  23.59   0
       245    798.3448     64.4177 300.4334892 +22.6231498     1342.731     70.19286      1.648     3.30     -1.97797     19.80858     103.6342        20     1.090     1.079   1.94   0
       246    503.8162     63.6711 300.3420242 +22.5346992     312.9839     70.21074      1.297     4.17    -2.272133     19.80858      28.6257         6     0.761     0.651 -74.46   0
       247    181.7212     60.1518 300.2430096 +22.4371350     559.1427     70.21074      1.329     2.91    -1.845135     19.80858     73.06252        11     1.046     0.674  42.23   0
       248    972.9903     58.0484 300.4899899 +22.6736139     525.9682     70.22862      1.827     4.06    -2.170366     19.80858     56.42089         8     0.995     0.662  26.64   0
       249    746.9897     57.0081 300.4198940 +22.6056383     443.7417     70.10336      1.367     3.26    -1.942667     19.80858     58.58522         9     0.895     0.727 -67.01   0
       250    599.2186     41.6683 300.3788542 +22.5569625     416.2198     70.21074      1.596     5.17    -1.945734     19.80858     46.94947        10     1.233     0.756  58.40   0
       251    208.2025     39.4157 300.2579646 +22.4391212     227.2386     70.06753      1.269     4.63    -1.811919     19.80858     34.71064         8     1.046     0.584 -56.06   0
       252    762.5278     36.9714 300.4312339 +22.6045317     339.4652     70.21074      1.444     4.18    -1.841803     19.80858      47.7818         6     1.034     0.482  35.66   0
       253    570.9563     35.1217 300.3721801 +22.5466134      1199.63     70.19286      1.659     3.38    -1.882824     19.80858     98.67142        21     1.146     1.092   6.57   0
       254    293.7300     32.6654 300.2867386 +22.4628242     414.0604      70.2465      1.540     4.47    -1.825122     19.80858     48.50838        11     1.066     0.806 -14.82   0
       255      8.2820     31.4208 300.1984550 +22.3768723     465.2904     70.17496      1.566     3.55    -3.053912     19.80858     48.91387         5     0.797     0.456  16.78   0
       256    528.4261     28.9287 300.3609520 +22.5320906     677.9971     70.21074      1.495     3.22    -1.807935     19.80858     71.64481        15     1.040     0.904 -62.52   0
       257    633.8347     25.4606 300.3948881 +22.5626746     707.9714     70.22862      1.468     3.58    -1.778798     19.80858     69.02197        14     1.084     0.876  84.03   0
       258    228.4800     24.3940 300.2691387 +22.4408871      130.914     70.13918      1.425     4.65    -1.783987     19.80858     28.56282         6     1.037     0.592  30.14   0
       259    453.8471     19.6306 300.3407621 +22.5070709     1107.822     70.22862      1.525     3.36     -1.79319     19.80858      111.501        19     1.227     0.930  19.65   0
       260    569.1575   1021.4252 300.0510410 +22.8292073     782.8387     65.35752      1.061     2.01    -4.727451     19.80858     148.2166        12     0.868     0.732  64.45  16
