#   1 NUMBER                 Running object number                                     
#   2 X_IMAGE                Object position along x                                    [pixel]
#   3 Y_IMAGE                Object position along y                                    [pixel]
#   4 ALPHA_J2000            Right ascension of barycenter (J2000)                      [deg]
#   5 DELTA_J2000            Declination of barycenter (J2000)                          [deg]
#   6 FLUX_APER              Flux vector within fixed circular aperture(s)              [count]
#   7 FLUXERR_APER           RMS error vector for aperture flux(es)                     [count]
#   8 FLUX_RADIUS            Fraction-of-light radii                                    [pixel]
#   9 FWHM_IMAGE             FWHM assuming a gaussian core                              [pixel]
#  10 BACKGROUND             Background at centroid position                            [count]
#  11 THRESHOLD              Detection threshold above background                       [count]
#  12 FLUX_MAX               Peak flux above background                                 [count]
#  13 ISOAREA_IMAGE          Isophotal area above Analysis threshold                    [pixel**2]
#  14 A_IMAGE                Profile RMS along major axis                               [pixel]
#  15 B_IMAGE                Profile RMS along minor axis                               [pixel]
#  16 THETA_IMAGE            Position angle (CCW/x)                                     [deg]
#  17 FLAGS                  Extraction flags                                          
         1    739.8940      9.6584 300.4425847 +22.5802140     685.9233     70.37867      2.060     5.96    -2.003738     19.84081     53.86372        15     1.535     1.075  74.13  16
         2    643.8070      9.9657 300.4125571 +22.5515156     1419.763     70.32495      1.899     4.81    -1.655754     19.84081     105.0543        26     1.432     1.243  71.77   0
         3    577.2191      1.0000 300.3947324 +22.5289873     295.9526     52.73923      1.288     3.74    -1.647413     19.84081     51.39989         5     1.390     0.289   0.00  24
         4    120.3215   1010.7258 299.9244970 +22.6815015     614.5112     70.43235      5.011     5.23  -0.01085193     19.84081     30.94494         5     1.054     0.734  -3.50   0
         5     95.9028   1022.7063 299.9130107 +22.6775926     902.3094     59.95995      8.788    10.99    0.5353405     19.84081     43.98326        18     2.269     1.484  54.39  27
         6    100.2037   1014.7396 299.9169410 +22.6766041     1223.604     70.30704      8.785    12.81    0.2151644     19.84081     34.47531        25     2.535     1.801 -87.06  19
         7     81.2344   1022.9468 299.9083766 +22.6732524     800.5308      58.6644      4.409     8.48   -0.9144828     19.84081      44.6217        18     1.645     1.221  66.06  27
         8     90.7738   1018.1118 299.9129140 +22.6747353     1848.619     70.27119      7.038    14.56   -0.1753011     19.84081     52.45636        50     3.069     1.922 -52.50  19
         9     86.3340   1021.0118 299.9105907 +22.6742312     1490.973     66.87264      5.312    15.56   -0.5118728     19.84081     53.17617        50     4.740     1.420 -83.72  27
        10     82.5394   1017.7707 299.9104677 +22.6721625     1259.998     70.36077      4.185     8.49   -0.9074105     19.84081     47.04367        22     1.812     1.144  63.30  19
        11    542.9670   1010.0145 300.0561360 +22.8082748     294.5474     70.30704      1.889     4.51    -4.541717     19.84081     33.92639         6     1.093     0.552   0.96   0
        12    765.9152   1009.1886 300.1258219 +22.8749758      535.186     70.27119      1.165     2.00    -4.708719     19.84081     106.6493         8     0.744     0.641  30.77   0
        13    788.0229   1002.9501 300.1347409 +22.8798226     6673.101     70.32495      1.270     2.22    -4.710303     19.84081       988.38        31     1.049     1.027 -30.59   0
        14    833.7612   1002.8126 300.1490366 +22.8935110     244.3925     70.32495      1.005     2.23    -4.721878     19.84081      61.7029         5     0.837     0.350 -45.78   0
        15    978.8905   1002.2299 300.1944638 +22.9368943     224.5094     70.28912      1.309     3.78    -5.623919     19.84081     47.66378         7     0.942     0.644   2.13   0
        16     99.5604    994.9316 299.9231917 +22.6707386     368.8241     70.28912      1.150     2.10   -0.8143414     19.84081     66.22842         8     0.726     0.670   2.47   0
        17    796.5364    985.1422 300.1431931 +22.8772707     739.1528     70.37867      1.148     2.44    -4.566276     19.84081     111.2362        12     0.990     0.719  63.45   0
        18    979.4884    984.0052 300.2005859 +22.9318447     290.9008     70.23533      1.222     3.72    -5.270603     19.84081     44.83304         6     0.942     0.500 -88.87   0
        19    649.4324    982.2479 300.0983195 +22.8322828     250.6732     70.36077      1.347     3.73      -4.6696     19.84081     37.74949         5     0.967     0.414  -8.15   0
        20    834.5541    978.3503 300.1572506 +22.8867326     415.8066     70.34286      1.105     3.16    -4.503584     19.84081     56.46013         7     0.815     0.650 -35.89   0
        21    882.8595    969.2468 300.1752692 +22.8986173     326.0793     70.37867      1.047     3.32    -4.498786     19.84081     56.44642         6     1.036     0.430   2.24   0
        22    734.2581    968.9877 300.1290534 +22.8539448     323.0559     70.28912      1.188     2.89    -4.619574     19.84081     48.30501         8     0.820     0.650 -45.49   0
        23    447.4153    965.7272 300.0408282 +22.7668851     2759.496     70.32495      1.596     6.97     -4.54498     19.84081      382.415        22     1.489     0.916  55.70   0
        24    745.6910    965.8516 300.1336358 +22.8564771     424.6192     70.36077      1.367     3.12    -4.583339     19.84081     55.50941         7     0.773     0.622  84.74   0
        25    225.1489    954.0217 299.9755311 +22.6967622     210.3046     70.32495      1.335     3.79    -2.997314     19.84081       38.634         5     0.830     0.496 -19.78   0
        26    172.2424    951.3037 299.9599760 +22.6800865     478.2778     70.34286      1.393     2.67    -2.968128     19.84081     76.26441         8     0.850     0.711 -66.13   0
        27    149.5524    948.3290 299.9538951 +22.6724161     770.9957     70.30704      1.188     2.82     -3.10796     19.84081      116.841        15     1.082     0.770 -71.53   0
        28     24.3055    938.3120 299.9182564 +22.6319060     195.8805     70.50385      1.317     3.29    -4.433208     19.84081     50.10543         5     0.901     0.444 -80.98   0
        29   1020.9810    936.7997 300.2288973 +22.9307467      1371.84     66.96676      1.248     2.13    -4.400397     19.84081     214.0764        14     0.912     0.804 -80.14  16
        30    975.2114    935.2873 300.2151173 +22.9165827     1248.151     70.27119      1.201     2.08    -4.305058     19.84081     201.9795        16     0.901     0.865 -60.19   0
        31    759.0215    929.5169 300.1496195 +22.8500572      377.076     70.28912      1.543     3.44    -4.405683     19.84081     61.14582         9     1.023     0.914  65.43   0
        32    181.6625    929.7512 299.9699197 +22.6767433     155.8805     70.37867      1.097     4.20    -3.962837     19.84081     36.61908         6     0.749     0.672 -38.43   0
        33    627.0077    923.3924 300.1105021 +22.8086751     2906.607      70.1815      1.434     2.60    -4.739123     19.84081     337.4266        28     1.223     1.051 -24.70   0
        34    429.6482    920.5384 300.0500146 +22.7485975     267.5575     70.37867      1.339     4.18    -4.500204     19.84081     40.08512         7     0.961     0.518 -59.32   0
        35    177.3906    917.5000 299.9725807 +22.6719503     927.6308     70.23533      1.408     2.78    -4.066886     19.84081     97.76558        14     0.949     0.889  66.67   0
        36    647.7473    915.8226 300.1194238 +22.8127303     497.5906     70.34286      1.363     3.56    -4.652986     19.84081     51.91816         8     0.894     0.654  -2.60   0
        37   1019.8708    903.0155 300.2395511 +22.9207181     635.1016     69.85767      1.242     2.07    -4.143162     19.84081     112.5305        10     0.816     0.707  89.97  16
        38    802.9384    902.9694 300.1719445 +22.8556219     2379.344     70.34286      1.315     2.33    -4.048516     19.84081     326.7407        22     1.007     0.957   6.70   0
        39    211.5737    897.7939 299.9896175 +22.6765752     304.5325     70.32495      1.235     3.41    -4.164139     19.84081      46.2691         5     0.852     0.573  44.39   0
        40    520.0809    895.4691 300.0863112 +22.7685667     296.5575     70.43234      1.271     3.96    -4.321362     19.84081     51.16897         8     0.889     0.726  75.72   0
        41    166.6668    893.9550 299.9769132 +22.6619832     637.4754     70.32495      1.424     2.86    -4.186218     19.84081     79.03758        10     0.905     0.762  75.66   0
        42    582.0783    888.8627 300.1077570 +22.7852860     321.9192     70.39657      1.536     4.29    -4.420398     19.84081     40.31255         6     1.175     0.446  53.42   0
        43    316.1918    885.9086 300.0260050 +22.7045969     30845.72     70.23533      1.411     2.59    -4.210402     19.84081     3514.095        65     1.281     1.209  68.46   0
        44    574.2630    884.7470 300.1066641 +22.7817597     965.5515     70.37867      1.475     3.62    -4.354872     19.84081     93.58914        16     1.168     0.869  -7.43   0
        45    986.5490    883.5004 300.2355133 +22.9051223     521.9254     70.41446      1.199     2.70    -4.108185     19.84081     77.63599         9     0.941     0.634  66.24   0
        46    603.0655    880.6664 300.1169580 +22.7892361     456.7335     70.37867      1.430     4.48    -4.461778     19.84081     49.91223        10     1.051     0.683  82.35   0
        47      2.2832    880.7454 299.9301575 +22.6088019     431.7027     59.79165      1.168     2.21    -4.222077     19.84081     67.43018         7     0.789     0.553  32.87  24
        48    613.6938    879.4084 300.1206761 +22.7920658     376.6536     70.23533      1.407     3.85    -4.473159     19.84081     42.72424         7     0.918     0.793  18.48   0
        49    756.4850    865.3221 300.1697280 +22.8308824     484.5714     70.43234      1.718     4.08    -4.280568     19.84081     49.21088         9     0.916     0.736  62.73   0
        50    365.8864    863.1245 300.0488730 +22.7129926     18229.31     70.45023      1.459     2.83    -4.204171     19.84081     1961.447        54     1.271     1.210  51.03   0
        51    380.2653    863.5542 300.0532047 +22.7174340     1058.001     70.32495      1.480     2.99    -4.206891     19.84081     107.6272        19     1.089     0.984  70.35   0
        52    888.7911    858.5278 300.2131660 +22.8686307     1515.986     70.30704      1.285     2.42     -4.03206     19.84081     180.3575        18     0.979     0.918 -21.42   0
        53    376.9295    857.3633 300.0541823 +22.7146577     392.6491     70.30704      1.611     3.85     -4.18785     19.84081     34.70079         5     0.889     0.478   4.15   0
        54    646.5760    854.6539 300.1389711 +22.7948368     694.2145     70.34286      1.734     3.45    -4.333769     19.84081     58.45996        13     1.021     0.878  73.09   0
        55    483.6611    855.0880 300.0881231 +22.7460547     297.8576     70.39657      1.296     3.40    -4.156785     19.84081     30.48445         5     0.786     0.425 -71.59   0
        56    248.3515    855.0441 300.0149620 +22.6753748     473.2169     70.36077      1.421     3.04    -4.243533     19.84081     52.78582         9     0.855     0.706 -23.72   0
        57    493.9494    849.8736 300.0930213 +22.7476487     517.0259     70.34286      1.391     3.43    -4.116813     19.84081     65.29726         8     1.004     0.682 -19.15   0
        58     53.1963    850.4634 299.9558220 +22.6154295     290.1967     70.28912      1.403     3.20    -4.192921     19.84081     35.28632         5     0.738     0.441  23.15   0
        59    895.0497    846.0118 300.2191907 +22.8669167     312.6396     70.36077      1.282     2.64    -3.988644     19.84081     38.83551         5     0.631     0.577  -0.51   0
        60     81.9905    844.4462 299.9667227 +22.6223582     379.1572     70.34286      1.392     2.66    -4.193386     19.84081      58.6064         6     0.872     0.528  65.94   0
        61    440.2999    844.5968 300.0780476 +22.7300275     249.2179     70.19946      1.362     3.49    -4.140719     19.84081       30.571         5     0.755     0.465 -15.18   0
        62    872.8555    841.4258 300.2137658 +22.8589426     212.7117     70.32495      1.174     4.21    -3.911018     19.84081     36.05039         5     0.887     0.569  45.48   0
        63    539.5677    827.6261 300.1144575 +22.7549651     393.3053     70.32495      1.341     3.57     -3.97423     19.84081      43.4357         7     0.833     0.687  64.08   0
        64    560.6375    825.1423 300.1218234 +22.7605777     751.7053     70.32495      1.486     3.22    -3.989305     19.84081     74.05229        17     1.104     0.937  72.63   0
        65    955.0634    823.7836 300.2451341 +22.8785395     2600.105     70.30704      1.356     2.49    -4.051549     19.84081     332.3758        25     1.101     1.047  71.93   0
        66    480.7264    824.2283 300.0972534 +22.7363259     166.3633     70.34286      1.307     3.42     -4.01544     19.84081     29.82712         5     0.826     0.628 -49.44   0
        67    943.6410    815.2604 300.2443468 +22.8726672     909.8716     70.30704      1.234     2.56    -4.046794     19.84081     130.9817        10     0.855     0.734  53.85   0
        68    306.4825    809.4433 300.0478722 +22.6797662     462.5466     70.28912      1.362     4.19    -4.055506     19.84081     51.13076        10     0.967     0.783  59.29   0
        69    769.7812    806.7069 300.1929474 +22.8180562     1526.912     70.25327      1.618     3.02    -4.096989     19.84081     141.0612        21     1.236     1.052  33.67   0
        70    974.4398    805.2346 300.2572123 +22.8790269     963.4744     70.36077      1.350     3.14    -4.041512     19.84081     115.3004        15     1.182     0.727  36.25   0
        71    888.3091    783.5306 300.2374240 +22.8469639     84460.14     70.46811      1.442     2.71     -3.73352     19.84081     8363.104       116     1.358     1.298  69.18   0
        72    740.5396    783.7332 300.1913142 +22.8026911     496.1501     70.36077      1.908     4.09    -4.287087     19.84081     47.70751         7     1.045     0.728 -14.90   0
        73    921.0282    776.1351 300.2500295 +22.8546551     252.3386     70.32495      1.245     3.53    -3.845422     19.84081     50.63843         6     1.007     0.511 -76.64   0
        74    574.7070    772.6515 300.1432833 +22.7497471     1020.579     70.39657      1.662     4.13    -3.708553     19.84081     87.95452        20     1.269     1.051  20.35   0
        75    755.8384    769.7241 300.2006382 +22.8032619     5419.271     70.28912      1.510     2.94    -4.110171     19.84081     526.9548        35     1.223     1.172 -61.09   0
        76    257.6157    765.2740 300.0470526 +22.6524307     2736.229     70.32495      1.478     2.92    -3.768576     19.84081     306.0696        26     1.194     1.065  65.82   0
        77    339.5354    763.0143 300.0732557 +22.6763834     668.1207     70.28912      1.520     4.19    -3.710382     19.84081       65.772        14     1.202     0.839  69.39   0
        78    548.1166    758.8864 300.1394857 +22.7378182      442.328     70.43234      1.377     4.75    -3.549888     19.84081     47.98103         8     0.940     0.704  63.70   0
        79    539.4259    750.9059 300.1393773 +22.7329209     1946.955     70.27119      1.675     3.25    -3.475666     19.84081     181.0938        23     1.227     1.074  -9.22   0
        80    529.8401    744.6031 300.1384446 +22.7282361     751.5121     70.34286      1.485     3.84    -3.425009     19.84081     67.13049        16     1.117     0.989 -11.65   0
        81    922.7079    741.9538 300.2616748 +22.8453477     310.2966     70.34286      1.367     4.27    -3.653271     19.84081     30.09368         6     0.886     0.586  -1.75   0
        82    193.0536    740.8262 300.0349407 +22.6260335     524.5201     70.34286      1.628     3.85    -3.528919     19.84081     42.25292        12     1.001     0.845   6.10   0
        83    207.3921    739.7439 300.0397485 +22.6300298     298.1785     70.30704      1.402     3.97     -3.51868     19.84081     37.54552         6     0.927     0.487  50.02   0
        84    233.4827    736.3180 300.0489715 +22.6368837     225.1437     70.45023      1.337     4.78    -3.484457     19.84081     35.93682         6     0.924     0.701  57.38   0
        85    976.0457    735.0597 300.2805473 +22.8593640     230.7993     70.36077      1.287     3.31    -3.496872     19.84081      39.7147         7     0.868     0.634  57.81   0
        86    454.4526    734.4058 300.1183048 +22.7026827     1035.102     70.28912      1.651     3.79    -3.502863     19.84081     101.3377        19     1.208     1.065  -5.21   0
        87    108.6084    729.5204 300.0123822 +22.5974289      11295.6     70.27119      1.512     2.68    -3.619573     19.84081     1288.166        47     1.295     1.208  81.71   0
        88     29.7489    731.0607 299.9873892 +22.5741798     438.3295     70.37867      1.584     4.71     -3.61113     19.84081      56.0667         7     1.058     0.595  83.94   0
        89    539.5887    729.9025 300.1462609 +22.7269458     537.4417     70.21739      1.524     4.83    -3.321676     19.84081     58.56773        12     1.111     0.908   1.77   0
        90    957.0751    715.4486 300.2810123 +22.8480452     551.0768     70.32495      1.299     3.18    -3.527229     19.84081     63.62839        10     0.995     0.640 -64.04   0
        91     54.6495    713.6586 300.0007821 +22.5766747     951.3378     70.37867      1.689     4.65    -3.622077     19.84081     88.42793        17     1.468     0.776 -82.98   0
        92    459.6189    702.3922 300.1303258 +22.6950529     453.0312     70.28912      1.526     5.37    -3.337251     19.84081     47.44624        11     0.995     0.901  87.05   0
        93    654.5645    699.6443 300.1918957 +22.7527690     400.2407     70.37867      1.936     3.89    -3.631046     19.84081     33.09549         5     0.993     0.437  74.74   0
        94    625.1204    699.1465 300.1828899 +22.7437913     366.0333     70.36077      1.536     5.04    -3.472331     19.84081     40.57342         6     1.147     0.627  -9.08   0
        95    503.5869    698.3696 300.1453145 +22.7070963     508.1302     70.32495      1.763     4.69    -3.200879     19.84081     46.45895         7     0.936     0.801 -30.34   0
        96    937.1278    693.5761 300.2819083 +22.8357843     2008.198     70.36077      1.528     2.98    -3.536947     19.84081     179.2249        24     1.230     1.051 -77.36   0
        97    469.2007    693.7374 300.1361219 +22.6954469     778.0522     70.28912      1.599     3.71    -3.268026     19.84081     88.57228        16     1.088     1.062 -12.70   0
        98     31.2921    687.7372 300.0019592 +22.5622307     2810.958     70.43234      1.521     2.83    -3.602479     19.84081      283.791        30     1.238     1.117  80.97   0
        99    332.5992    680.6417 300.0978935 +22.6506851     5006.574     70.32495      1.669     3.33    -3.487447     19.84081     467.8425        36     1.303     1.246  19.59   0
       100    455.0750    677.6010 300.1369754 +22.6865792     5099.055     70.21739      1.703     3.43    -3.256258     19.84081      440.753        38     1.333     1.287 -80.35   0
       101    866.4809    671.3011 300.2671318 +22.8082039     1056.693     70.45023      1.510     3.05    -3.512411     19.84081     106.6901        15     1.037     0.880  77.53   0
       102    951.0800    668.6078 300.2943796 +22.8327996     7196.193     70.27119      1.470     2.77    -3.477666     19.84081      744.572        37     1.199     1.164 -65.78   0
       103    515.5954    667.1761 300.1591968 +22.7017531     6578.999     70.28912      1.699     3.58    -3.061001     19.84081     499.0592        43     1.353     1.321  43.55   0
       104    684.8425    663.0157 300.2132378 +22.7513433     418.7841     70.34286      2.194     4.07    -3.504251     19.84081     36.66622         5     1.375     0.344  84.80   0
       105    243.4224    662.7314 300.0759948 +22.6187751     803.9291     70.34286      1.723     4.03    -3.484457     19.84081     72.18896        13     1.088     0.939  65.05   0
       106    447.1685    655.4155 300.1417308 +22.6778432     2535.712     70.30704      1.722     3.55    -3.189344     19.84081     210.9196        30     1.310     1.224 -41.31   0
       107    790.1132    654.9463 300.2486534 +22.7806055     483.3182     70.36077      1.561     5.49      -3.2919     19.84081     46.18145        11     1.034     0.917  74.78   0
       108    425.6642    653.9417 300.1355204 +22.6709659     703.8578     70.36077      1.733     3.89    -3.231512     19.84081     63.50959        14     1.218     0.975  78.56   0
       109    179.9567    653.1832 300.0593761 +22.5969803     405.6661     70.34286      1.575     4.96    -3.562865     19.84081     41.63931         6     1.015     0.686  24.49   0
       110    866.8444    650.6481 300.2739621 +22.8023841     998.7372     70.34286      1.789     4.62    -3.510032     19.84081     67.02991        19     1.258     1.053  17.90   0
       111    563.8188    642.8344 300.1821213 +22.7092415     116514.1     70.32495      1.738     3.59    -3.023377     19.84081      8812.91       152     1.576     1.560  -0.62   0
       112    747.8331    647.8768 300.2377806 +22.7658947     492.9039     70.32495      1.504     4.57    -3.439521     19.84081     39.73029        11     0.931     0.860 -36.10   0
       113    250.0080    642.9971 300.0844591 +22.6150950     2213.668      70.1456      1.709     3.31    -3.484457     19.84081     193.3196        27     1.289     1.140  72.86   0
       114    816.4325    639.0265 300.2620314 +22.7839296     387.6393     70.32495      1.871     4.97    -3.297655     19.84081     35.29435         6     1.130     0.620 -34.17   0
       115    565.2723    632.0967 300.1860654 +22.7065971     471.6357     70.45023      2.006     4.90    -3.007254     19.84081     30.78188         5     1.276     0.533 -39.02   1
       116    454.5818    623.2628 300.1544926 +22.6708460     1606.809     70.28912      1.832     5.11    -3.058752     19.84081     110.6703        28     1.612     1.125  77.87   0
       117    299.0575    625.9161 300.1052610 +22.6249239     311.4624     70.41446      1.507     3.98    -3.485137     19.84081     34.89297         5     0.837     0.541  62.08   0
       118    865.2048    619.4398 300.2836000 +22.7929331     249.3854     70.34286      1.829     4.85    -3.512525     19.84081     31.59305         5     1.446     0.462   7.64   0
       119    851.2556    609.2035 300.2825811 +22.7858114         1042     70.28912      1.740     3.68    -3.446829     19.84081     88.58016        18     1.159     1.008  23.89   0
       120    722.6076    607.0047 300.2432139 +22.7465977     1371.218      70.1815      1.656     3.92    -3.126949     19.84081      98.2551        22     1.254     1.080  36.68   0
       121    966.5240    603.8219 300.3202638 +22.8188273     439.9902     70.30704      2.284     4.25    -3.236966     19.84081     28.37678         5     0.906     0.569 -42.87   0
       122    627.1797    604.2264 300.2143999 +22.7171745     356.0358     70.32495      1.941     3.48    -3.068206     19.84081     22.66239         5     1.006     0.347 -44.67   0
       123    510.2779    603.0733 300.1783870 +22.6817687     503.6458     70.43234      2.308     4.54    -2.912773     19.84081     45.73686         8     1.296     0.775 -61.79   0
       124    979.7327    600.8363 300.3253533 +22.8219297     722.8052     70.32495      1.531     3.72    -3.213859     19.84081     67.60202        15     1.096     0.933 -76.06   0
       125    851.4283    599.3026 300.2858543 +22.7830207     1279.774     70.27119      1.849     5.25    -3.391701     19.84081     94.66794        23     1.559     1.039  70.11   0
       126    965.8951    599.7074 300.3214055 +22.8174572     443.7796     70.48598      1.535     4.35    -3.223386     19.84081     36.13785         7     0.760     0.709  -6.23   0
       127    443.4968    596.8221 300.1596409 +22.6599351     312.2962     70.25327      1.987     2.76    -2.944226     19.84081     40.62975         5     0.794     0.668  30.64   0
       128    889.6443    594.3100 300.2993888 +22.7930463     2550.844     70.32495      1.647     3.25    -3.353495     19.84081     209.9197        27     1.252     1.145  26.35   0
       129    121.9343    585.4496 300.0633711 +22.5601408     596.4713     70.32495      1.946     6.12    -3.416664     19.84081      53.4516        10     1.250     0.843  64.11   0
       130    981.4999    584.4149 300.3312437 +22.8177435     334.9615     70.23534      1.251     5.68    -3.143012     19.84081     38.38957         9     1.074     0.845  87.16   0
       131    723.8517    557.3520 300.2597445 +22.7327191     536.7239     70.36077      1.740     6.41    -2.957776     19.84081     46.67965        12     1.187     0.972  13.27   0
       132    977.9038    557.2569 300.3389519 +22.8088659     339.9691     70.39657      1.435     3.82    -3.039266     19.84081     38.49101         7     0.746     0.682  -0.09   0
       133    881.2950    553.1846 300.3101569 +22.7787344     591.2881     70.25327      1.852     4.26    -3.170629     19.84081     57.46566        11     1.069     0.757 -50.58   0
       134    609.6464    547.8822 300.2272589 +22.6957457     1837.739     70.30704      1.762     3.95    -2.660416     19.84081      126.586        25     1.276     1.204  49.35   0
       135   1020.9242    526.5358 300.3623549 +22.8129366     849.1279     67.24833      1.550     3.80    -2.770756     19.84081     72.50006        15     1.147     0.975  49.75  16
       136    979.2063    525.4011 300.3497137 +22.8001068      566.314      70.1456      1.808     6.76    -2.847106     19.84081     40.98738        13     1.435     0.894  19.22   0
       137    720.6571    521.4865 300.2704079 +22.7214656     646.1872     70.41446      1.949     5.84    -2.776463     19.84081     44.92537        12     1.184     0.819  34.53   0
       138    286.7784    515.8470 300.1372245 +22.5896738     2023.446     70.36077      1.764     4.01    -2.891236     19.84081     165.9769        26     1.316     1.177  60.16   0
       139   1019.5731    513.8237 300.3660656 +22.8088801     2520.557     70.30704      1.559     3.07    -2.701308     19.84081     236.6342        29     1.229     1.146 -44.90  16
       140    234.0261    510.6540 300.1225140 +22.5723501     4198.449     70.34286      1.700     3.48    -2.885304     19.84081     383.4587        34     1.354     1.235  75.64   0
       141    374.7799    504.8924 300.1681488 +22.6129428     2571.192     70.25327      1.747     3.76    -2.546642     19.84081     208.7369        31     1.319     1.268  66.14   0
       142    999.5474    505.0617 300.3626681 +22.8003612     1023.934     70.37867      1.571     3.43    -2.678162     19.84081      92.1965        17     1.094     0.972  59.82   0
       143    618.8403    501.4088 300.2452268 +22.6851657     10457.01     70.32495      1.860     3.97    -2.625532     19.84081     676.5213        55     1.502     1.441  28.62   0
       144    952.4035    483.8081 300.3548750 +22.7801263     460.0731      70.1456      1.893     5.45    -2.571862     19.84081     29.45816         9     0.965     0.869   4.18   0
       145    173.6803    481.7971 300.1131375 +22.5459601     1162.469     70.23533      1.762     3.64    -2.940114     19.84081     87.43447        20     1.188     1.063 -64.40   0
       146    559.4993    470.8598 300.2366816 +22.6585985     3821.469     70.41446      1.940     4.19     -2.54447     19.84081     231.9647        39     1.545     1.344  74.59   0
       147    973.0098    470.8777 300.3655025 +22.7825881     797.4745     70.28912      1.479     3.70     -2.53637     19.84081     72.86192        13     1.058     0.829  74.91   0
       148    133.3712    463.4108 300.1065874 +22.5285871     198.4516     70.32495      1.196     3.44    -2.919593     19.84081     28.14033         5     1.047     0.327 -69.03   0
       149    763.6069    459.9557 300.3037845 +22.7166790     627.3208     70.34286      1.733     5.12    -2.563153     19.84081     41.00263        14     1.206     0.849 -70.64   0
       150    466.1588    457.1667 300.2120835 +22.6266682     3483.179     70.37867      1.865     4.26    -2.383217     19.84081     234.0165        36     1.411     1.352 -71.95   0
       151    955.4595    451.4525 300.3663426 +22.7717481     276.9105     70.37867      1.650     4.33    -2.536741     19.84081     32.42566         8     1.235     0.726 -37.14   0
       152    857.8315    451.0356 300.3360440 +22.7423658     628.2427     70.34286      1.649     4.65    -2.563361     19.84081     55.64272        16     1.176     1.014  71.37   0
       153    353.6121    436.4633 300.1838014 +22.5869601     1470.131     70.30704      1.934     4.38    -2.334658     19.84081     92.25101        27     1.385     1.272 -30.53   0
       154     72.2564    433.7038 300.0972543 +22.5017216     533.2991     70.41446      1.648     3.90     -2.67167     19.84081     57.23375        12     1.108     0.905  56.14   0
       155    323.0662    425.9347 300.1777234 +22.5747738     16717.31     70.37867      1.860     3.79    -2.482337     19.84081     1327.859        62     1.532     1.450  71.66   0
       156    857.4653    423.3585 300.3449230 +22.7343069     828.4553     70.30704      1.933     4.62      -2.5531     19.84081     55.69859        15     1.130     1.013 -71.38   0
       157     19.5644    413.8351 300.0873444 +22.4802052     2801.535     70.39657      1.661     3.20    -2.450445     19.84081     284.1524        31     1.312     1.190  76.90   0
       158    421.4326    411.0257 300.2131601 +22.6000099     306.7859     70.32495      1.806     4.79    -2.323323     19.84081      29.3382         5     1.415     0.460  82.06   0
       159    733.2924    405.3190 300.3120933 +22.6919016     1163.458     70.46811      2.144     4.89    -2.547627     19.84081     82.36754        22     1.303     1.201  -9.85   0
       160    947.7628    398.2872 300.3812171 +22.7541684     246.2776     70.30704      1.555     5.61    -2.515807     19.84081     28.50041         9     1.126     0.787  87.88   0
       161    395.2215    390.3807 300.2117134 +22.5862223     1264.602     70.32495      2.164     5.47    -2.209144     19.84081     66.00997        27     1.618     1.186  39.91   0
       162    833.9926    382.4954 300.3508832 +22.7155343     412.7539     70.21739      1.850     6.84    -2.543659     19.84081     24.92264         7     1.551     0.847 -58.10   0
       163    471.0613    369.4807 300.2420959 +22.6029748     689.4514     70.41446      1.799     5.92    -2.117152     19.84081     56.40798        14     1.207     0.957  10.36   0
       164    715.7969    361.3727 300.3209195 +22.6740367         1217     70.28912      1.822     4.53    -2.526838     19.84081     84.36572        25     1.346     1.237 -22.23   0
       165    976.8431    355.4201 300.4042103 +22.7505662      1695.72     70.36077      1.611     3.43    -2.446084     19.84081     159.9935        21     1.155     1.103 -48.97   0
       166    424.8579    345.4069 300.2355403 +22.5822066      300.343     70.30704      1.734     5.80    -2.018924     19.84081     34.04727         6     1.315     0.720   7.08   0
       167    130.2368    339.7109 300.1457960 +22.4921721     284.2932     70.30704      1.333     4.73    -2.455429     19.84081     35.66631         6     0.927     0.686 -71.45   0
       168     99.3729    339.3604 300.1363214 +22.4828080     757.2192     70.37867      1.837     4.53    -2.419533     19.84081     62.58573        17     1.278     1.020 -19.34   0
       169    992.5604    335.8278 300.4154754 +22.7496456     292.6843     70.37867      1.509     4.31     -2.34562     19.84081     29.40406         6     1.082     0.490  30.76   0
       170    787.4804    322.1571 300.3559881 +22.6842618     382.3715     70.30704      1.524     4.52    -2.292312     19.84081     34.89823         5     1.129     0.513  26.66   0
       171    885.4692    311.6026 300.3899537 +22.7105965     1171.084     70.28912      1.805     4.15    -2.433078     19.84081     85.73682        25     1.340     1.209  20.64   0
       172    304.0210    309.3406 300.2096718 +22.5356072     1354.723     70.27119      1.918     4.41    -2.125275     19.84081     101.9094        24     1.334     1.222   6.31   0
       173    382.7497    304.6645 300.2356732 +22.5578827     502.9056     70.37867      1.800     5.53    -2.005057     19.84081     45.82787         8     1.146     0.751 -43.09   0
       174    736.5696    292.9901 300.3495989 +22.6606243     893.0187     70.32495      1.973     4.97    -2.054931     19.84081       64.161        18     1.217     1.058 -71.26   0
       175   1007.7988    285.0624 300.4367144 +22.7396219     582.8007     70.28912      1.909     6.39    -2.143774     19.84081     41.88856        15     1.457     0.921 -82.70   0
       176    220.9616    290.6563 300.1899181 +22.5053260     258.0007     70.32495      1.535     4.62    -2.246842     19.84081     24.30437         6     0.825     0.735   5.55   0
       177    660.8608    283.9696 300.3289476 +22.6353391     681.3921     70.36077      1.776     6.19    -1.935489     19.84081     45.25703        19     1.349     1.259  75.00   0
       178    856.6774    275.3922 300.3927381 +22.6915652     786.7118     70.28912      1.792     6.16    -2.421148     19.84081     62.05371        18     1.354     1.106  67.20   0
       179    587.9503    275.9588 300.3088471 +22.6111800     492.9181     70.36077      1.747     5.80    -1.978125     19.84081     39.66328         9     1.077     0.964 -40.55   0
       180    868.3675    275.0042 300.3965078 +22.6949566       456.17     70.30704      1.755     4.92    -2.460003     19.84081     49.47822         7     1.274     0.538  20.58   0
       181    985.1454    264.3467 300.4363763 +22.7268819     583.5635     70.36077      1.568     4.11    -2.143774     19.84081     55.51676        10     1.040     0.760 -74.17   0
       182    220.1026    258.2034 300.2001876 +22.4957570     339.5331     70.23533      1.640     5.13    -2.184815     19.84081     39.81446         9     1.165     0.922  47.64   0
       183     81.5324    252.9293 300.1588432 +22.4526637     1226.126     70.36077      1.724     4.21    -2.216854     19.84081     107.6753        22     1.289     1.160  87.88   0
       184    904.7926    250.3482 300.4158677 +22.6987861     438.3578     70.32495      1.699     3.55     -2.26738     19.84081     36.21972         5     0.827     0.439 -15.25   0
       185    238.8997    246.3119 300.2098908 +22.4979844     3208.546     70.48598      1.895     3.82     -2.15231     19.84081     219.1074        37     1.444     1.331  87.70   0
       186     23.1178    240.7805 300.1446441 +22.4316478     709.1075     70.30704      1.506     3.34    -2.254281     19.84081     78.52312        15     1.050     0.983  21.42   0
       187    222.7780    237.2410 300.2078244 +22.4905449     367.3359     70.36077      1.588     2.20    -2.143418     19.84081     56.52117         5     0.695     0.636 -46.81   0
       188    882.7396    227.2817 300.4164819 +22.6855503     2013.973     70.41446      1.789     3.94    -2.379252     19.84081     164.7684        30     1.395     1.275  20.38   0
       189    986.2839    226.0779 300.4491561 +22.7162240     1651.015     70.43234      1.694     3.64    -2.143774     19.84081     121.2019        23     1.269     1.080  43.87   0
       190    356.6095    214.0012 300.2569779 +22.5240203     440.8388      70.1456      1.624     4.02    -1.978435     19.84081     30.93842         6     1.374     0.337  62.02   0
       191    483.5273    210.1264 300.2977184 +22.5609681     956.7524     70.37867      2.042     5.77    -1.905679     19.84081     61.68479        23     1.491     1.253  80.85   0
       192    122.9690    211.9401 300.1850211 +22.4533396     296.5221     70.36077      1.583     3.49    -2.146915     19.84081     44.79856         6     0.997     0.509 -76.43   0
       193    257.7726    190.1832 300.2339768 +22.4875389     3443.553     70.34286      1.834     3.82    -2.167741     19.84081      251.439        35     1.397     1.321 -70.54   0
       194    109.5443    189.9204 300.1879972 +22.4429941     270.3827     70.36077      1.186     3.76    -2.082227     19.84081     43.16182         6     0.813     0.498 -89.82   0
       195    503.6259    175.3202 300.3152701 +22.5570000      3662.56     70.30704      1.969     4.24    -1.946212     19.84081     221.5692        40     1.524     1.409  88.73   0
       196    390.2540    175.3388 300.2799910 +22.5230117     389.4389     70.37867      1.709     5.00    -1.969288     19.84081     31.59331         7     1.170     0.604 -37.89   0
       197    756.1611    165.1202 300.3972137 +22.6297622     429.0672     70.28912      1.919     5.43    -1.954307     19.84081     39.73767         7     1.207     0.863 -39.73   0
       198    631.8997    155.3401 300.3616850 +22.5897134     3622.152     70.41446      1.946     4.16    -1.925892     19.84081     257.0696        38     1.450     1.403  43.15   0
       199    407.1148    154.3747 300.2920394 +22.5220490      737.368     70.28912      1.911     4.95    -2.000325     19.84081     56.64941        14     1.276     0.985  83.00   0
       200    673.4705    153.3464 300.3752775 +22.6015996     421.7582     70.34286      1.744     4.68    -1.948721     19.84081     39.88289         8     0.977     0.764 -37.56   0
       201    689.1981    148.7512 300.3816670 +22.6049928     353.3988     70.30704      1.802     5.12    -1.949128     19.84081     31.39767         7     1.219     0.608  15.48   0
       202    155.6379    147.8378 300.2159753 +22.4447487     241.8574     70.39657      1.540     5.62    -2.081451     19.84081      39.0627         9     1.222     0.728  -3.57   0
       203    676.0781    140.1631 300.3803679 +22.5985938     1706.636     70.28912      1.995     4.63    -1.991555     19.84081     107.0585        29     1.452     1.289  69.05   0
       204    691.5717    139.5429 300.3853946 +22.6030587     359.2161     70.32495      1.814     4.21     -1.97395     19.84081     41.71651         5     1.108     0.587  53.53   0
       205    762.4699    131.5979 300.4100582 +22.6220204       765.79     70.27119      1.839     7.17    -1.995153     19.84081     55.70176        20     1.394     1.217  63.46   0
       206    700.8907    125.3230 300.3929116 +22.6017658     467.4248     70.46811      1.569     3.78    -2.006145     19.84081     39.04193         6     1.002     0.410  14.22   0
       207    506.4958    124.4392 300.3326751 +22.5432487     571.3893     70.30704      1.846     5.93    -1.913988     19.84081     40.23161        11     1.074     0.920 -55.66   0
       208    410.3485    122.9879 300.3032302 +22.5140068     365.7647     70.34286      1.533     4.97    -2.064359     19.84081      45.2033         7     1.071     0.653 -25.54   0
       209    181.6804    112.7959 300.2354383 +22.4425047     2175.606     70.23533      1.800     3.96    -2.090085     19.84081     157.5499        29     1.385     1.256  45.77   0
       210    297.8100    104.8828 300.2741046 +22.4750633     654.6887     70.27119      1.668     6.09    -2.307957     19.84081     59.42179        13     1.298     0.817 -75.49   0
       211    742.7834    105.3545 300.4124406 +22.6085809     358.2271     70.34286      1.413     3.51    -1.993787     19.84081     41.51466         5     0.788     0.451 -14.36   0
       212    781.0603     99.9343 300.4261247 +22.6184913     400.1988     70.36077      1.946     6.92     -2.01964     19.84081     26.13387         9     1.293     1.038  43.14   0
       213    800.5685     96.0885 300.4334513 +22.6232304     1340.575     70.28912      1.883     4.29    -2.023944     19.84081     89.95198        24     1.318     1.202   2.12   0
       214    183.8628     92.0581 300.2428446 +22.4372076      529.341     70.37867      1.857     5.46    -2.106737     19.84081     60.95247        11     1.142     0.735 -16.70   0
       215    974.9026     88.9964 300.4900968 +22.6734088      382.828     70.23533      1.620     5.66    -2.083313     19.84081     48.35804         8     1.109     0.815 -13.25   0
       216    749.1620     88.4478 300.4199133 +22.6056337     427.7643     70.34286      1.803     5.03     -2.00733     19.84081     41.09793         9     1.219     0.692  23.59   0
       217    601.8801     74.0923 300.3787011 +22.5573767     298.8218     70.43234      1.548     4.61    -1.849995     19.84081     43.54023         6     1.030     0.587 -10.76   0
       218    764.6426     67.9151 300.4313978 +22.6043709     483.2709     70.28912      2.080     4.74    -2.008907     19.84081     34.19868         7     0.939     0.735  35.68   0
       219    573.0491     66.5151 300.3721835 +22.5465596     1039.687     70.30704      1.824     4.71    -1.873505     19.84081     84.48856        20     1.301     1.112 -26.03   0
       220    297.0636     64.2728 300.2870472 +22.4631810     418.6961     70.36077      1.605     4.37    -2.107785     19.84081      34.7784         7     1.403     0.388 -57.31   0
       221     10.3810     62.7996 300.1984424 +22.3767695     311.1086     70.25327      1.578     4.11    -1.807329     19.84081     50.99591         6     1.096     0.690  52.69   0
       222    530.5216     60.6215 300.3608577 +22.5321208     820.3632     70.32495      1.986     5.64    -1.904555     19.84081     56.17002        20     1.376     1.197   9.69   0
       223    635.9769     57.2994 300.3947655 +22.5627699     792.2659     70.27119      1.745     4.73    -1.844994     19.84081     62.14101        15     1.327     0.860 -56.99   0
       224    456.1648     51.1402 300.3407938 +22.5071099     1288.606     70.34286      1.970     5.39    -2.075657     19.84081     91.86028        24     1.509     1.150 -87.17   0
       225    103.6492     48.9990 300.2318885 +22.4007894     873.6091     70.30704      1.788     3.77    -2.137998     19.84081     80.91938        18     1.218     1.043 -59.27   0
       226    164.3182     31.2430 300.2564982 +22.4138904     528.8961     70.28912      1.735     4.54    -2.379727     19.84081     53.39405         8     1.057     0.821 -29.72   0
       227    730.8826   1014.9532 300.1130321 +22.8661126     490.2985     70.32495      1.425     4.36    -4.652666     19.84081     55.92685         8     1.273     0.424  61.22   0
       228    106.2030   1013.2601 299.9192863 +22.6779837     1148.595     70.30704      9.784    11.14    0.1055087     19.84081     38.19619        21     1.997     1.730 -22.22  27
