#   1 NUMBER                 Running object number                                     
#   2 X_IMAGE                Object position along x                                    [pixel]
#   3 Y_IMAGE                Object position along y                                    [pixel]
#   4 ALPHA_J2000            Right ascension of barycenter (J2000)                      [deg]
#   5 DELTA_J2000            Declination of barycenter (J2000)                          [deg]
#   6 FLUX_APER              Flux vector within fixed circular aperture(s)              [count]
#   7 FLUXERR_APER           RMS error vector for aperture flux(es)                     [count]
#   8 FLUX_RADIUS            Fraction-of-light radii                                    [pixel]
#   9 FWHM_IMAGE             FWHM assuming a gaussian core                              [pixel]
#  10 BACKGROUND             Background at centroid position                            [count]
#  11 THRESHOLD              Detection threshold above background                       [count]
#  12 FLUX_MAX               Peak flux above background                                 [count]
#  13 ISOAREA_IMAGE          Isophotal area above Analysis threshold                    [pixel**2]
#  14 A_IMAGE                Profile RMS along major axis                               [pixel]
#  15 B_IMAGE                Profile RMS along minor axis                               [pixel]
#  16 THETA_IMAGE            Position angle (CCW/x)                                     [deg]
#  17 FLAGS                  Extraction flags                                          
         1    526.2838     14.2870 300.3609231 +22.5320698     785.2325     70.30894      1.513     3.13     -2.07521     19.80604     85.41653        16     1.103     0.892 -89.72   0
         2    631.4898     10.9964 300.3947423 +22.5626395     808.8823     70.11227      1.572     3.99    -1.815301     19.80604     72.53725        17     1.188     0.976  79.08   0
         3    227.2475     10.4308 300.2691616 +22.4413472     370.2432     70.23749      1.836     4.95    -2.168655     19.80604     33.05155         6     0.937     0.742  29.81   0
         4    452.0439      5.0041 300.3408308 +22.5071596     1247.613     69.62718      1.527     3.02    -2.369713     19.80604     132.8162        21     1.215     0.972  39.63  16
         5     99.3814      2.8832 300.2318747 +22.4008457     827.0397     62.44151      1.337     3.02    -2.196657     19.80604     95.91592        12     1.039     0.733  68.60  24
         6    942.4224      1.7113 300.4946381 +22.6530721     105.2121     56.64389      0.950     3.45    -1.785674     19.80604     29.94715         5     0.753     0.457 -71.86  24
         7     83.7664    979.5722 299.9096569 +22.6762317     1924.241     70.21961     18.468    64.60     3.710351     19.80604     72.63093       701    14.201     8.154 -71.65  19
         8    231.9732   1020.7780 299.9422834 +22.7325614     1692.219      67.5778      8.338    17.77     3.220255     19.80604      48.4241        62     3.670     2.390  25.49  27
         9    244.3013   1023.6094 299.9451927 +22.7370759      1085.84     54.88811      3.734     9.41     1.800234     19.80604     60.09049        27     2.201     1.311  -8.86  27
        10    239.4167   1022.8766 299.9439133 +22.7353987     966.3931     58.81828      6.012    11.10     2.421116     19.80604     46.00364        27     2.886     1.188 -49.25  27
        11    151.3516   1019.3956 299.9176827 +22.7079448     1613.022     70.18385     12.486    16.70     11.61106     19.80604      44.8107        49     3.128     2.478  13.47  26
        12    139.9928   1020.2949 299.9138611 +22.7047897     1184.005     68.79286      7.986    11.65     11.83523     19.80604     37.71156        19     2.105     1.797  58.67  19
        13    131.6731   1015.9387 299.9126952 +22.7010422     1283.755     70.23749     10.383    15.05     11.25907     19.80604     46.67577        33     2.595     2.425 -75.83  19
        14    106.9359   1002.6874 299.9093265 +22.6898141     1690.918     70.29108     23.349    49.82     9.277462     19.80604     50.03797       275     9.600     7.174  84.72  19
        15    460.9854   1003.3562 300.0191651 +22.7963470     531.2427     70.21961      1.021     1.80    -4.584466     19.80604     112.6243         7     0.836     0.518 -23.28   0
        16    391.5825   1001.4625 299.9981943 +22.7749645     3716.754     70.18385      1.077     1.99    -4.626316     19.80604     541.2306        20     0.894     0.873  41.00   0
        17    537.8046   1010.4941 300.0407425 +22.8214567     248.4249     70.09436      1.058     1.95    -4.557501     19.80604     54.20609         5     0.674     0.461 -23.09   0
        18    937.6862    979.9393 300.1752456 +22.9326884     1312.639     70.30894      1.106     1.76     -4.51343     19.80604     250.9636        12     0.839     0.700 -35.17   0
        19    588.0172    977.1167 300.0672398 +22.8269598     173.6956     70.16596      0.992     2.47    -4.604189     19.80604     50.09528         6     0.817     0.624 -56.58   0
        20    726.3708    968.8284 300.1130172 +22.8661046       453.91     70.16596      1.453     4.77    -4.533735     19.80604      65.1914        10     1.235     0.644  76.23   0
        21     67.8561   1019.5184 299.8917082 +22.6828920     2581.725     70.23749     11.028    29.98     5.612597     19.80604     70.70016       187     5.753     4.336 -15.64  27
        22    538.9681    964.1328 300.0562019 +22.8085138     181.4898     70.20174      1.012     2.16    -4.618114     19.80604     50.36917         5     0.607     0.566  84.88   0
        23    761.2259    962.9152 300.1257995 +22.8748668     577.9908     70.18385      1.173     2.28    -4.530292     19.80604     104.6233        10     0.829     0.702 -86.34   0
        24    783.5784    956.7758 300.1347620 +22.8798121     6751.517     70.16596      1.077     1.81    -4.541795     19.80604     1200.504        31     0.998     0.915  59.20   0
        25    974.1926    956.3315 300.1943151 +22.9368627     267.4543     70.18385      1.225     3.51    -4.479791     19.80604     61.11276         7     0.922     0.652  47.26   0
        26    829.1331    956.6808 300.1489863 +22.8934518     291.2796     70.30894      1.082     2.77    -4.555186     19.80604     56.29092         6     0.759     0.613 -33.91   0
        27    567.0076   1006.8863 300.0510060 +22.8291891     1022.515     70.11227      1.175     2.06    -4.576683     19.80604     171.5172        11     0.885     0.700 -42.66   0
        28    488.2693    944.9940 300.0466575 +22.7878071     256.8612     70.16596      1.051     2.53     -4.64315     19.80604     62.71025         6     0.941     0.448  -8.80   0
        29    835.0981    944.2056 300.1549072 +22.8916619     170.5292     70.09436      1.187     3.82    -4.581346     19.80604     35.06273         5     0.803     0.521 -53.09   0
        30    792.0988    938.9927 300.1432067 +22.8772666     742.8575     70.09436      1.113     1.80    -4.576306     19.80604     173.2885        10     0.821     0.674  69.53   0
        31    975.1975    937.5912 300.2007306 +22.9317854     158.5115     70.02269      0.867     1.89     -4.51355     19.80604     50.50838         5     0.662     0.465 -19.81   0
        32    830.2535    932.3239 300.1572662 +22.8867995     454.7307     70.23749      1.093     1.57    -4.600915     19.80604     111.3819         5     0.650     0.444  18.26   0
        33    938.3267    929.4814 300.1918757 +22.9184001      196.669     70.30894      1.102     3.39    -4.602246     19.80604     44.47724         5     0.777     0.429 -23.35   0
        34    729.8629    922.8071 300.1290894 +22.8539509     403.1598     70.16596      1.199     1.95    -4.595273     19.80604     80.22149         8     0.751     0.613 -48.77   0
        35    741.4111    919.7522 300.1336810 +22.8565393     391.4607     70.21961      1.125     2.82    -4.595479     19.80604     58.37669         7     0.879     0.569  39.93   0
        36    442.6895    919.1523 300.0408906 +22.7667150      2357.26     70.16596      1.136     1.99    -4.664233     19.80604     436.3456        19     0.905     0.881  64.82   0
        37    220.7700    908.0331 299.9755104 +22.6968915     328.9997     70.21961      1.205     2.57    -3.885953     19.80604     47.79464         7     0.702     0.674 -71.42   0
        38    167.8482    905.0275 299.9600442 +22.6801352     423.0387     70.21961      1.442     3.08     -3.06915     19.80604     53.72038         6     0.717     0.584 -51.80   0
        39    145.1817    902.0541 299.9539699 +22.6724749     861.5909     70.18385      1.172     1.95    -3.228669     19.80604     173.8076        14     0.922     0.844 -32.56   0
        40     76.0039    903.0000 299.9321740 +22.6519651     207.8778     69.96889      1.198     2.51    -3.970964     19.80604     40.80105         5     0.629     0.573 -90.00   0
        41     19.9333    891.6581 299.9184538 +22.6318708     214.7022     70.23749      1.037     3.46    -4.832664     19.80604     43.17479         7     0.760     0.642  -6.25   0
        42   1016.6210    890.5327 300.2289688 +22.9306991     1143.388     70.18385      1.000     1.87    -4.610376     19.80604     217.2944        12     0.773     0.710 -81.97   0
        43    970.8442    889.1986 300.2151286 +22.9165898     1166.865     70.20174      1.094     1.86    -4.651751     19.80604     245.0674        13     0.847     0.805 -36.47   0
        44    676.4257    888.9122 300.1234817 +22.8281940     316.7681     70.14807      1.094     2.90    -4.527989     19.80604     50.06489         5     0.844     0.501  39.98   0
        45    754.5551    883.4498 300.1495932 +22.8500676     337.2748     70.23749      1.108     4.29    -4.595479     19.80604     78.92883         9     1.231     0.539  55.76   0
        46    176.6623    883.2852 299.9698597 +22.6765524     326.1684     70.32679      1.174     2.27    -3.897995     19.80604     48.93841         5     0.717     0.434 -70.87   0
        47    622.5502    877.1682 300.1105298 +22.8086592     2799.776     70.23749      1.126     1.98    -4.535071     19.80604     461.2639        23     1.000     0.898 -86.55   0
        48    425.1990    874.3658 300.0500286 +22.7486238     376.9936     70.16596      1.265     2.34    -4.664233     19.80604     73.93925         8     0.844     0.605  22.91   0
        49    172.8389    871.2549 299.9725872 +22.6719567     782.0397     70.20174      1.156     2.08    -4.300185     19.80604     137.3744        11     0.839     0.709 -79.20   0
        50    643.0083    869.6773 300.1193375 +22.8126493     424.1129     70.16596      1.191     2.28    -4.509795     19.80604     72.64112         7     0.699     0.649  24.37   0
        51    798.5903    856.8248 300.1719782 +22.8556374     2507.215     70.20174      1.125     1.90    -4.546413     19.80604     431.9963        17     0.862     0.851  -1.60   0
        52   1015.7068    856.9200 300.2396253 +22.9207753     681.3084     70.32679      1.139     2.17    -4.724904     19.80604     124.9796        10     0.814     0.734  60.58   0
        53    515.4902    849.5778 300.0861874 +22.7686173     420.9619     70.13017      1.422     3.17    -4.592566     19.80604     62.13189         7     0.934     0.562 -63.60   0
        54    161.9292    847.4840 299.9769337 +22.6618683     581.8544     70.30894      1.196     2.07    -4.620676     19.80604     89.56545        10     0.830     0.683 -86.65   0
        55    311.7143    839.7156 300.0260145 +22.7046200     31527.09     70.32679      1.186     2.05    -4.262129     19.80604     4989.243        65     1.154     1.094 -84.96   0
        56    577.4766    842.8012 300.1076843 +22.7852760     226.4145     70.09436      1.109     2.41    -4.532145     19.80604     61.92374         7     0.825     0.580   8.22   0
        57    569.5555    838.6197 300.1065797 +22.7816996     1042.546     70.23749      1.175     2.59    -4.531929     19.80604     137.5648        14     0.968     0.818  82.03   0
        58    982.2181    837.4349 300.2355243 +22.9051406     529.6392     70.20174      1.049     1.91    -4.709983     19.80604     97.79749         9     0.792     0.613 -73.08   0
        59    240.3748    837.9792 300.0044036 +22.6827019     322.0775     70.18385      1.221     2.59    -4.099937     19.80604     48.34939         7     0.787     0.762  13.09   0
        60    598.4348    834.7427 300.1168308 +22.7892535       533.47     70.21961      1.207     3.43     -4.49826     19.80604     66.03021         8     0.984     0.612  17.72   0
        61    609.3109    832.7600 300.1208618 +22.7919482     427.7257     70.18385      1.329     2.90    -4.485083     19.80604      56.2728         7     0.804     0.615  57.04   0
        62    714.8462    829.4305 300.1548069 +22.8226559     226.4997     70.23749      1.148     3.61    -4.356717     19.80604     37.40956         7     0.868     0.601 -80.68   0
        63    752.3727    819.3065 300.1697904 +22.8310079     474.4344     70.13017      1.196     2.52     -4.31335     19.80604      68.1096         8     0.874     0.585 -74.10   0
        64    361.4042    816.9344 300.0488782 +22.7130066      18407.2     70.20174      1.231     2.12    -4.197717     19.80604     2616.589        51     1.140     1.049 -85.93   0
        65    375.6301    817.3895 300.0531541 +22.7174075     1141.127     70.20174      1.258     2.19    -4.256873     19.80604     175.3495        16     0.964     0.904  56.56   0
        66    884.4136    812.4950 300.2131503 +22.8686543     1626.535     70.13017      1.067     1.98    -4.623561     19.80604     252.3657        16     0.992     0.745 -57.52   0
        67    372.4288    811.5862 300.0540470 +22.7147826     392.9907     70.21961      1.277     3.46    -4.209249     19.80604     51.13751         5     0.769     0.449 -70.49   0
        68    642.2680    808.6511 300.1389680 +22.7949203     628.6403     70.18385      1.425     2.69    -4.340627     19.80604     73.65027        12     0.920     0.820  81.17   0
        69    478.9042    808.8356 300.0880621 +22.7459527     371.3209     70.20174      1.412     4.11    -4.448555     19.80604     48.93915         7     0.755     0.679 -26.72   0
        70    243.8153    808.5560 300.0150473 +22.6753013     466.7393     70.21961      1.311     2.29     -4.15316     19.80604     82.90567        10     0.891     0.666  84.92   0
        71     48.6107    804.3880 299.9557581 +22.6154838     405.6621     70.09437      1.486     4.28    -4.635095     19.80604     43.69543         7     0.980     0.532  61.25   0
        72    489.7149    803.4802 300.0931683 +22.7476612       522.72     70.34464      1.298     2.81     -4.43533     19.80604     80.17715        11     0.999     0.668  42.40   0
        73    890.2059    799.9750 300.2190300 +22.8667974     204.3046     70.18385      1.117     2.81    -4.586182     19.80604     49.39743         5     0.781     0.489  35.45   0
        74    347.2428    799.4906 300.0501506 +22.7037540     197.4526     70.20174      1.180     3.41    -4.052437     19.80604     33.41635         5     0.759     0.444 -21.90   0
        75     76.9732    798.2617 299.9665596 +22.6222474     225.2552     70.20174      1.228     3.47    -4.619884     19.80604      55.4651         6     0.784     0.610  54.24   0
        76    868.0755    795.0061 300.2137493 +22.8587349      218.633     70.13017      1.012     2.48    -4.541557     19.80604     45.34027         5     0.662     0.519  -0.16   0
        77    534.2361    781.3777 300.1142140 +22.7546820     356.9018     70.21961      1.178     2.90    -4.262882     19.80604     60.45926         7     0.727     0.657   5.70   0
        78    556.2917    779.0651 300.1218307 +22.7606367     768.1512     70.32679      1.269     2.70    -4.250804     19.80604     106.9909        12     0.984     0.763 -71.66   0
        79    950.7125    777.7870 300.2451119 +22.8785697     2596.928     70.14807      1.125     1.88    -4.437165     19.80604     464.8649        18     0.887     0.835 -77.68   0
        80    939.0848    769.1550 300.2442955 +22.8726053     960.7098     70.18385      1.151     1.88    -4.331846     19.80604     183.9334        12     0.861     0.770  61.61   0
        81    302.0946    763.7622 300.0477373 +22.6799569     545.3365     70.18385      1.347     3.38    -4.041871     19.80604     62.35345         9     0.899     0.724  14.43   0
        82    765.3394    760.6139 300.1929277 +22.8180535     1353.787     70.16596      1.179     2.19     -4.10814     19.80604     186.1016        15     0.900     0.847  27.05   0
        83    970.3475    759.3902 300.2572198 +22.8791742     980.7258     70.20174      1.080     1.90    -4.315602     19.80604     178.0869        12     0.785     0.759   9.46   0
        84    984.2975    749.7104 300.2647190 +22.8805767     116.9288     70.38032      1.216     4.96    -4.272367     19.80604       31.822         6     0.923     0.754  -5.30   0
        85    847.7769    746.3016 300.2232702 +22.8386672     315.2325     70.13017      1.131     2.60    -4.094064     19.80604     67.02544         7     0.878     0.509 -64.31   0
        86    151.2387    747.1538 300.0062557 +22.6299034     317.8715     70.25536      1.171     2.56    -4.299613     19.80604     57.12059         7     0.721     0.650 -77.30   0
        87    883.9625    737.4966 300.2374125 +22.8469894     85415.84     70.20174      1.172     1.96    -4.023906     19.80604     13584.88       104     1.204     1.109  68.34   0
        88    736.1868    737.7471 300.1912858 +22.8027473     444.4966     70.21961      1.156     2.47    -4.057402     19.80604     76.26951         6     0.815     0.539 -69.09   0
        89    570.2732    726.5139 300.1432788 +22.7497555     943.8386     70.32679      1.186     2.21    -3.842835     19.80604      130.527        14     0.918     0.793  26.52   0
        90    751.4263    723.6773 300.2006100 +22.8032796     5397.011     70.20174      1.240     2.24    -4.017102     19.80604     691.7807        30     1.063     0.986  73.18   0
        91    253.1313    719.0593 300.0470581 +22.6524414     2889.087     70.21961      1.288     2.11    -3.973609     19.80604     430.9153        21     1.004     0.942 -57.95   0
        92    334.9897    717.0301 300.0731667 +22.6764313     778.1545     70.20174      1.275     2.24    -3.870447     19.80604     128.0493        10     0.838     0.722 -13.84   0
        93    543.3112    712.6964 300.1393817 +22.7377022     435.8415     70.38032      1.412     4.12    -3.785898     19.80604     54.06877         7     1.053     0.461 -32.65   0
        94    534.9385    704.6830 300.1393824 +22.7328912     1944.003     70.29108      1.324     2.57    -3.754733     19.80604     246.1954        18     0.977     0.932  13.93   0
        95    525.3753    698.4455 300.1384350 +22.7282325     918.3696     70.21961      1.407     2.69    -3.708857     19.80604     99.95908        13     0.923     0.830  42.31   0
        96    188.5419    694.7696 300.0348847 +22.6260873     439.2339     70.21961      1.366     2.63    -3.859962     19.80604     55.86745         8     0.830     0.651 -35.17   0
        97    202.8564    693.3741 300.0397868 +22.6299847     317.7152     70.20174      1.380     2.33      -3.8358     19.80604     59.87618         5     0.674     0.632 -75.21   0
        98    450.0049    688.2042 300.1183144 +22.7026803     1044.358     70.05854      1.394     2.45    -3.567523     19.80604     145.6343        17     1.130     0.872  51.14   0
        99    228.5608    689.6614 300.0489827 +22.6366368     310.4285     70.20174      1.398     5.12    -3.808378     19.80604     38.24093         9     0.965     0.769  84.71   0
       100    972.3350    689.0978 300.2807066 +22.8595851     315.6299     70.29108      1.344     2.96    -3.982891     19.80604     42.66331         6     0.754     0.593 -13.83   0
       101    549.4985    688.5419 300.1491637 +22.7326284     327.1047     70.29108      1.388     3.35    -3.769574     19.80604     46.02049         9     0.945     0.846  60.28   0
       102    104.1082    683.2910 300.0123855 +22.5974463     11331.38     70.36248      1.294     2.21    -3.813367     19.80604     1639.391        41     1.126     1.048  77.91   0
       103     24.8919    684.8265 299.9872837 +22.5740988     480.1137     70.14807      1.347     2.15      -3.9404     19.80604     75.70318         7     0.778     0.590  67.10   0
       104    534.6259    683.5468 300.1461596 +22.7267334     578.9022     70.21961      1.311     3.68    -3.715165     19.80604     77.44353        11     1.028     0.790 -13.98   0
       105    952.8484    669.2440 300.2810881 +22.8480424     573.6968     70.23749      1.176     2.34    -3.863592     19.80604     99.02611         9     0.878     0.599  51.75   0
       106     50.2329    667.2153 300.0008799 +22.5766612     984.0606     70.18385      1.809     4.72     -3.78856     19.80604     93.13361        17     1.480     0.823 -76.69   0
       107    115.4350    667.7862 300.0209460 +22.5964028     203.7173     70.20174      1.376     3.49    -3.706229     19.80604     31.53796         5     0.753     0.468 -73.83   0
       108    819.5460    667.0765 300.2402433 +22.8074583     318.9156     70.23749      1.182     3.90    -3.786826     19.80604     51.86485         6     0.966     0.497  87.58   0
       109    498.1855    663.8764 300.1412168 +22.7101573     297.2266     70.21961      1.442     2.58    -3.415722     19.80604     49.09144         5     0.731     0.660  45.86   0
       110    893.2545    662.0339 300.2648549 +22.8281082     340.3811     70.21961      1.165     2.16    -3.713405     19.80604     64.24688         7     0.708     0.622  77.90   0
       111    455.1422    656.4658 300.1302343 +22.6951170     504.3107     70.23749      1.416     3.71    -3.355017     19.80604       60.737         8     0.933     0.718  20.09   0
       112    602.7704    655.1218 300.1766147 +22.7390189     425.3312     70.20174      1.931     5.68    -3.605137     19.80604     43.81668         8     1.013     0.898  53.33   0
       113    620.8453    652.8333 300.1829860 +22.7437835     450.2383     70.25536      1.563     2.49    -3.637232     19.80604      54.3665         6     0.758     0.519  35.31   0
       114    499.1278    652.3663 300.1452530 +22.7071376     534.2503     70.20174      1.377     3.40    -3.311694     19.80604     65.08708         8     0.904     0.663 -78.68   0
       115    932.8904    647.5493 300.2819214 +22.8358298     2040.597     70.21961      1.215     2.00    -3.728448     19.80604     322.5177        19     1.000     0.855  52.72   0
       116    464.6916    647.7172 300.1360502 +22.6954723     954.7332     70.32679      1.405     2.78    -3.272048     19.80604     121.6207        13     0.950     0.831  83.95   0
       117    829.6290    644.3512 300.2507758 +22.8039566     218.9863     70.21961      1.243     3.73    -3.604605     19.80604     37.61699         5     0.963     0.475  -3.01   0
       118     26.8080    641.5358 300.0019555 +22.5622669     2891.445     70.18385      1.269     2.29    -3.826301     19.80604     402.0276        25     1.060     0.994 -58.93   0
       119    328.1555    634.5043 300.0978798 +22.6507127     5447.861     70.21961      1.337     2.46     -3.58063     19.80604     612.9875        30     1.123     1.038 -83.60   0
       120    450.6199    631.4891 300.1369491 +22.6865947     5144.055     70.14807      1.366     2.43    -3.187544     19.80604     634.1046        30     1.118     1.048 -81.45   0
       121    862.1145    625.1562 300.2671416 +22.8081837     1003.297     70.18385      1.216     2.18     -3.21151     19.80604     156.4391        14     0.901     0.851 -32.48   0
       122    946.7905    622.5710 300.2943777 +22.8328224     7360.296     70.20174      1.190     2.06    -3.666642     19.80604     1060.269        36     1.071     1.003 -49.71   0
       123    511.1333    621.0306 300.1591782 +22.7017483     6643.552     70.20174      1.354     2.58    -3.025095     19.80604     757.1381        33     1.145     1.053  38.86   0
       124    238.7575    616.5903 300.0759125 +22.6187449      790.618     70.20174      1.392     2.17    -3.542165     19.80604     128.1513        12     0.906     0.775 -34.55   0
       125    680.9688    616.3436 300.2135725 +22.7513418     380.8394     70.21961      1.376     2.59    -3.715731     19.80604     56.78128         5     0.808     0.505  57.75   0
       126    442.8702    609.2382 300.1417729 +22.6778859     2506.646     70.16596      1.357     2.46    -3.050277     19.80604     340.5912        21     1.020     0.992 -74.18   0
       127    785.6003    608.8859 300.2485892 +22.7805738      438.263     70.07645      1.275     2.73    -3.659154     19.80604     74.18007        11     0.977     0.702  17.64   0
       128    421.1964    607.6515 300.1355465 +22.6709281     715.8701     70.20174      1.356     2.80    -3.101425     19.80604     77.74962        12     0.901     0.838 -12.29   0
       129    175.3228    606.9919 300.0593193 +22.5969521     460.9149     70.16596      1.481     2.69    -3.486433     19.80604     58.44973         9     0.895     0.638  19.80   0
       130    862.5763    604.4075 300.2740321 +22.8023639     1003.226     70.20174      1.392     2.88    -2.994833     19.80604     109.0722        16     1.103     0.851 -43.80   0
       131    559.4431    596.7214 300.1821170 +22.7092635     118274.6     70.18385      1.417     2.53    -2.828369     19.80604     14480.64       148     1.388     1.356 -74.92   0
       132    742.9986    601.3803 300.2377577 +22.7656461     597.7405     70.13017      1.437     2.71     -3.60209     19.80604      69.6179         9     0.877     0.710 -43.10   0
       133    245.6446    596.9473 300.0844393 +22.6151788     2077.207     70.21961      1.349     2.45    -3.504619     19.80604     277.9214        21     1.028     0.975  69.30   0
       134    450.0984    577.2624 300.1544170 +22.6708801     1676.241     70.29108      1.653     2.96    -2.986032     19.80604     153.2672        24     1.474     1.006 -71.94   0
       135    767.2463    565.2504 300.2570575 +22.7625424     298.1735     70.23749      1.303     2.82    -3.195103     19.80604     43.43155         6     0.830     0.648 -78.02   0
       136    846.9584    562.9348 300.2826481 +22.7857724     950.0636     70.18385      1.336     2.49    -3.003228     19.80604     140.6819        15     1.076     0.816 -77.10   0
       137    718.2032    560.7115 300.2432558 +22.7465358     1389.245     70.11227      1.294     2.64     -3.15723     19.80604     175.5681        17     1.078     0.895  66.35   0
       138    962.5460    557.7396 300.3203687 +22.8189223     370.1467     70.25536      1.513     3.43    -3.159866     19.80604     36.84214         5     0.744     0.457  70.45   0
       139    927.6718    557.1623 300.3096833 +22.8083055     222.0674     70.16596      1.426     3.54    -3.088609     19.80604     30.26561         5     0.995     0.364   3.57   0
       140    505.6995    556.9268 300.1783276 +22.6817233     353.5935     70.34464      1.317     2.80    -2.793424     19.80604     48.24761         7     0.741     0.632 -89.46   0
       141    975.3557    554.4788 300.3254230 +22.8218242     807.1777     70.18385      1.231     2.78    -3.142215     19.80604     103.4686        11     0.950     0.728  76.10   0
       142    847.3640    553.4613 300.2858541 +22.7831733     1329.384     70.21961      1.383     2.51    -2.967463     19.80604     149.1895        15     0.933     0.894 -85.84   2
       143    960.9222    553.4674 300.3212512 +22.8172085     434.9742     70.30894      1.446     3.99    -3.108666     19.80604     50.13435         6     0.748     0.637  46.28   0
       144    600.7465    551.3636 300.2097192 +22.7086326     439.2299     70.21961      1.680     3.30    -2.622002     19.80604     43.36477         6     0.717     0.642  32.77   0
       145    885.3779    548.2390 300.2993997 +22.7930670     2584.007     70.23749      1.279     2.27     -2.95177     19.80604     323.6117        22     1.039     0.953  40.74   0
       146    977.0965    538.7604 300.3310754 +22.8178303     424.4588     70.18385      1.193     4.02    -3.058461     19.80604     77.29356        11     1.262     0.658 -31.78   0
       147    117.6724    538.9266 300.0635328 +22.5601302     636.2814     70.25536      1.490     2.96    -3.679258     19.80604     68.18076         7     0.835     0.567 -71.39   0
       148    110.7140    529.0699 300.0645746 +22.5552152     314.4285     70.30894      1.214     4.00    -3.692914     19.80604     40.64158         6     0.931     0.491 -52.05   0
       149    659.0599    518.8428 300.2384458 +22.7167826      473.272     70.18385      1.541     4.24    -2.873678     19.80604     44.61187         9     0.989     0.674 -29.72   0
       150    973.2683    510.6800 300.3390089 +22.8086159     398.2654     70.30894      1.348     4.95    -3.051893     19.80604     46.87014         9     1.174     0.590  85.82   0
       151    719.6819    511.0807 300.2598485 +22.7327289     431.3758     70.34464      1.183     2.52    -2.969943     19.80604     69.91076         7     0.737     0.612 -70.16   0
       152    876.8525    507.1948 300.3100834 +22.7787229     633.1102     70.18385      1.373     2.82    -2.934201     19.80604     85.45502        15     1.030     0.872 -47.74   0
       153    860.8941    503.5233 300.3063027 +22.7728856     225.5166     70.32679      1.192     4.23    -2.924857     19.80604     39.86359         7     0.913     0.558  83.83   0
       154    605.4553    501.6443 300.2273451 +22.6957723     1751.327     70.20174      1.438     2.68    -2.570679     19.80604     192.6842        23     1.119     1.008  77.44   0
       155    965.8238    500.5950 300.3399654 +22.8034879     241.9042     70.18385      1.146     2.45    -3.040433     19.80604     55.80651         6     0.718     0.593 -84.84   0
       156   1016.6002    480.4243 300.3623552 +22.8129053     732.9673     70.13017      1.182     2.38    -3.123793     19.80604     97.34788        11     0.864     0.723 -82.75   0
       157    888.3986    480.2552 300.3224375 +22.7744444     235.8239     70.13017      1.072     3.35    -2.944148     19.80604     46.89608         5     0.750     0.433  68.10   0
       158    974.8892    479.0568 300.3497919 +22.8000159     635.5642     70.23749      1.338     2.67    -3.055228     19.80604      84.1888        10     0.855     0.720 -78.10   0
       159    715.8491    475.5667 300.2701961 +22.7213820     663.6384     70.23749      1.388     2.63    -2.964948     19.80604     79.79816        12     0.935     0.794  62.10   0
       160    220.4083    474.0971 300.1165233 +22.5723697     333.9131     70.09436      1.207     4.26     -3.39442     19.80604     46.26749        10     1.041     0.722 -88.61   0
       161    282.3212    469.7949 300.1371664 +22.5897121     2035.874     70.11227      1.383     2.57    -3.019545     19.80604     263.7858        22     1.070     1.025  57.61   0
       162   1015.3140    467.6552 300.3661037 +22.8088508     2444.893     70.25536      1.200     2.16    -3.119774     19.80604     392.9532        21     0.987     0.923  74.39   0
       163    229.5715    464.4880 300.1224935 +22.5723627      4429.39     70.20174      1.430     2.53    -3.285141     19.80604      541.235        30     1.144     1.083  79.21   0
       164    370.3397    458.6899 300.1681436 +22.6129308     2752.734     70.29108      1.492     2.72    -2.982719     19.80604     302.3079        28     1.214     1.080 -83.13   0
       165    995.2289    458.7414 300.3627364 +22.8002723     1011.177     70.20174      1.182     2.18    -3.087732     19.80604     172.9925        14     0.980     0.760  75.64   0
       166    614.5129    455.2497 300.2452412 +22.6851685     10811.31     70.20174      1.471     2.74    -2.680926     19.80604     1098.007        43     1.231     1.195  66.71   0
       167    631.3398    455.7278 300.2503249 +22.6903507     364.5732     70.23749      1.788     4.66    -2.751673     19.80604     38.46451         6     1.063     0.580 -56.96   0
       168    811.4595    445.3644 300.3097966 +22.7413650     343.9665     70.21961      1.580     4.15    -2.951431     19.80604     33.45738         6     1.052     0.466  34.64   0
       169    947.8661    437.5264 300.3548611 +22.7799868     336.5309     70.23749      1.214     3.21    -3.016446     19.80604     58.16868        10     0.933     0.777 -75.23   0
       170    169.2934    435.6053 300.1131445 +22.5459906     1231.969     70.09437      1.294     2.52    -3.168128     19.80604       137.93        15     1.044     0.829 -54.23   0
       171    555.1822    424.7712 300.2366743 +22.6586293     3738.904     70.18385      1.474     2.78    -2.710533     19.80604     391.6295        28     1.156     1.087 -89.99   0
       172    968.7607    424.7898 300.3655144 +22.7825869     661.1075     70.20174      1.300     2.84    -3.049132     19.80604     99.06771        13     1.028     0.765  76.97   0
       173    270.3523    424.3045 300.1482251 +22.5730698     364.3954     70.23749      1.332     3.83    -2.993228     19.80604     45.63596         8     0.829     0.780 -81.76   0
       174    759.2890    413.4922 300.3038970 +22.7165749      685.865     70.36248      1.665     3.46    -3.026716     19.80604     65.84551        13     1.076     0.835 -80.14   0
       175    461.8629    411.0193 300.2121012 +22.6266992     3599.204     70.18385      1.490     2.80    -3.044888     19.80604     391.6853        29     1.197     1.126  25.40   0
       176    853.5814    405.0804 300.3360114 +22.7424151     834.7795     70.20174      1.530     3.11    -2.956964     19.80604     85.36835        14     0.990     0.911  33.07   0
       177    950.8787    405.1453 300.3663209 +22.7715849      275.795     70.23749      1.232     3.67    -3.024588     19.80604     40.09631         8     0.818     0.680  39.44   0
       178    446.3701    400.0033 300.2108596 +22.6188911     412.4758     70.16596      1.791     4.92    -3.046454     19.80604     28.69064         8     0.973     0.704 -13.48   0
       179    529.0839    397.3796 300.2374499 +22.6429402     411.5878     70.14807      1.540     5.80    -2.766626     19.80604       32.623         7     1.234     0.767  21.32   0
       180    826.1404    392.9231 300.3314090 +22.7307000     214.3475     70.25536      1.335     3.78    -2.972554     19.80604     32.97441         5     0.792     0.519  33.37   0
       181    349.3453    390.2979 300.1838329 +22.5870070     1472.076     70.29108      1.471     2.74    -2.825025     19.80604     165.1112        21     1.102     1.011  67.59   0
       182     67.8664    387.8777 300.0971383 +22.5018644     474.7477     70.29108      1.315     3.21    -2.946387     19.80604     80.47656        10     0.951     0.743  47.05   0
       183    318.6964    379.7427 300.1777308 +22.5747850     16960.64     70.27322      1.486     2.68    -2.729626     19.80604      2091.56        55     1.281     1.217  72.01   0
       184    853.1917    376.9223 300.3450371 +22.7342085     740.9022     70.16596      1.326     2.64    -2.966717     19.80604     103.5567        11     0.836     0.823  50.37   0
       185     15.2096    367.6677 300.0873489 +22.4802655     2959.254     70.20174      1.366     2.43    -2.857586     19.80604     355.1403        24     1.091     0.968  84.58   0
       186    768.8195    365.9007 300.3223261 +22.7057605     348.3622     70.13017      1.505     4.59    -3.020317     19.80604     38.66266         8     1.049     0.891  63.20   0
       187    192.3012    365.8473 300.1429534 +22.5328821     168.1202     70.23749      1.104     3.44    -2.807554     19.80604     32.36872         5     0.974     0.352  45.43   0
       188    729.1784    359.3104 300.3121174 +22.6919879     1105.804     70.13017      1.390     3.15    -3.032675     19.80604     111.6287        20     1.130     1.030 -61.44   0
       189    943.9854    351.9880 300.3814392 +22.7542441     423.0367     70.13017      1.449     4.19    -3.018278     19.80604     45.73423         9     0.980     0.789  39.77   0
       190    390.8768    344.0061 300.2117849 +22.5861761     1379.516     70.11227      1.682     3.86    -2.835666     19.80604     111.8064        20     1.331     0.936  66.62   0
       191    829.9321    336.6419 300.3508715 +22.7156662     346.0613     70.18385      1.437     3.03    -2.984474     19.80604     41.58266         7     0.831     0.611  74.08   0
       192    466.7730    323.1740 300.2421609 +22.6029533     747.6029     70.16596      1.618     3.25    -3.047929     19.80604     66.48631         9     0.913     0.672 -79.13   0
       193    711.3974    315.0813 300.3209432 +22.6739543     1266.666     70.11227      1.434     3.01    -2.780159     19.80604     134.0997        18     1.096     0.924  54.57   0
       194    972.6306    309.3110 300.4042314 +22.7505584     1731.721     70.18385      1.305     2.52    -3.130973     19.80604     223.8779        18     1.009     0.901  87.80   0
       195    420.0175    299.2615 300.2353795 +22.5820695     417.2874     70.16596      1.557     2.88    -3.047978     19.80604     39.56565         7     0.701     0.690  46.09   0
       196    125.6394    293.7094 300.1456651 +22.4921862     313.3242     70.20174      1.154     3.39    -2.855812     19.80604     41.55751         5     0.746     0.445  72.46   0
       197     94.8411    293.6008 300.1361325 +22.4829151     669.7715     70.21961      1.483     3.61    -2.846494     19.80604     74.18434        15     1.210     0.789 -44.69   0
       198    178.7157    285.4599 300.1648353 +22.5057414     280.3729     70.30894      1.104     3.44    -2.731969     19.80604     45.09989         6     0.902     0.451 -89.86   0
       199    783.4538    276.4869 300.3559229 +22.6844568      438.999     70.23749      1.791     5.71    -2.895224     19.80604     38.81071         9     1.193     0.769  82.36   0
       200    373.6183    275.8794 300.2285388 +22.5614445     283.6233     70.20174      1.166     3.46    -2.650503     19.80604     30.59041         5     0.810     0.427  70.36   0
       201    881.1746    265.5074 300.3899417 +22.7105756     1299.186     70.14807      1.472     2.83    -2.991891     19.80604     138.2142        17     1.036     0.936  69.23   0
       202    299.8105    263.0203 300.2097615 +22.5356208      1259.28     70.18385      1.506     3.03    -2.457066     19.80604     142.2957        18     1.101     0.968  87.18   0
       203    779.5385    257.2957 300.3609339 +22.6777695     218.6479     70.29108      1.278     4.75    -2.790972     19.80604      43.3335         8     0.903     0.833 -75.67   0
       204    377.8330    258.1309 300.2356118 +22.5576129     613.5198     70.20174      1.773     3.88    -2.606812     19.80604     51.88274         8     0.950     0.604 -27.41   0
       205    194.3631    250.5661 300.1810262 +22.5004216     510.8511     70.25536      1.403     2.71    -2.611519     19.80604     60.11945        10     0.842     0.792  61.21   0
       206    732.4109    246.9479 300.3496113 +22.6606766     908.8066     70.20174      1.493     3.46    -2.635525     19.80604     88.74023        16     1.082     0.918  82.12   0
       207   1003.7631    239.2941 300.4366744 +22.7397544     576.3829     70.18385      1.486     2.84    -3.253641     19.80604     59.20179         9     0.813     0.757 -63.07   0
       208    505.6524    239.5461 300.2814116 +22.5905955     204.2803     70.23749      1.287     4.82    -2.604844     19.80604     32.84248         6     0.926     0.730  70.66   0
       209    736.3298    238.4340 300.3535960 +22.6594045     346.2173     70.20174      1.255     3.03    -2.605192     19.80604     47.51789         7     0.915     0.485  -7.63   0
       210    656.9557    237.7394 300.3290996 +22.6354221     756.0814     70.21961      1.462     3.14    -2.387983     19.80604     85.62603        13     0.976     0.868  32.40   0
       211    852.3731    229.1852 300.3927568 +22.6915095     903.9016     70.21961      1.513     3.64    -2.914122     19.80604     92.11536        14     1.045     0.955   7.89   0
       212    583.1385    229.7354 300.3087143 +22.6110019     589.7438     70.23749      1.784     4.76     -2.43354     19.80604     57.52057        13     1.173     0.996 -77.76   0
       213    864.3290    228.3090 300.3967676 +22.6948387     513.0475     70.36248      1.423     3.04    -2.967256     19.80604     57.29443        10     0.951     0.712 -44.25   0
       214    981.0636    218.5715 300.4363226 +22.7269996     533.5739     70.20174      1.169     2.69    -3.136663     19.80604     79.93158         9     0.868     0.654  71.77   0
       215      4.9123    215.7430 300.1334764 +22.4335980     309.2094      69.4105      1.359     3.79    -2.450455     19.80604     39.90115         6     0.935     0.440  38.41  16
       216    215.0054    211.9522 300.1999757 +22.4955305     403.8432     70.18385      1.302     3.70    -2.438891     19.80604     50.16811         9     0.809     0.760  56.73   0
       217     77.1719    206.8781 300.1587954 +22.4527326     1334.412     70.21961      1.432     2.88    -2.635246     19.80604     155.7818        21     1.192     1.030 -71.33   0
       218    900.2831    203.3132 300.4160889 +22.6984224     440.7419     70.30894      1.277     2.68    -2.820133     19.80604     59.82962         8     0.857     0.616 -87.70   0
       219     27.2325    203.9234 300.1442438 +22.4369035     430.9163     70.20174      1.587     4.06    -2.516926     19.80604     42.52724         7     0.955     0.577  74.57   0
       220    234.4888    200.0322 300.2099004 +22.4979520     3189.226     70.16596      1.496     2.78    -2.330287     19.80604     335.1616        29     1.206     1.102  72.15   0
       221     18.6555    194.5208 300.1446318 +22.4316327     787.0604     70.23749      1.472     3.06    -2.505623     19.80604     103.2349        11     0.946     0.784  65.40   0
       222    217.9689    190.9856 300.2077017 +22.4904013      311.298     70.20174      1.322     2.33    -2.346041     19.80604     47.96337         5     0.618     0.576  -0.51   0
       223    878.4756    181.1850 300.4164734 +22.6855306      2230.76     70.20174      1.463     2.81    -2.632883     19.80604     213.1428        26     1.262     1.152  39.25   0
       224    981.9531    179.8954 300.4491541 +22.7161462     1594.594     70.21961      1.374     2.65    -2.932444     19.80604     227.4683        22     1.139     1.013 -25.76   0
       225    428.0174    176.8626 300.2776013 +22.5493231     376.5909     70.18385      1.376     4.48    -2.586148     19.80604     44.13333         8     1.101     0.611 -66.20   0
       226    180.9378    177.5451 300.2005547 +22.4754381     140.3132     70.27322      1.201     4.56    -2.452143     19.80604     35.92085         5     1.113     0.531  74.92   0
       227    352.2025    168.3869 300.2567697 +22.5241621     407.4584     70.04062      1.722     5.04      -2.5787     19.80604     32.97765         8     0.975     0.737 -78.83   0
       228    118.8583    165.6425 300.1851277 +22.4534036       305.46     70.18385      1.367     5.53    -2.525002     19.80604     56.89445         9     1.055     0.850  -5.07   0
       229    479.3153    163.9495 300.2977526 +22.5609902     1028.243     70.18385      1.547     3.38    -2.603728     19.80604     91.91398        15     1.055     0.932  89.29   0
       230    253.3968    143.9603 300.2339744 +22.4875257     3455.534     70.21961      1.501     2.76    -2.114695     19.80604     407.8469        30     1.236     1.113 -85.86   0
       231    104.5455    143.6147 300.1878288 +22.4427891     368.4667     70.18385      1.349     3.95    -2.437963     19.80604     45.46105         6     0.990     0.451 -33.75   0
       232     14.9135    134.3008 300.1630109 +22.4132317     314.3564     70.36248      1.679     5.18    -2.455986     19.80604     37.49897         8     0.976     0.924 -14.18   0
       233    499.3900    129.1120 300.3153042 +22.5570001     3548.102     70.14807      1.537     2.98    -2.564307     19.80604     345.7351        31     1.211     1.161 -88.20   0
       234    384.8726    128.6012 300.2798411 +22.5225309     361.8738     70.09436      1.361     4.87    -2.495591     19.80604     51.34656         9     0.914     0.790 -13.46   0
       235    752.0405    118.5778 300.3973902 +22.6296675     511.9419     70.23749      1.855     3.37    -2.346495     19.80604     41.83108         8     0.810     0.686 -80.68   0
       236    844.7440    117.1305 300.4267466 +22.6570154     225.2402     70.21961      1.264     5.06    -2.292359     19.80604     36.53205         7     1.047     0.693  69.57   0
       237    550.8765    111.9786 300.3368878 +22.5675065     244.4533     70.20174      1.534     3.17    -2.183066     19.80604     50.29782         5     1.051     0.581  -1.80   0
       238    627.7507    109.1547 300.3617367 +22.5897278      3706.61     70.23749      1.545     3.01    -2.272036     19.80604     361.8087        31     1.216     1.198  62.50   0
       239    402.6746    108.3603 300.2919458 +22.5220538     861.9919     70.18385      1.612     2.80    -2.525405     19.80604     90.81513        14     0.952     0.916 -72.03   0
       240    668.7527    106.6972 300.3753021 +22.6013049     546.2026     70.23749      1.708     3.90    -2.285898     19.80604      46.6576        12     1.040     0.882  10.24   0
       241    685.1916    103.1475 300.3815735 +22.6052092     433.4476     70.20174      1.705     4.63    -2.289559     19.80604     41.85865         6     0.940     0.648  76.30   0
       242    151.5781    101.4841 300.2161108 +22.4448017     355.2445     70.14807      1.377     4.07    -2.221807     19.80604     66.47444         9     1.316     0.717  64.05   0
       243    954.1557     99.5868 300.4665470 +22.6847319     293.7563     70.21961      1.352     3.74    -2.555147     19.80604     47.88064         6     0.833     0.483   8.15   0
       244    723.5512     98.2938 300.3950965 +22.6153044     394.0559     70.23749      1.349     3.60    -2.288894     19.80604     51.60287         6     1.100     0.564  24.73   0
       245    671.8619     94.0511 300.3803734 +22.5986021     1652.476     70.25536      1.474     2.90    -2.270263     19.80604     191.6948        19     1.088     0.997  80.56   0
       246    686.8484     92.6475 300.3854962 +22.6026879     561.9194     70.23749      1.892     6.03    -2.265247     19.80604     39.70227        12     1.370     0.746  42.31   0
       247    758.4791     85.4314 300.4101505 +22.6220687     902.5887     70.20174      1.482     2.86    -2.272154     19.80604     102.0651        17     1.050     0.961  33.73   0
       248    696.2255     78.6881 300.3929456 +22.6014847     415.4935     70.14807      1.423     3.86    -2.188635     19.80604      53.7261        12     0.972     0.917  -6.13   0
       249    502.0072     78.0487 300.3326857 +22.5431156     700.9499     70.20174      1.753     5.76    -2.557747     19.80604     58.12534        11     1.178     0.792  86.18   0
       250     74.9700     78.2645 300.1998427 +22.4151635     473.7982     70.21961      1.588     3.75    -2.246314     19.80604     43.18044         7     0.738     0.676  44.22   0
       251    406.3277     76.2905 300.3034863 +22.5139379     491.2074     70.36248      1.639     3.94    -2.386474     19.80604     55.17104        12     1.181     0.909 -75.76   0
       252    177.4232     66.5402 300.2354778 +22.4425200     2124.964     70.18385      1.442     2.91     -2.11934     19.80604     220.3049        24     1.124     1.052  70.33   0
       253    745.5410     66.6444 300.4122145 +22.6127936     404.6474     70.21961      1.498     3.37    -2.161291     19.80604      55.6254         8     0.856     0.797 -47.03   0
       254    293.1619     58.4483 300.2740794 +22.4748945     682.9669     70.21961      1.586     4.23    -2.058891     19.80604     63.92197        16     1.284     0.866  76.87   0
       255    738.5062     58.7455 300.4125853 +22.6084162     521.4907     70.25536      1.429     2.95    -2.092899     19.80604     59.74947        11     0.933     0.783 -10.53   0
       256    699.6381     53.2955 300.4022458 +22.5952087     289.4433     70.18385      1.756     4.93    -2.046696     19.80604     35.64412         7     1.090     0.631  19.53   0
       257    796.3030     49.7631 300.4335065 +22.6231426     1324.833     70.20174      1.511     2.98     -2.34638     19.80604     137.9363        19     1.136     0.966  46.21   0
       258    179.9326     45.6892 300.2430209 +22.4372862     438.6857     70.32679      1.299     4.19    -2.071982     19.80604     50.63171        10     1.022     0.710 -70.29   0
       259    971.1169     42.8938 300.4902281 +22.6735057     546.3452     70.38032      1.400     4.08     -2.11126     19.80604     65.47488        11     1.194     0.706  60.55   0
       260    744.8255     42.5721 300.4198003 +22.6056597     554.2958     70.18385      1.481     4.04    -2.045038     19.80604     51.77716         9     0.891     0.753 -10.35   0
       261    597.1984     27.1592 300.3788232 +22.5570129     483.7554     70.20174      1.423     4.90     -1.88706     19.80604     49.17575        11     1.173     0.742  51.13   0
       262    207.0707     25.2326 300.2580898 +22.4395489     385.8175     70.20174      1.268     3.80    -2.111046     19.80604     42.75068         5     0.806     0.514 -53.46   0
       263    760.6127     22.0697 300.4313688 +22.6044936     386.9821     70.20174      1.317     4.19    -2.068403     19.80604     46.90021        10     1.031     0.648 -20.81   0
       264    568.9804     20.4464 300.3722156 +22.5466308     1055.843     70.23749      1.510     2.89    -1.821351     19.80604     126.6844        18     1.098     0.975  13.05   0
       265    291.7528     18.5698 300.2865755 +22.4630199     346.8346     70.21961      1.426     5.16    -2.096205     19.80604     52.89911         9     0.952     0.790  46.33   0
       266      6.4262     17.1808 300.1983661 +22.3770756     381.7388     70.21961      1.572     3.52     -2.37032     19.80604     47.90289         8     0.932     0.652  74.08  16
       267     92.9788   1019.5336 299.8995056 +22.6904455     3242.804     70.18385     10.378    25.70     11.21851     19.80604     68.97047       144     4.725     3.886  54.68  27
       268     86.2608   1015.3784 299.8987722 +22.6872368     3229.759     70.16596     10.453    29.70     8.940855     19.80604      77.8114       254     7.274     3.366  86.22  19
       269    249.9574   1010.5842 299.9511925 +22.7350431      472.062     70.21961      1.394     2.04    0.2689265     19.80604      68.6502         7     0.678     0.637  32.19   0
       270    658.5120   1016.1255 300.0764823 +22.8593048       3881.4     70.34464      1.139     2.01    -4.605754     19.80604     613.8964        21     0.944     0.870  57.93   0
       271    240.0961   1013.9454 299.9470330 +22.7330439     1288.846     70.27322      6.830    12.81     1.674842     19.80604     40.84887        35     3.477     1.313  51.81  19
