#   1 NUMBER                 Running object number                                     
#   2 X_IMAGE                Object position along x                                    [pixel]
#   3 Y_IMAGE                Object position along y                                    [pixel]
#   4 ALPHA_J2000            Right ascension of barycenter (J2000)                      [deg]
#   5 DELTA_J2000            Declination of barycenter (J2000)                          [deg]
#   6 FLUX_APER              Flux vector within fixed circular aperture(s)              [count]
#   7 FLUXERR_APER           RMS error vector for aperture flux(es)                     [count]
#   8 FLUX_RADIUS            Fraction-of-light radii                                    [pixel]
#   9 FWHM_IMAGE             FWHM assuming a gaussian core                              [pixel]
#  10 BACKGROUND             Background at centroid position                            [count]
#  11 THRESHOLD              Detection threshold above background                       [count]
#  12 FLUX_MAX               Peak flux above background                                 [count]
#  13 ISOAREA_IMAGE          Isophotal area above Analysis threshold                    [pixel**2]
#  14 A_IMAGE                Profile RMS along major axis                               [pixel]
#  15 B_IMAGE                Profile RMS along minor axis                               [pixel]
#  16 THETA_IMAGE            Position angle (CCW/x)                                     [deg]
#  17 FLAGS                  Extraction flags                                          
         1    973.2157     13.6019 300.5021768 +22.6632672     165.2966     69.83425      1.035     3.73    -2.634317     19.74263     24.71506         5     1.000     0.400  84.10   0
         2    453.3732     12.0320 300.3407847 +22.5071010     1188.854     69.97699      1.593     3.51    -1.944773     19.74263     110.0879        21     1.215     1.109  58.80   0
         3    100.8354      9.9277 300.2318792 +22.4008050     781.8613     69.95916      1.478     2.85    -2.666523     19.74263     89.08503        12     0.939     0.823  82.79   0
         4    584.7923      6.6946 300.3834104 +22.5449479     217.4192     69.86996      1.046     2.24    -1.437207     19.74263     45.06115         5     0.712     0.439  14.33   0
         5    568.3300   1014.1190 300.0509452 +22.8292187     803.8651     70.08385      1.082     1.74    -5.038181     19.74263     179.7971        11     0.838     0.705  65.97   0
         6    659.9148   1023.1143 300.0765220 +22.8592950     3615.269     57.57813      1.135     2.06    -5.054887     19.74263     702.3646        20     0.990     0.766   4.13  24
         7    241.6379   1021.4409 299.9469714 +22.7331925     1073.986     65.06329      6.209    12.47     1.085376     19.74263     73.46811        26     3.905     1.109  44.68  26
         8    154.3177   1023.4575 299.9191862 +22.7075318      796.516     55.66162      5.579     7.58     8.964179     19.74263     45.55005        12     2.613     0.615  -7.94  25
         9    131.2904   1020.5610 299.9129769 +22.6997819      1408.74     68.00642      6.759     9.31     8.761871     19.74263     52.37899        16     2.133     1.133  68.61  19
        10    126.3959   1019.3932 299.9118370 +22.6979765     1243.464     69.81639      7.589     9.44     8.509063     19.74263     36.06544        14     2.397     1.038  61.04  19
        11     89.0750    978.3371 299.9136129 +22.6749997     2060.335     70.01263     12.040    30.56     2.159243     19.74263     73.55747       188     6.217     4.170 -12.73   3
        12    106.1965   1014.6166 299.9071189 +22.6905377     1786.992     69.90565     22.502    41.01     8.017876     19.74263     49.25142       253     8.048     5.798 -47.15  27
        13     84.9794    991.3818 299.9080945 +22.6775056     2309.122     69.97699     16.092    33.29     3.206483     19.74263     61.34546       237     8.368     3.675  14.19  19
        14     69.8174   1002.5169 299.8997614 +22.6761384     1984.408     69.94133     12.034    27.75     2.277586     19.74263     45.11864       163     6.085     3.513 -73.46  19
        15     90.9817   1020.9346 299.9003370 +22.6877748     2922.525     66.82233      9.338    22.46      7.73693     19.74263     62.45031       140     4.847     2.890 -29.65  27
        16    462.2415   1010.3870 300.0191545 +22.7962914     543.4104     69.99481      1.071     2.08     -5.80017     19.74263     102.2334         8     0.780     0.610 -85.41   0
        17    425.5439    995.1927 300.0126879 +22.7809144     331.7236     69.95916      1.161     3.58    -5.080546     19.74263     50.34216         7     1.001     0.483 -43.18   0
        18    939.0582    986.9874 300.1752405 +22.9327048     1323.954     69.94133      1.100     1.76    -5.037331     19.74263     280.8723        10     0.731     0.688 -14.26   0
        19     85.1579   1011.8151 299.9014977 +22.6834123     3131.272     69.99481     14.337    32.57     5.600243     19.74263     62.74108       306     6.014     4.896 -65.43  19
        20    724.9506    977.0198 300.1117801 +22.8655960     1032.057     69.95916      0.455    -2.60    -5.083598     19.74263     547.2865         6     0.452     0.325  66.52   2
        21    727.6966    975.3713 300.1131719 +22.8659473     532.7614     69.92349      1.688     5.15    -5.084548     19.74263     50.52705         8     1.329     0.563  64.22   2
        22    392.8896   1008.6147 299.9981634 +22.7749542     3749.346     69.92349      1.110     1.82    -4.906037     19.74263     702.6998        23     0.933     0.905 -56.58   0
        23    540.4060    970.9359 300.0563158 +22.8084519     163.1382     69.94133      0.996     3.71    -5.063343     19.74263     39.07025         6     0.809     0.489 -85.68   0
        24    762.7553    970.3085 300.1257387 +22.8750169      466.627     69.95916      0.937     1.79    -5.068729     19.74263     121.5121         8     0.788     0.556 -11.19   0
        25    784.9506    963.8881 300.1347422 +22.8798358     6737.424     69.97699      1.122     1.77    -5.051739     19.74263     1460.307        28     0.983     0.854 -78.12   0
        26    830.7787    963.7309 300.1490698 +22.8935428     255.2281     69.97699      0.948     2.51    -4.993891     19.74263     63.21535         5     0.789     0.448  46.66   0
        27     70.6609   1021.9857 299.8936848 +22.6819684     1587.721     62.83991      8.442    21.97     4.123383     19.74263     58.03319        76     5.516     2.431   4.66  27
        28    490.2256    952.2587 300.0467838 +22.7880294     236.1387     69.97699      1.060     3.36    -5.280778     19.74263     62.25682         7     1.040     0.459  31.53   0
        29    976.4106    945.1671 300.2004997 +22.9319071     419.7651     69.97699      1.535     3.69    -5.378024     19.74263     43.97701         7     0.951     0.483 -83.33   0
        30    793.3323    945.9744 300.1431848 +22.8772113     743.3635     69.95916      1.062     2.00    -5.044743     19.74263     159.2841         8     0.732     0.619  46.41   0
        31    645.7326    943.0618 300.0981703 +22.8320777     462.9154     70.03044      1.451     4.01    -5.069193     19.74263     53.77013         8     1.018     0.644 -48.17   0
        32    831.6266    939.4117 300.1572509 +22.8868190     451.1028     69.97699      1.098     1.97    -5.034738     19.74263     74.36234         5     0.634     0.483 -13.35   0
        33    880.1390    930.3767 300.1753079 +22.8987816     430.2105     69.97699      1.052     1.79    -5.100715     19.74263     77.37939         7     0.657     0.612  23.41   0
        34    731.2275    929.6620 300.1291517 +22.8538940     463.7739     69.97699      1.038     2.38    -5.051939     19.74263     74.29425         6     0.693     0.606  51.45   0
        35    444.0373    926.3159 300.0408611 +22.7667218     2399.325     69.95916      1.159     2.04     -4.96457     19.74263     410.6737        20     0.987     0.829  75.91   0
        36    742.5275    926.7709 300.1336119 +22.8564556      329.782     69.97699      1.048     3.19    -5.051193     19.74263     56.09093         9     0.922     0.698  34.01   0
        37    884.0605    919.6652 300.1800167 +22.8968839     2930.895     70.01263      0.655     0.88     -5.11619     19.74263     1517.866         9     0.597     0.405 -63.65   0
        38    169.3192    911.9923 299.9601304 +22.6801029     430.0134     69.90565      1.214     2.47    -3.837069     19.74263     62.03634         7     0.799     0.566  68.67   0
        39    146.4911    909.2770 299.9539229 +22.6724663     899.6934     70.11944      1.103     2.17    -3.860546     19.74263     132.2442        12     0.836     0.740 -80.76   0
        40     21.0394    898.8336 299.9183647 +22.6317787     244.9008     70.01263      1.040     2.74    -5.279802     19.74263     54.04778         5     0.778     0.492  53.00   0
        41   1017.9976    897.7364 300.2289052 +22.9307648     1217.791     69.97699      1.094     1.77    -5.279778     19.74263     254.9535        13     0.889     0.751  58.65  16
        42    972.1094    896.2046 300.2150967 +22.9165621     1229.468     69.88781      1.089     1.78    -5.259916     19.74263     258.7868        14     0.848     0.767  56.21   0
        43    755.8367    890.3289 300.1496182 +22.8499935      455.145     69.97699      1.186     2.87    -5.050928     19.74263     71.41487         9     0.878     0.701 -81.67   0
        44    178.6634    890.7488 299.9699466 +22.6768224     394.7481     70.03044      1.216     3.41    -4.484141     19.74263     46.89634         6     0.766     0.566  46.55   0
        45    623.9131    884.2797 300.1105106 +22.8086670     2706.844     70.13722      1.161     1.97    -5.090706     19.74263     477.2204        19     0.944     0.874 -82.58   0
        46    113.5365    885.0780 299.9515623 +22.6556312     215.1012     70.06605      1.195     2.87    -4.566939     19.74263     38.24495         6     0.769     0.499 -89.82   0
        47    426.0343    881.2859 300.0499172 +22.7484046      386.916     69.94133      1.184     2.59    -4.983874     19.74263     58.43582         8     0.820     0.601  44.12   0
        48    174.2264    878.3371 299.9726071 +22.6719325     680.1292     69.97699      1.074     2.43    -4.760354     19.74263     117.6963        10     0.877     0.686 -69.36   0
        49    644.3528    876.5414 300.1193916 +22.8125818     398.0193     70.03044      1.097     2.24     -5.08449     19.74263     62.36197         7     0.744     0.592 -75.61   0
        50    560.6670    867.3104 300.0963488 +22.7848156     89.87964     70.10165      0.908     3.43    -5.083779     19.74263     38.25301         5     0.747     0.456 -78.28   0
        51    799.8929    863.9771 300.1719170 +22.8556504     2380.378     69.90565      1.174     1.94    -5.051667     19.74263     464.3699        19     0.915     0.864  86.97   0
        52   1016.7519    863.9557 300.2395110 +22.9206925      662.236     69.99481      1.076     1.96    -5.244604     19.74263     153.1504         9     0.848     0.637  -2.93   0
        53    208.6961    858.5787 299.9897454 +22.6766242     280.1251     69.88781      1.275     3.97    -5.183115     19.74263       34.485         6     0.855     0.528 -42.73   0
        54    516.7879    856.6436 300.0861664 +22.7685844     381.6318     69.97699      1.403     2.85    -5.062005     19.74263     51.15291         7     0.808     0.608 -24.03   0
        55    163.5072    855.0741 299.9768466 +22.6620455     613.5909     70.11944      1.186     3.38    -5.092606     19.74263     93.15656         8     1.051     0.499  87.99   0
        56    313.0946    846.8411 300.0260093 +22.7046148     30970.77     69.99481      1.245     2.10    -5.133103     19.74263     4971.535        57     1.124     1.069  83.11   0
        57    578.6954    849.6060 300.1077203 +22.7851486     292.5983     69.86996      1.213     3.23    -5.087602     19.74263     49.66462         5     0.948     0.336 -23.61   0
        58    570.9382    845.9083 300.1065094 +22.7817596     997.8746     70.06605      1.279     2.04    -5.086333     19.74263     161.3148        12     0.951     0.781  35.70   0
        59    983.7747    844.8312 300.2354526 +22.9053119     426.7462     69.97699      1.033     2.59    -5.232224     19.74263     85.22617         9     0.835     0.676 -81.83   0
        60    241.0409    844.9708 300.0042235 +22.6824389     361.3781     69.99481      1.287     2.97    -5.219094     19.74263      59.9073         8     0.941     0.674 -80.74   0
        61    599.9503    841.5410 300.1169597 +22.7892145     488.9419     70.03044      1.078     2.43    -5.090932     19.74263     80.95975        10     0.875     0.717  63.05   0
        62    610.8397    840.0323 300.1208399 +22.7920499     296.9265     70.01263      1.090     2.04    -5.092084     19.74263     68.63288         8     0.775     0.624  47.77   0
        63    716.0646    836.3295 300.1548045 +22.8225646      187.028     70.01263      1.095     3.59    -5.065601     19.74263     37.63486         6     0.826     0.641  29.10   0
        64    753.5751    826.5790 300.1696589 +22.8310213     529.1268     69.95916      1.133     2.77    -5.051668     19.74263     79.41548        10     0.979     0.684 -70.98   0
        65    377.0710    824.5449 300.0531536 +22.7174329      1303.64     69.99481      1.323     2.33    -4.975405     19.74263     184.7348        16     0.987     0.889  41.79   0
        66    362.8085    824.0217 300.0488891 +22.7130005     18159.88     69.97699      1.263     2.08    -4.971596     19.74263     2987.993        50     1.142     1.080  72.44   0
        67    804.1927    825.1926 300.1858769 +22.8458093     1481.792     69.83425      0.687     1.70     -5.03258     19.74263      673.577         6     0.657     0.369 -75.04   0
        68    885.8028    819.5681 300.2131350 +22.8686754     1611.959     69.94133      1.053     1.94     -5.05062     19.74263     269.6702        13     0.816     0.755  82.10   0
        69    373.8448    818.2294 300.0542051 +22.7146533     419.3423     70.01263      1.380     3.84    -4.969159     19.74263     43.83727         6     0.784     0.541 -49.32   0
        70    245.4750    816.1531 300.0149770 +22.6755098     497.4507     69.97699      1.274     2.80    -5.218805     19.74263     68.45695         9     0.869     0.696 -66.15   0
        71    643.7357    815.9688 300.1389093 +22.7950184     502.5718     69.97699      1.195     2.16    -5.087549     19.74263     95.32251         8     0.779     0.653 -86.10   0
        72    479.9962    815.9941 300.0879463 +22.7458811      178.577     69.81638      1.081     2.24    -5.035187     19.74263     52.67297         5     0.900     0.347 -58.80   0
        73     49.9442    811.6174 299.9557154 +22.6154754      482.701     69.95916      1.602     2.27    -5.263372     19.74263     52.50299         7     0.708     0.637  11.56   0
        74    490.8468    810.7606 300.0930245 +22.7476372     668.5891     70.01263      1.282     2.36    -5.043242     19.74263     83.48857         8     0.738     0.676 -62.30   0
        75    892.0468    807.2447 300.2190904 +22.8670105     328.8871     70.01263      0.953     2.28    -5.031634     19.74263     66.01249         7     0.712     0.631   7.86   0
        76    393.1773    806.9971 300.0638707 +22.7172368      190.639     69.92349      1.043     2.09    -4.969526     19.74263      54.7507         5     0.752     0.461  37.21   0
        77    436.6562    805.8367 300.0777698 +22.7299573     264.0731     69.97699      1.270     4.38    -4.998234     19.74263     36.36821         7     0.875     0.623 -54.78   0
        78     77.3224    805.1624 299.9663165 +22.6218509     813.7191     69.95916      0.596    -0.89    -5.262643     19.74263     505.7694         8     0.639     0.524  16.15   0
        79    869.2304    801.8391 300.2137389 +22.8586152     250.7686     69.97699      1.117     2.33    -5.021379     19.74263      50.0646         6     0.719     0.551 -39.32   0
        80    242.9732    800.1436 300.0194076 +22.6701689     491.3169     69.97699      1.513     3.77    -5.215329     19.74263     47.83789         8     0.973     0.793 -32.44   0
        81    566.3124    790.2231 300.1231868 +22.7643968     218.3126     69.90565      1.075     5.07    -5.068169     19.74263     49.43515         8     1.117     0.766 -68.59   0
        82    535.7047    788.8448 300.1141107 +22.7548151     358.6673     69.99481      1.334     2.38    -5.039376     19.74263     56.30795         7     0.735     0.608 -83.43   0
        83    952.0945    784.8781 300.2450832 +22.8785976     2581.936     70.10165      1.151     1.80    -5.004332     19.74263     533.2577        20     0.917     0.865  74.64   0
        84    557.6470    786.1039 300.1218302 +22.7606144     846.6049     69.99481      1.272     2.48    -5.056176     19.74263     126.1347        11     0.886     0.758  17.75   0
        85    940.5511    776.2166 300.2443027 +22.8726489     828.7281     70.01263      1.039     1.98    -4.907654     19.74263     156.6067        10     0.773     0.682  -5.15   0
        86    303.7021    770.2542 300.0480047 +22.6798358     457.7733     70.06605      1.141     4.53    -5.072079     19.74263     70.37817        12     1.242     0.770  76.88   0
        87    767.0485    767.5308 300.1930656 +22.8181163     1402.271     69.97699      1.356     2.48    -4.898538     19.74263     193.9698        22     1.247     0.956  -2.04   0
        88    971.6912    766.2840 300.2572412 +22.8791348     930.6504     70.13722      1.085     2.07    -4.975829     19.74263     172.8992        11     0.944     0.622  80.79   0
        89    152.5365    754.5992 300.0061232 +22.6299519     294.5427     69.97699      1.036     2.97    -5.130462     19.74263     58.81237         8     0.854     0.688  -3.51   0
        90    848.9240    753.5400 300.2231235 +22.8386590     365.8681     70.03044      1.447     3.48    -4.686308     19.74263     47.63671         6     0.942     0.495   4.36   0
        91    885.3018    744.4697 300.2374097 +22.8469650     86535.35     70.10165      1.187     2.08    -4.620843     19.74263     12589.41       109     1.219     1.157  89.00   0
        92    737.7673    745.0164 300.1912692 +22.8028702     503.5152     69.95916      1.374     4.81    -4.923185     19.74263     48.02787         8     0.987     0.664 -71.97   0
        93    917.8665    737.1458 300.2499411 +22.8546277     246.2405     70.03044      0.872     2.04    -4.600372     19.74263      57.3471         5     0.711     0.474  45.21   0
        94    571.5841    733.5921 300.1432479 +22.7497310     932.7664     69.90565      1.242     2.46    -4.953074     19.74263     125.5385        12     0.879     0.801   7.71   0
        95    752.8037    730.7371 300.2005966 +22.8032821     5547.629     69.95916      1.257     2.24    -4.790624     19.74263     821.2691        27     1.064     0.960  76.36   0
        96    254.4629    726.0570 300.0470750 +22.6523781     2905.243     70.03044      1.336     2.31    -4.908301     19.74263     422.4541        25     1.081     0.965  84.19   0
        97    336.5381    724.2695 300.0731682 +22.6765079     674.7109     70.01263      1.295     2.89    -4.883729     19.74263     92.11432        12     0.934     0.873 -73.95   0
        98    212.0721    721.3873 300.0354206 +22.6383102     375.9961     69.99481      1.383     2.39    -4.895344     19.74263     53.00979         7     0.712     0.669  58.42   0
        99    545.0038    719.8011 300.1394613 +22.7377977     370.2224     69.76277      1.263     3.17    -4.686559     19.74263     53.88106         8     0.809     0.686  51.24   0
       100    536.2712    711.7122 300.1393746 +22.7328562     1908.331     70.13722      1.363     2.60    -4.548587     19.74263     241.3652        21     1.060     0.992  41.16   0
       101     61.2552    708.8442 299.9926528 +22.5894199      195.685     69.97699      1.291     5.83     -5.07045     19.74263     32.91347         6     1.345     0.710  41.80   0
       102    526.6036    705.3717 300.1384283 +22.7281358     895.6605     69.94133      1.359     2.69    -4.440325     19.74263     105.0409        14     0.939     0.874  59.85   0
       103    919.6917    702.8019 300.2616798 +22.8453130     240.7432     69.88781      1.061     2.56     -4.53813     19.74263     56.17344         5     0.754     0.415  71.27   0
       104    189.9898    701.5339 300.0350154 +22.6259869     365.1635     69.95916      1.356     3.59    -4.791838     19.74263     63.04459         9     0.987     0.782 -61.06   0
       105    204.1306    700.4768 300.0397527 +22.6299301     414.6945     70.08385      1.340     3.72    -4.765584     19.74263     49.33061         6     0.796     0.499  -0.04   0
       106    973.6938    696.5331 300.2805523 +22.8597042     197.4172     70.11944      1.169     3.94    -4.739902     19.74263     40.87436         7     0.935     0.578  61.33   0
       107    229.8928    696.9037 300.0489196 +22.6366413     225.6333       70.155      1.208     3.92    -4.721821     19.74263     44.03196         6     0.750     0.587  56.36   0
       108    550.2933    696.2195 300.1487760 +22.7326186     286.9366     69.90565      1.259     3.92    -4.344877     19.74263     42.02974         5     0.871     0.505  42.95   0
       109    451.5897    695.3777 300.1183412 +22.7027562     926.1895     69.97699      1.335     2.44    -4.353164     19.74263     118.1757        14     0.951     0.850  81.65   0
       110    105.4832    690.4221 300.0123777 +22.5974232     11417.56     69.94133      1.254     2.26    -4.916178     19.74263     1443.897        42     1.121     1.091  54.70   0
       111     26.5752    692.0059 299.9873599 +22.5741767     408.6993     69.95916      1.319     2.06    -4.969999     19.74263     74.10867         7     0.707     0.646  67.56   0
       112    536.1528    690.6378 300.1461908 +22.7267739     559.3217     70.01263      1.252     2.58      -4.2686     19.74263     75.31927         9     0.853     0.659  57.06   0
       113    954.0620    676.2737 300.2810203 +22.8479998     588.9157     70.01263      1.212     2.51    -4.609066     19.74263     99.04904        10     0.887     0.699  88.38   0
       114     51.5520    674.5220 300.0007994 +22.5766676     905.5365     69.97699      1.821     4.59    -4.853469     19.74263      81.1115        14     1.391     0.698 -83.77   0
       115    821.1636    674.6284 300.2401380 +22.8076775     234.3292     69.99481      1.156     3.00    -4.390788     19.74263     45.86214         6     0.741     0.612  60.67   0
       116    117.1258    674.5623 300.0211503 +22.5963731     380.5467     69.92349      1.962     6.47    -4.786338     19.74263     38.91908         9     1.536     0.766  21.12   0
       117    894.0872    669.1415 300.2646455 +22.8279694     418.9666     70.04825      1.228     3.27    -4.429348     19.74263     63.07578         7     0.862     0.612  16.96   0
       118    604.3149    661.8502 300.1767643 +22.7389646     226.4448     69.95916      1.415     3.48    -3.951621     19.74263     32.44825         6     0.749     0.619  10.27   0
       119    621.9784    660.0193 300.1828578 +22.7437384     220.5479     69.97699      1.265     3.45    -3.990588     19.74263     37.02677         5     0.623     0.611   1.52   0
       120    500.4225    659.2832 300.1452686 +22.7070553     483.3156     69.94133      1.499     3.00    -4.032238     19.74263     64.52342         8     0.942     0.606  83.37   0
       121    934.1927    654.4734 300.2819152 +22.8357815     1976.148     69.92349      1.240     2.16     -4.47004     19.74263      270.433        19     0.987     0.916  48.37   0
       122    466.2356    654.6935 300.1361253 +22.6954794     1031.812     69.94133      1.408     2.95    -4.108992     19.74263     118.1415        16     1.068     0.923  41.47   0
       123     28.2186    648.6676 300.0019598 +22.5622483     2878.923     69.97699      1.240     2.30    -4.535735     19.74263     386.6599        23     1.003     0.970 -82.28   0
       124    973.0101    644.4946 300.2972605 +22.8445526     129.8545     69.92349      1.553     4.49    -4.610851     19.74263     45.99175         5     1.147     0.500  -0.26   0
       125    329.5928    641.6047 300.0978873 +22.6507137     5392.488     69.83425      1.391     2.45     -4.31174     19.74263     705.2509        31     1.162     1.035  89.11   0
       126    452.0008    638.5439 300.1369478 +22.6865740      5147.51     69.90565      1.428     2.68    -4.077765     19.74263     573.6991        29     1.121     1.086  46.76   0
       127    863.5371    632.1591 300.2671495 +22.8081887     1093.006     69.95916      1.318     2.58    -4.349078     19.74263     127.9962        15     0.956     0.872  59.74   0
       128    948.1199    629.5518 300.2943593 +22.8327989     7198.405     69.99481      1.237     2.14    -4.468653     19.74263     1074.217        34     1.058     1.015 -38.57   0
       129    512.5264    628.1848 300.1591448 +22.7017637     6466.118     69.97699      1.417     2.65    -3.816887     19.74263     805.2063        34     1.156     1.113 -61.68   0
       130    682.0279    623.7795 300.2133348 +22.7513495      265.326     69.97699      1.279     2.92    -3.979654     19.74263     40.96065         7     0.833     0.645 -60.26   0
       131    240.1557    623.7016 300.0759077 +22.6187307     868.2523     69.97699      1.414     3.28    -4.432758     19.74263     101.9039        13     1.076     0.842  86.77   0
       132    487.1473    621.6454 300.1533746 +22.6922720     233.0845     69.99481      1.345     4.47    -3.878783     19.74263     37.54264         7     0.971     0.586 -80.20   0
       133    444.3313    616.3502 300.1417769 +22.6779047     2707.827     69.97699      1.512     2.81     -3.99815     19.74263     262.5295        30     1.253     1.126  51.62   0
       134    786.9435    616.2435 300.2484597 +22.7806512     344.0236     69.97699      1.061     2.39    -4.109269     19.74263     70.11641         7     0.690     0.668 -30.17   0
       135    422.5569    614.8504 300.1354920 +22.6709401     757.7926     70.01263      1.499     3.04    -4.065474     19.74263      87.6964        13     0.987     0.866 -50.88   0
       136    176.6017    614.3218 300.0592089 +22.5969602     395.1782     69.88781      1.141     2.62    -4.551973     19.74263     65.91847         5     0.742     0.425  66.43   0
       137    863.8679    611.5683 300.2739465 +22.8023745     948.5814     69.97699      1.290     2.60    -4.331782     19.74263     118.9177        13     0.940     0.805 -49.72   0
       138    110.6423    611.8009 300.0395390 +22.5764324     164.3774     69.97699      1.100     2.73    -4.602563     19.74263     41.26378         5     0.735     0.439  70.96   0
       139    744.3547    608.4247 300.2377357 +22.7656343     501.0631     69.99481      1.444     3.40    -4.067499     19.74263     55.08516        13     1.002     0.862  43.82   0
       140    560.8080    603.7928 300.1820977 +22.7092494     118494.1     69.83425      1.453     2.83    -3.593557     19.74263     13396.95       146     1.416     1.386 -85.73   0
       141    247.0783    603.9572 300.0844770 +22.6151461     1999.698     69.95916      1.391     2.83     -4.32757     19.74263     231.8656        21     1.077     0.977  49.93   0
       142    812.9973    599.8757 300.2618971 +22.7837637     262.9272     69.88781      1.219     4.41    -4.058566     19.74263     32.44112         6     0.831     0.665  -7.07   0
       143    451.4871    584.0905 300.1544886 +22.6707954     1490.915     70.13722      1.487     2.68    -3.804696     19.74263     179.3134        22     1.145     1.039  59.06   0
       144    848.3049    569.9568 300.2826230 +22.7857576     964.8524     69.99481      1.334     2.81    -4.066935     19.74263     108.8087        16     0.990     0.919  20.57   0
       145    719.5308    567.8788 300.2431838 +22.7465481     1382.239     70.08385      1.351     2.81    -3.746423     19.74263     164.9081        17     1.043     0.918 -67.30   0
       146    963.4161    564.8560 300.3201584 +22.8187996     337.4973     69.94133      1.206     4.22    -4.046131     19.74263     40.38756         6     0.765     0.663  29.13   0
       147    624.4210    564.5134 300.2146643 +22.7170569     349.9059     69.90565      1.944     5.04    -3.617665     19.74263     27.58542         6     0.946     0.760  10.14   0
       148    506.3850    564.1030 300.1780632 +22.6815308      417.792     69.88781      1.603     2.73    -3.591725     19.74263     41.30605         6     0.777     0.738 -82.96   0
       149    976.6172    561.5556 300.3253468 +22.8218083     872.0624     69.99481      1.370     2.45    -4.008294     19.74263     103.0025        14     0.950     0.821 -53.02   0
       150    962.4417    560.8388 300.3211603 +22.8173535     477.4098     70.06605      1.605     2.88    -4.007362     19.74263     58.19968         8     0.920     0.684  18.06   0
       151    848.6296    560.1718 300.2859045 +22.7830446     1213.317     69.95916      1.494     4.88    -4.023262     19.74263     140.4732        15     1.367     0.803  81.36   0
       152    602.1796    558.5202 300.2096888 +22.7086652     97.09027     69.97699      1.433     4.36    -3.586631     19.74263     39.71059         7     0.894     0.606 -85.85   0
       153    886.6813    555.2792 300.2993526 +22.7930468     2495.654     70.10165      1.346     2.45    -4.072971     19.74263     298.8454        22     1.047     0.971  50.94   0
       154    547.5512    550.8195 300.1951896 +22.6900680     178.7366     69.99481      1.620     3.99    -3.479836     19.74263     31.46902         6     1.365     0.333 -48.22   0
       155    119.1740    546.0526 300.0635567 +22.5601411     559.1517     69.99481      1.268     2.75    -4.275374     19.74263     87.35278         9     0.972     0.614  81.81   0
       156    978.5095    545.7573 300.3310714 +22.8178365     465.1273     69.97699      1.241     3.06    -3.822514     19.74263     54.16353         8     0.842     0.668 -34.01   0
       157    111.6509    535.6923 300.0645865 +22.5549115     279.1158     70.03044      1.543     3.01    -4.224498     19.74263     50.19542         5     0.933     0.408  72.92   0
       158    719.5580    529.5581 300.2556462 +22.7355527     290.2678     70.08385      1.328     4.04    -3.573582     19.74263     32.82916         5     1.165     0.400  54.31   0
       159    660.4962    525.8159 300.2384712 +22.7167667     511.4118     69.88781      1.602     5.41    -3.542343     19.74263     50.79717        11     1.234     0.757 -58.92   0
       160    974.7977    517.9340 300.3389561 +22.8087300     266.0499     69.97699      1.052     3.00    -3.732868     19.74263     52.21117         7     0.770     0.618 -79.44   0
       161    721.1677    517.7402 300.2599878 +22.7326418     493.7318     70.01263      1.493     4.09    -3.557299     19.74263      62.4001        13     1.084     0.993 -57.31   0
       162    878.1770    514.0618 300.3100970 +22.7786576     455.8435     69.95916      1.339     4.28    -3.869045     19.74263      60.3303        11     1.014     0.800 -76.76   0
       163    842.7576    510.9524 300.3000701 +22.7671469     210.9901     70.01263      1.377     5.55    -3.764675     19.74263     26.48981         5     1.447     0.601  71.34   0
       164    862.5573    510.5569 300.3063684 +22.7729686     335.4077     70.06606      1.548     4.21    -3.865103     19.74263     37.81723         7     0.969     0.748 -43.06   0
       165    606.8223    508.7864 300.2272956 +22.6957801     1939.128     69.95916      1.580     3.12    -3.553708     19.74263     190.0967        24     1.146     1.126 -30.16   0
       166    967.2565    507.0820 300.3401314 +22.8033519     334.7821     70.01263      1.188     2.70    -3.704878     19.74263     56.79576         7     0.823     0.591 -60.72   0
       167   1018.0285    487.6407 300.3622792 +22.8129806     693.6438     69.99481      1.208     2.64    -3.624444     19.74263     109.8868        10     0.871     0.751 -68.75  16
       168    889.4062    487.2015 300.3223244 +22.7743072     385.9453     69.79852      1.401     2.81    -3.699822     19.74263     42.39841         6     0.705     0.627 -39.03   0
       169    976.3804    485.9735 300.3498348 +22.8000210     458.4804     69.99481      1.212     2.85    -3.628897     19.74263     78.71754         9     0.824     0.771  74.23   0
       170    717.5156    482.4572 300.2703147 +22.7214143     693.2247     70.06606      1.614     4.11    -3.506189     19.74263     73.02429        13     1.077     0.930 -62.67   0
       171    221.7412    481.3329 300.1164502 +22.5723670     374.7781     70.01263      1.366     3.29    -3.800615     19.74263     54.29885         7     0.864     0.627  69.60   0
       172    283.8706    476.7537 300.1372473 +22.5896990     2124.293     69.95916      1.510     3.17    -3.602278     19.74263     240.3396        23     1.173     1.028  80.42   0
       173   1016.7145    474.6855 300.3660788 +22.8088639     2556.151     70.10165      1.282     2.35    -3.634135     19.74263     309.0756        21     0.992     0.964  64.45   0
       174    231.0017    471.6104 300.1224864 +22.5723571     4363.121     69.79852      1.492     2.80    -3.650512     19.74263     478.5358        32     1.239     1.119  72.34   0
       175    924.9481    471.3158 300.3385636 +22.7803956      1096.79     70.01263      0.547     0.75    -3.615893     19.74263     641.6648         5     0.466     0.314 -84.07   0
       176    996.6417    465.8524 300.3626896 +22.8003107     1136.231     69.97699      1.373     2.56    -3.653954     19.74263     137.8062        16     1.008     0.845 -75.98   0
       177    371.8114    465.7111 300.1681750 +22.6129181     2836.108     69.92349      1.542     3.05    -3.365201     19.74263     313.1204        29     1.214     1.137 -66.70   0
       178    615.8653    462.2282 300.2452372 +22.6851245     10492.36     69.95916      1.536     3.10    -3.375479     19.74263     1020.824        45     1.318     1.195  65.58   0
       179    633.4545    462.6692 300.2505695 +22.6905257     442.9443     70.01263      1.983     5.52    -3.387703     19.74263     41.25531         8     1.419     0.605 -32.33   0
       180    949.1506    444.8456 300.3547077 +22.7800428      450.763     69.99481      1.375     2.55    -3.641869     19.74263     88.96317        10     1.004     0.607  22.73   0
       181    170.7698    442.6335 300.1131836 +22.5459670     1121.107     69.99481      1.436     2.46    -3.603453     19.74263     163.9215        18     1.163     0.877  84.93   0
       182    970.1745    431.8137 300.3654954 +22.7825979      799.241     69.97699      1.461     2.65    -3.693793     19.74263     104.4189        13     0.970     0.818 -82.82   0
       183    556.4868    431.6648 300.2366840 +22.6585417     3808.011     70.06605      1.617     3.24    -3.041115     19.74263      387.231        30     1.260     1.136  68.44   0
       184    271.4853    431.3510 300.1481459 +22.5729551     371.1801     69.95916      1.374     3.88    -3.051555     19.74263     50.35215         8     1.042     0.765 -44.70   0
       185    129.4537    424.3273 300.1062943 +22.5283149     300.7488     69.95916      1.544     5.18    -3.621719     19.74263     31.91704         6     1.255     0.605  51.55   0
       186    760.8245    420.9669 300.3037792 +22.7167373     685.4473     69.97699      1.629     3.51    -3.445761     19.74263     74.74187        14     1.071     0.914 -48.72   0
       187    670.2896    421.7689 300.2753237 +22.6898254     285.4407     69.94133      1.188     3.31    -3.139971     19.74263      47.1289         6     0.727     0.654  67.69   0
       188    463.3076    418.0890 300.2121011 +22.6266974     3635.347     70.13722      1.541     2.88    -2.951427     19.74263     392.1895        30     1.242     1.126  69.48   0
       189    855.1458    412.2584 300.3359938 +22.7425072     741.0601     70.03044      1.331     2.94     -3.42708     19.74263     85.08931        11     0.874     0.829 -63.70   0
       190    952.4876    412.1520 300.3663681 +22.7716477     373.3613     69.97699      1.296     3.74    -3.648821     19.74263     46.63671         6     0.804     0.500 -88.69   0
       191    828.6198    400.2819 300.3316183 +22.7311160     336.0551     69.95916      1.537     5.34    -3.356741     19.74263     35.34705         7     1.270     0.634  16.83   0
       192    350.8032    397.3784 300.1838378 +22.5870041     1503.788     69.94133      1.551     3.02    -2.873112     19.74263     176.5548        21     1.104     1.073  68.93   0
       193     69.5037    395.1426 300.0971526 +22.5019489     533.5266     70.04825      1.226     2.71    -3.353157     19.74263     87.45736         9     0.847     0.731 -68.04   0
       194    320.1113    386.8329 300.1777200 +22.5747697     16772.92     69.94133      1.547     3.00    -2.878897     19.74263     1772.334        56     1.339     1.262  74.51   0
       195    854.5125    384.0301 300.3449648 +22.7342067     783.4489     69.95916      1.393     3.01    -3.230214     19.74263     89.68497        15     1.040     0.882  22.16   0
       196     16.5474    374.8712 300.0872916 +22.4802384     2930.977     69.95916      1.417     2.48    -3.145053     19.74263     384.4072        28     1.140     1.095  11.57   0
       197    769.8857    373.1041 300.3221469 +22.7057038     352.9399       70.155      1.492     3.94    -3.180652     19.74263     33.56504         6     0.761     0.586 -49.41   0
       198    730.3032    366.2459 300.3120451 +22.6918689     1117.681     69.99481      1.498     3.38    -3.122905     19.74263     114.7483        20     1.238     0.965  50.45   0
       199    945.7852    359.0853 300.3815136 +22.7543884     347.3569     69.92349      1.366     3.13      -3.3682     19.74263      41.8003         7     0.733     0.681 -75.82   0
       200    392.3763    351.2979 300.2117293 +22.5862481      1217.48     69.90565      1.704     3.62    -2.862002     19.74263     122.8736        21     1.242     1.074  85.43   0
       201    831.1911    343.9466 300.3507147 +22.7156999      258.727     69.97699      1.240     2.50    -3.032495     19.74263     55.01325         6     0.816     0.626 -35.06   0
       202    468.1543    330.5230 300.2420449 +22.6030111     617.3502     69.95916      1.424     3.73    -2.881942     19.74263      79.8707        12     1.028     0.853  10.01   0
       203    712.7916    322.1454 300.3209112 +22.6739507     1184.958     69.97699      1.499     3.31    -3.054929     19.74263      109.521        17     1.051     1.002  82.24   0
       204    973.9678    316.3227 300.4041854 +22.7505405       1863.4     69.95916      1.387     2.73    -3.319638     19.74263     195.8468        24     1.142     1.041 -82.85   0
       205    421.6948    305.8756 300.2355951 +22.5820012     279.0032     70.11944      1.342     5.79    -2.523026     19.74263     33.58697        11     1.251     0.755 -64.13   0
       206     95.9260    300.7519 300.1360053 +22.4828008     735.6752     69.97699      1.643     4.03    -3.168757     19.74263     73.90268        17     1.234     0.997 -20.41   0
       207    127.2343    300.4414 300.1458308 +22.4921068       403.33     70.03044      1.454     2.98    -3.188173     19.74263     43.11334         7     0.826     0.603  77.89   0
       208    180.3520    292.5453 300.1648961 +22.5057792     336.1869     70.01263      1.939     3.91    -3.129791     19.74263     32.63831         6     0.921     0.476 -87.19   0
       209    784.3688    283.5717 300.3557291 +22.6843196     343.6625     69.97699      1.363     4.55    -3.057199     19.74263     34.12167         8     0.957     0.651  -3.25   0
       210    882.5479    272.6470 300.3898674 +22.7105980     1258.695     70.01263      1.527     3.08    -3.014006     19.74263     144.5486        20     1.146     1.050 -45.04   0
       211    301.3642    270.3101 300.2097230 +22.5357003     1246.033     69.95916      1.553     3.00    -2.538566     19.74263     132.7661        21     1.122     1.072  22.19   0
       212    781.1900    264.3110 300.3609911 +22.6778323     359.5218     69.92349      1.561     5.03    -3.054809     19.74263     38.02404         7     1.025     0.699  69.91   0
       213    379.4413    265.2799 300.2356319 +22.5576736     547.1096     69.95916      1.409     2.88    -2.420524     19.74263     66.86469         8     0.842     0.647 -43.22   0
       214    196.1893    257.6274 300.1811510 +22.5005098     484.1446     69.97699      1.774     3.43    -2.929917     19.74263     42.40485         8     0.992     0.581  56.85   0
       215    733.6649    254.1561 300.3494837 +22.6606723     979.5604     69.95916      1.541     3.09    -3.053452     19.74263     107.0893        16     1.059     0.953 -66.80   0
       216    799.1094    254.1364 300.3698763 +22.6802779     430.5442     70.06605      1.614     3.64    -3.053614     19.74263     39.81214         6     0.763     0.554  30.93   0
       217    217.4695    250.8948 300.1899488 +22.5049614     458.4805     70.08385      1.748     4.39    -2.865367     19.74263     46.51328        10     1.121     0.839 -80.61   0
       218   1005.0866    246.4212 300.4365810 +22.7397661     477.6657     69.90565      1.476     2.28    -3.243727     19.74263     68.08831         8     0.762     0.666  71.33   0
       219    737.8388    245.5704 300.3535705 +22.6594560     528.0972     69.99481      1.706     4.02    -3.052659     19.74263     54.98451         9     1.011     0.753 -84.02   0
       220    658.1421    244.8779 300.3289768 +22.6353721     765.6094     70.01263      1.691     3.88    -2.961189     19.74263     65.61509        17     1.187     0.982  42.71   0
       221    853.5010    236.1278 300.3926691 +22.6913989     827.8788     70.11944      1.613     3.46    -3.003658     19.74263     80.83125        18     1.121     1.026  45.38   0
       222    584.8300    236.6540 300.3088233 +22.6110348      549.463     69.99481      1.549     3.18    -2.634537     19.74263     56.36259        10     0.948     0.719 -86.07   0
       223    865.6096    235.2125 300.3967396 +22.6947634      495.457     69.86996      1.642     3.26    -2.993849     19.74263     45.05373         9     0.926     0.669  20.39   0
       224    982.3871    225.5704 300.4362707 +22.7269724     792.2943     69.97699      1.488     2.98    -3.162174     19.74263     77.30257        13     0.946     0.843 -13.78   0
       225    216.5981    218.9870 300.2000332 +22.4955414     415.3646     69.81639      1.351     3.84    -2.756689     19.74263     59.99799         9     0.957     0.745  69.49   0
       226     78.6617    213.8255 300.1588558 +22.4526781     1204.673     69.97699      1.370     2.68    -2.685915     19.74263      167.278        15     0.984     0.917 -42.42   0
       227    901.8187    210.6853 300.4159851 +22.6985601     356.5342     69.92349      1.301     2.80    -2.904674     19.74263     49.41764         9     0.867     0.677 -67.95   0
       228     28.4611    210.7225 300.1442735 +22.4367245      285.145     70.03044      1.142     2.19    -2.558888     19.74263     50.73788         5     0.673     0.498 -87.03   0
       229    235.9750    207.2398 300.2098671 +22.4979817     3315.566     70.01263      1.539     3.02     -2.70201     19.74263     336.6217        31     1.309     1.111  83.16   0
       230     20.1857    201.7618 300.1446116 +22.4316702     645.2327     69.99481      1.237     2.72    -2.545514     19.74263     93.39427        11     0.927     0.732  89.81   0
       231    219.6031    198.0677 300.2077553 +22.4904380     501.4279     69.95916      1.920     3.68    -2.676295     19.74263     46.03604         9     0.995     0.784   7.40   0
       232    983.3320    187.1389 300.4490377 +22.7162051     1542.157     70.03044      1.414     3.06    -2.785551     19.74263     171.2968        18     1.127     0.914  88.85   0
       233    879.7932    188.2109 300.4164137 +22.6855014     2191.574     69.85211      1.525     3.09    -2.753308     19.74263       207.58        22     1.132     1.070  68.52   0
       234    353.3074    175.5875 300.2566125 +22.5240828     290.9017     69.92349      1.328     4.41     -2.54613     19.74263     28.92602         7     1.035     0.536 -60.19   0
       235    119.8646    173.1301 300.1848581 +22.4533609     358.0264     70.01263      1.344     2.03    -2.553286     19.74263     47.59983         6     0.723     0.527 -47.48   0
       236    480.6813    171.1783 300.2976608 +22.5610060     857.8904     69.94133      1.460     2.91    -2.588838     19.74263     109.5609        15     1.007     0.901 -85.91   0
       237    408.6778    170.5230 300.2754751 +22.5392308     325.5114     70.08385      1.949     4.96    -2.395912     19.74263     41.28503         6     1.494     0.467  89.13   0
       238    769.0325    159.9601 300.3910691 +22.6441993     327.7796     70.01263      1.887     3.60    -3.112686     19.74263     33.32626         5     1.027     0.363 -55.18   0
       239    254.8002    151.1882 300.2339045 +22.4875363     3535.702     69.79852      1.568     2.96    -2.562193     19.74263     340.9866        32     1.275     1.165  65.62   0
       240    106.0714    150.4552 300.1879300 +22.4427151     430.0424     69.99481      1.434     2.86    -2.564818     19.74263     46.45161         7     0.842     0.585  78.75   0
       241     16.5729    141.3528 300.1630887 +22.4132520     146.7117     69.99481      1.382     4.25    -2.563704     19.74263     24.47821         5     1.004     0.513  47.55   0
       242    500.7802    136.2847 300.3152351 +22.5570076     3484.971     69.90565      1.627     3.35     -2.56053     19.74263     338.0041        32     1.284     1.176 -80.44   0
       243    386.7363    136.4202 300.2797152 +22.5228581     440.4135     69.95916      1.677     3.17    -2.505517     19.74263     37.75978         5     0.727     0.452 -20.45   0
       244    753.2825    125.8293 300.3972363 +22.6296704     462.7076     69.99481      1.434     4.85    -2.872918     19.74263     42.78807         9     0.943     0.707  26.79   0
       245    845.5373    124.7591 300.4263259 +22.6569987     256.2133     69.95916      1.509     5.38    -2.677584     19.74263       34.123         7     1.206     0.677  52.16   0
       246    629.1301    116.2959 300.3616669 +22.5897313       3628.5     70.10165      1.578     3.18    -2.599075     19.74263     344.6815        30     1.214     1.197  46.80   0
       247    404.1909    115.2458 300.2920126 +22.5220095     807.2651     69.99481      1.590     3.85    -2.526583     19.74263     73.94055        17     1.145     1.064  -8.46   0
       248    670.7445    113.7801 300.3754398 +22.6014779     431.4184     69.95916      1.569     4.73    -2.599256     19.74263     39.08609         8     0.935     0.680 -84.43   0
       249    153.0003    108.4312 300.2161403 +22.4447294     263.6846     69.94133      1.248     3.73    -2.634019     19.74263     46.78873         8     1.065     0.535  55.86   0
       250    956.1288    107.1637 300.4665043 +22.6850608      288.515     69.97699      1.583     2.77    -2.523807     19.74263     43.89445         5     0.724     0.666 -38.52   0
       251    673.1858    101.1154 300.3803082 +22.5985696     1586.617     69.92349      1.646     3.11    -2.564473     19.74263      146.646        22     1.202     1.066  88.67   0
       252    314.2545    102.2195 300.2682714 +22.4913040     390.4792     69.95916      1.924     3.76    -2.702982     19.74263     27.63243         5     0.934     0.434  44.23   0
       253    687.6307     99.6195 300.3852915 +22.6024676       599.98     69.97699      1.901     4.53    -2.628194     19.74263     49.93769         9     1.173     0.709  23.62   0
       254    759.7449     92.6867 300.4100005 +22.6220795     895.5148     70.03044      1.704     3.87    -2.756584     19.74263     78.16743        19     1.262     0.996  23.66   0
       255    697.4557     86.1883 300.3927078 +22.6015508     518.0907     69.95916      1.753     3.01    -2.581332     19.74263     53.76479         9     0.934     0.774 -33.38   0
       256    503.4777     85.2426 300.3326316 +22.5431522     567.3472     69.95916      1.635     4.87    -2.354269     19.74263     52.03289        15     1.139     1.043 -44.58   0
       257     76.8259     85.0132 300.2000737 +22.4151585     451.0234     69.97699      2.090     4.39    -2.588801     19.74263     48.81092         6     1.151     0.476 -64.60   0
       258    407.5223     83.6553 300.3032955 +22.5139342     445.9801     70.01263      1.421     3.38    -2.561632     19.74263     47.25697        10     0.932     0.849  -7.44   0
       259    178.8331     73.7491 300.2354152 +22.4425202     2268.952     69.99481      1.514     2.65    -2.704316     19.74263     271.5493        26     1.224     1.034  69.20   0
       260    746.3336     74.1259 300.4118433 +22.6127263     388.2577     70.03044      1.439     3.77    -2.821193     19.74263     44.86662         7     1.011     0.532  16.03   0
       261    294.6194     66.0277 300.2739053 +22.4750230     768.0636     69.97699      1.576     3.58    -2.758323     19.74263     81.40768        14     1.165     0.837  78.51   0
       262    739.7859     65.7291 300.4125272 +22.6083511      601.069     69.97699      1.617     3.89    -2.838448     19.74263     66.66136        11     1.095     0.814  87.92   0
       263    777.5038     60.5704 300.4259495 +22.6181664     449.2171     69.92349      1.859     3.67     -2.77141     19.74263     43.00144         7     0.861     0.682 -68.93   0
       264    701.2101     60.7901 300.4021146 +22.5953752     294.0876     69.86996      1.613     3.86    -2.440932     19.74263     26.29628         5     0.914     0.467 -44.99   0
       265    797.7195     56.9646 300.4334170 +22.6231848     1315.834     69.92349      1.599     3.16    -2.751216     19.74263     134.5464        20     1.214     1.036  13.58   0
       266    181.3151     52.7157 300.2430075 +22.4372254     567.9666     70.08385      1.484     3.80    -2.722642     19.74263     62.79287        13     1.116     0.831  65.34   0
       267    972.3643     50.4608 300.4899583 +22.6736143     410.9835     69.99481      1.175     2.87    -2.584884     19.74263      57.1788         7     0.899     0.488  -7.86   0
       268    746.5005     49.2324 300.4199689 +22.6056201     614.8884     69.95916      1.736     4.62    -2.834549     19.74263     58.40711         8     1.195     0.560 -72.67   0
       269    598.6794     34.4849 300.3787219 +22.5570959     459.4914     70.11944      1.323     3.13    -1.726814     19.74263      60.3923        10     0.941     0.725  53.87   0
       270    208.3257     32.3024 300.2580203 +22.4394637     252.3977     70.11944      1.540     5.07    -2.740968     19.74263     29.03673         6     1.103     0.660 -45.63   0
       271    761.7086     29.5563 300.4310870 +22.6045186     516.3495     69.97699      1.833     3.39    -2.849567     19.74263     51.16912         8     0.882     0.764   6.57   0
       272    570.4688     27.7294 300.3721314 +22.5467016     1016.776     70.01263      1.557     3.31    -1.706136     19.74263     96.33481        17     1.070     0.994 -77.94   0
       273    292.9378     24.9290 300.2867101 +22.4627153     409.5415     70.01263      1.713     6.17    -2.789367     19.74263     40.77554         9     1.155     0.925 -55.37   0
       274      8.1505     23.8673 300.1985760 +22.3770071     252.7463     69.97699      1.244     2.43    -1.358506     19.74263     48.42214         6     0.715     0.560 -56.48   0
       275    527.8566     21.7624 300.3608045 +22.5322181     849.3987     69.97699      1.648     3.51    -1.700218     19.74263     81.24227        17     1.183     0.964  48.02   0
       276    633.0202     17.9406 300.3947774 +22.5626297     778.1777     69.92349      1.579     3.83    -1.543292     19.74263     73.06462        15     1.081     0.980  76.84   0
       277    228.5659     17.3566 300.2691566 +22.4412407     291.8545     70.03044      1.241     3.85    -2.756576     19.74263     46.69093         6     0.961     0.442 -74.82   0
       278    172.9271   1021.7661 299.9255176 +22.7126395     696.2778     63.78551      5.198     6.36     7.765203     19.74263     42.63391         9     1.465     0.775  33.93  17
       279    539.3974   1017.7171 300.0407707 +22.8215628     242.6727     69.88781      0.819     2.68    -5.118097     19.74263     42.97068         5     0.710     0.455 -70.73   0
       280    224.0787   1022.6077 299.9411354 +22.7282508     632.4205     59.97603      5.987     7.52     3.384248     19.74263     34.77041        12     1.989     0.795  -8.14  24
