#   1 NUMBER                 Running object number                                     
#   2 X_IMAGE                Object position along x                                    [pixel]
#   3 Y_IMAGE                Object position along y                                    [pixel]
#   4 ALPHA_J2000            Right ascension of barycenter (J2000)                      [deg]
#   5 DELTA_J2000            Declination of barycenter (J2000)                          [deg]
#   6 FLUX_APER              Flux vector within fixed circular aperture(s)              [count]
#   7 FLUXERR_APER           RMS error vector for aperture flux(es)                     [count]
#   8 FLUX_RADIUS            Fraction-of-light radii                                    [pixel]
#   9 FWHM_IMAGE             FWHM assuming a gaussian core                              [pixel]
#  10 BACKGROUND             Background at centroid position                            [count]
#  11 THRESHOLD              Detection threshold above background                       [count]
#  12 FLUX_MAX               Peak flux above background                                 [count]
#  13 ISOAREA_IMAGE          Isophotal area above Analysis threshold                    [pixel**2]
#  14 A_IMAGE                Profile RMS along major axis                               [pixel]
#  15 B_IMAGE                Profile RMS along minor axis                               [pixel]
#  16 THETA_IMAGE            Position angle (CCW/x)                                     [deg]
#  17 FLAGS                  Extraction flags                                          
         1    646.2209     19.5289 300.4124949 +22.5514868     1594.141     70.34466      1.963     4.29    -1.363445     19.84636     107.3075        29     1.389     1.327  27.90   0
         2    579.9623      9.1635 300.3952289 +22.5286542     726.6852     70.41629      1.905     4.64    -1.661643     19.84636     55.26813        15     1.255     0.975  -7.90   0
         3    369.9617      1.6297 300.3323321 +22.4635494     2682.253     56.40279      1.303     3.74    -2.133179     19.84636     363.6258        18     1.333     0.694  -7.67  24
         4    790.5191   1012.2248 300.1347359 +22.8798055     6705.205     70.32674      1.246     2.24    -5.485764     19.84636     929.4152        33     1.070     0.999 -16.69   0
         5    101.2252   1023.1350 299.9167818 +22.6758921     941.1142     57.64062      7.784     8.38   -0.4624706     19.84636     44.51514        20     2.153     0.910  -5.33  26
         6     94.2266   1023.6868 299.9144285 +22.6739465     884.1063     54.65503      6.089     8.16   -0.6033592     19.84636     43.71555        11     1.861     1.000 -34.61  27
         7    981.5345   1011.8195 300.1943973 +22.9370120     227.0806     70.30881      1.128     3.38    -5.217779     19.84636     38.37218         5     0.762     0.434  66.88   0
         8    836.3038   1012.1613 300.1490207 +22.8935292     378.6709     70.32674      1.241     3.37    -5.421645     19.84636     43.82239         6     0.737     0.635 -28.55   0
         9    102.3767   1004.6251 299.9231682 +22.6709365     478.0134     70.30881      1.433     4.55    -1.260458     19.84636     64.75876         8     1.205     0.524  56.54   0
        10    923.8332   1005.0775 300.1786059 +22.9177640     223.9814     70.32674      1.546     5.33    -5.336436     19.84636     37.15689         5     0.943     0.851 -48.78   0
        11    799.0489    994.2822 300.1432378 +22.8772186     840.3748     70.34466      1.160     2.11    -5.391891     19.84636     138.7992        12     0.866     0.765 -18.26   0
        12    982.0524    993.1827 300.2006298 +22.9318190     284.7535     70.32674      1.192     2.79    -5.210813     19.84636     47.24729         6     0.863     0.465  30.98   0
        13    837.1607    987.7961 300.1572244 +22.8867961     550.9525     70.36257      1.409     2.87    -5.324603     19.84636     64.69167        11     0.930     0.770  35.25   0
        14    557.7986    980.5517 300.0725933 +22.8008555      2649.81     70.32674      0.725     0.95    -5.253927     19.84636     1133.873         7     0.517     0.465  84.57   0
        15    885.7301    978.9802 300.1752309 +22.8988419     354.3098     70.36257      1.273     3.07    -5.276753     19.84636     65.78602         8     0.869     0.663   7.64   0
        16    736.8336    978.0836 300.1291347 +22.8538978     543.5925     70.30881      1.494     3.50    -5.256835     19.84636     69.43529        11     1.034     0.819 -28.26   0
        17    449.6267    974.6714 300.0408534 +22.7666848     2316.433     70.32674      1.356     2.50    -4.833942     19.84636     311.9138        22     1.071     0.981  67.74   0
        18    748.3827    975.3273 300.1336295 +22.8565737     302.3828     70.34466      1.192     3.18    -5.249459     19.84636       53.487         6     0.833     0.515 -40.87   0
        19    111.1048    963.3489 299.9393213 +22.6617361     124.5427     70.41629      1.124     2.07     -3.12243     19.84636     49.74048         5     0.813     0.618  49.41   0
        20    175.4202    960.5120 299.9602235 +22.6802509     343.9782     70.27295      1.183     4.51    -3.337611     19.84636      55.0806         9     1.148     0.681 -16.05   0
        21     83.6070    958.8058 299.9322607 +22.6521706     196.4593     70.20116      1.138     3.53    -3.593862     19.84636     32.88493         5     0.781     0.460  74.88   0
        22    152.1494    957.6044 299.9539411 +22.6724250     867.4978     70.32674      1.294     2.95    -3.344094     19.84636     107.8816        13     0.940     0.848  24.62   0
        23   1023.3095    946.0118 300.2288581 +22.9306570     1012.728     56.67032      1.043     2.15     -5.18073     19.84636     192.4864        11     0.823     0.701  89.57  24
        24    977.6958    944.6734 300.2150713 +22.9165895     1220.714     70.46997      1.165     2.19    -5.194334     19.84636     189.5232        14     0.916     0.800   4.25   0
        25    184.0774    939.3643 299.9697995 +22.6767930     258.9174     70.30881      1.198     4.04    -4.287451     19.84636     42.24969         6     0.914     0.617 -70.03   0
        26    761.3418    938.5606 300.1496399 +22.8499159     401.5941     70.34466      1.163     3.13    -5.070789     19.84636     44.16837         8     0.862     0.682  79.86   0
        27    629.5231    932.7202 300.1104947 +22.8086732     2916.917     70.45208      1.440     2.71    -5.271116     19.84636     325.1525        25     1.110     1.038 -50.48   0
        28    119.6684    933.7868 299.9516071 +22.6558407     195.8293     70.36257      0.874     3.44    -4.408077     19.84636     32.63058         5     0.787     0.434  73.78   0
        29    431.7787    929.8445 300.0498998 +22.7484735     259.1292     70.39838      1.274     1.80    -4.826734     19.84636     63.57881         6     0.710     0.499  41.68   0
        30    179.9183    926.8779 299.9725729 +22.6719656     802.9197     70.45208      1.416     2.89    -4.677398     19.84636     99.74331        12     1.037     0.709  53.17   0
        31    650.1415    924.8499 300.1194764 +22.8126054     495.7951     70.39838      1.400     3.36    -5.246716     19.84636     60.74567        11     1.007     0.735 -85.52   0
        32    805.4892    912.3478 300.1719283 +22.8556440      2378.02     70.36257      1.384     2.66    -4.956061     19.84636     258.5381        25     1.079     1.049  24.60   0
        33   1022.0519    912.3112 300.2394408 +22.9206057     706.7346     62.87008      1.219     2.34    -5.172481     19.84636     105.0063        11     0.826     0.789  58.37  16
        34    213.9198    907.1238 299.9895691 +22.6765209     351.9322     70.45208      1.346     4.88    -4.762246     19.84636     32.36506         7     1.086     0.620  -1.52   0
        35    522.3036    905.2390 300.0860732 +22.7686018     390.9397     70.32674      1.384     4.97    -5.023463     19.84636      44.2476         8     1.051     0.666 -43.22   0
        36    169.1785    903.1125 299.9769738 +22.6619290     640.9733     70.27295      1.471     2.88    -4.717535     19.84636     65.66583        10     0.865     0.757   2.20   0
        37    583.7354    898.7443 300.1073053 +22.7851829     408.7476     70.39838      2.001     5.27    -5.013253     19.84636     40.28434         8     1.427     0.549 -60.98   0
        38    318.7174    895.2816 300.0259963 +22.7046082     31135.43     70.46997      1.491     2.81    -4.707503     19.84636      3557.59        69     1.324     1.239  61.25   0
        39    247.2372    894.5804 300.0040064 +22.6829355     401.5322     70.36257      1.983     5.37    -4.817036     19.84636     33.32894         6     1.525     0.534 -73.58   0
        40    576.4713    894.1666 300.1065348 +22.7816892     954.9249     70.34466      1.580     3.05    -4.972923     19.84636     116.5302        16     1.130     0.872  -9.06   0
        41    989.0795    892.8069 300.2355104 +22.9051165     443.7748     70.27295      1.347     3.23    -5.114634     19.84636      62.0275        10     1.000     0.673 -71.57   0
        42    605.5226    890.1043 300.1168997 +22.7892454     492.3406     70.46996      1.457     4.13    -4.956298     19.84636     45.72218         9     1.093     0.622  81.25   0
        43      5.0962    890.2935 299.9301895 +22.6089490     383.2786     70.02139      1.262     3.11    -5.011155     19.84636     62.42498         9     0.869     0.729  83.05  16
        44    616.1710    888.5231 300.1207291 +22.7919883     370.7082     70.32674      1.584     5.83    -4.951088     19.84636     40.68609        10     1.130     0.846 -62.65   0
        45    721.8967    884.8542 300.1548422 +22.8226694     252.8856     70.43419      1.246     4.60    -4.982627     19.84636     26.14598         8     0.861     0.698 -43.85   0
        46    759.1887    875.2508 300.1695836 +22.8311055     542.7775     70.38048      1.381     3.74    -4.923881     19.84636     57.53965         8     1.022     0.560 -60.80   0
        47    368.4028    872.4585 300.0488742 +22.7129883     17810.82     70.30881      1.561     2.94    -4.548196     19.84636     1835.469        53     1.311     1.231  55.92   0
        48    382.7731    872.8701 300.0532088 +22.7174220     1097.951     70.34466      1.495     3.40    -4.602264     19.84636     111.3942        20     1.181     1.043 -81.98   0
        49    891.0897    867.9904 300.2130440 +22.8685982     1613.738     70.29088      1.372     2.73    -4.980584     19.84636     202.1783        21     1.072     0.987   7.81   0
        50    648.9800    864.1864 300.1388659 +22.7948555     503.7448     70.30881      1.503     5.64    -4.754186     19.84636     47.05958        12     1.039     0.864  67.47   0
        51    251.2063    864.4933 300.0150344 +22.6755045     448.8393     70.23707      1.400     3.64    -4.819803     19.84636     59.03186         9     1.055     0.670  62.99   0
        52    496.6512    858.7740 300.0932188 +22.7475750     513.3481     70.36257      1.692     4.03    -4.663332     19.84636     59.07876        11     1.156     0.805  65.66   0
        53     55.7347    859.7911 299.9558410 +22.6154289     259.2893     70.32674      1.319     4.51    -4.843548     19.84636     43.88424         7     1.028     0.564 -67.50   0
        54    379.4390    866.5722 300.0542221 +22.7146151     372.9568     70.38048      1.801     5.18    -4.587846     19.84636     42.17231         9     1.357     0.918  75.46   0
        55    248.6930    848.5529 300.0194420 +22.6701806      435.627     70.36257      2.101     3.01    -4.749766     19.84636     53.00697         7     0.928     0.717  44.15   0
        56    563.3549    834.5049 300.1218750 +22.7606395      897.713     70.36257      1.702     3.50    -4.609138     19.84636     74.91942        15     1.090     0.936  45.42   0
        57    450.3737    836.2109 300.0861667 +22.7272100     192.8294     70.34466      1.471     4.39     -4.33837     19.84636     24.69827         5     0.961     0.570 -41.26   0
        58    957.6050    833.1995 300.2451034 +22.8785641     2782.559     70.16525      1.410     2.58    -4.789873     19.84636     300.2935        25     1.138     1.016 -15.35   0
        59    946.1543    824.5933 300.2443351 +22.8726589     1040.827     70.36257      1.381     2.83    -4.652595     19.84636     107.4231        18     1.007     0.991  -2.22   0
        60    309.4571    819.0679 300.0479260 +22.6799791      581.093     70.36257      1.630     4.92    -4.330143     19.84636     57.21929        15     1.355     0.948  88.94   0
        61    772.3145    815.8121 300.1930211 +22.8179878     1490.902     70.29088      1.626     3.52    -4.319695     19.84636     151.0439        21     1.193     1.087 -82.13   0
        62    977.0145    814.7144 300.2571718 +22.8790786     994.3646     70.29088      1.411     2.62    -4.819096     19.84636     115.6092        12     0.880     0.816 -70.54   0
        63    890.7488    792.8546 300.2373955 +22.8469288     85184.88     70.38048      1.480     2.94    -4.256864     19.84636     8150.888       102     1.325     1.308  66.98   0
        64    742.8987    793.6584 300.1910689 +22.8028042     486.4277     70.43419      2.111     5.46    -4.131947     19.84636      39.9809         9     1.458     0.576 -44.21   0
        65    577.2402    781.9164 300.1433121 +22.7497220     963.6641     70.30881      1.655     4.16    -4.118932     19.84636     97.55873        20     1.305     1.121  58.93   0
        66    758.3419    779.1552 300.2005991 +22.8032755     5303.903     70.38048      1.620     3.44    -4.093569     19.84636     463.2923        33     1.243     1.205 -45.31   0
        67    260.1103    774.5910 300.0470612 +22.6524081     2708.595     70.27295      1.593     3.26    -4.342323     19.84636     257.6481        28     1.249     1.164  64.62   0
        68    342.3745    772.7625 300.0732290 +22.6765878      541.053     70.36257      1.496     4.27    -3.987895     19.84636      54.5501        10     0.931     0.858  59.49   0
        69    550.6376    767.8682 300.1396043 +22.7377072     399.5598     70.32674      1.569     5.30    -4.089648     19.84636     35.63586         8     1.192     0.665  83.97   0
        70    541.9143    760.0872 300.1394216 +22.7328568     1906.922     70.46996      1.751     4.00    -3.979873     19.84636     150.1468        24     1.283     1.135  -3.52   0
        71    532.0719    754.1319 300.1382966 +22.7281942     793.0143     70.38048      1.541     3.92     -3.84366     19.84636     70.75217        17     1.115     1.045   6.84   0
        72    196.1042    750.2543 300.0350890 +22.6262079     353.0928     70.41629      1.694     3.54    -4.390019     19.84636     37.09736         5     0.795     0.513 -53.75   0
        73    209.6537    749.1597 300.0396554 +22.6299636      464.473     70.30881      2.224     5.23    -4.340942     19.84636      37.9632         7     1.337     0.578  13.23   0
        74    235.9060    745.9974 300.0488424 +22.6369415      336.977     70.25501      1.359     4.61     -4.25415     19.84636     41.40269         7     1.240     0.487  75.17   0
        75    456.9868    743.7610 300.1183099 +22.7026810     1063.786     70.36257      1.831     4.63    -3.597035     19.84636     80.26727        19     1.320     1.011 -11.05   0
        76    111.0770    738.9438 300.0123540 +22.5974263     11262.42     70.38048      1.505     2.95     -4.44231     19.84636     1216.709        45     1.282     1.211  51.10   0
        77     31.9776    740.6211 299.9872440 +22.5741444     332.0437     70.34466      1.208     1.95    -4.311621     19.84636     67.96346         5     0.698     0.545  85.78   0
        78    541.6272    739.2296 300.1461190 +22.7267870     646.4272     70.34466      1.745     5.53    -3.684615     19.84636     54.17065        14     1.302     0.920 -53.35   0
        79    913.5292    733.8359 300.2637018 +22.8368173     262.0535     70.34466      1.593     5.18    -4.158182     19.84636     25.47909         5     1.023     0.742  -5.96   0
        80    959.5995    724.7685 300.2810138 +22.8480296     573.8419     70.30881      1.418     4.47    -4.160623     19.84636     59.21217        10     0.987     0.728  -1.76   0
        81     57.2496    723.0162 300.0008186 +22.5766915      936.363     70.38048      1.668     3.93    -4.334188     19.84636     69.65089        14     1.262     0.765  85.40   0
        82    826.6200    722.8013 300.2402076 +22.8075827     226.0939     70.27295      1.266     3.45    -4.040861     19.84636     28.83508         5     1.261     0.273 -34.82   0
        83    900.2523    717.9679 300.2647265 +22.8282794     483.7913     70.36257      1.775     4.68    -4.099197     19.84636     40.06532         7     0.872     0.713 -24.30   0
        84    462.0336    711.6422 300.1303296 +22.6949829     442.6076     70.39838      2.019     6.30    -3.522232     19.84636     36.31548         7     1.132     0.985  25.38   0
        85    657.2585    709.0243 300.1919393 +22.7528201     299.4706     70.34466      1.702     5.05    -3.765608     19.84636     29.17933         5     1.166     0.618  -1.79   0
        86    506.3657    707.5828 300.1454427 +22.7071247     535.3525     70.34466      1.817     5.34    -3.529002     19.84636     46.93473         8     1.157     0.847  64.28   0
        87    939.6182    702.8594 300.2819129 +22.8357464      1926.85     70.32674      1.604     3.45    -4.119612     19.84636     147.9157        27     1.284     1.146  88.13   0
        88    471.6201    703.1249 300.1360828 +22.6954171     1044.528     70.34466      1.846     5.84    -3.499845     19.84636     67.61363        21     1.309     1.198 -25.54   0
        89     33.8313    697.1547 300.0019594 +22.5622447     2899.098     70.39838      1.520     2.85    -4.284216     19.84636      321.971        30     1.224     1.124  77.88   0
        90    335.2138    690.0949 300.0978980 +22.6507317      5320.83     70.27295      1.722     3.42    -3.843581     19.84636     509.1861        42     1.381     1.323  64.86   0
        91    457.5510    687.0497 300.1369353 +22.6865828     5034.086     70.38048      1.808     3.93    -3.491574     19.84636     368.4976        38     1.402     1.319  57.18   0
        92    868.8334    680.5858 300.2670961 +22.8081234     900.4615     70.32674      1.518     4.01    -3.955228     19.84636      74.8272        18     1.185     0.999 -66.96   0
        93    953.5683    677.9207 300.2943750 +22.8327678     7006.156     70.34466      1.553     3.34    -4.046401     19.84636     570.9913        40     1.263     1.222 -79.60   0
        94    518.0341    676.5896 300.1591556 +22.7017347     6689.046     70.32674      1.811     3.94     -3.48891     19.84636     544.8411        41     1.388     1.371 -87.33   0
        95    246.1149    672.3140 300.0759849 +22.6188808     766.1994     70.46996      1.665     3.77    -4.193504     19.84636     71.08168        14     1.144     0.957   7.80   0
        96    449.7550    664.8238 300.1417398 +22.6778668     2463.284     70.38048      1.806     4.08    -3.448398     19.84636     190.5976        31     1.386     1.300 -37.79   0
        97    792.8351    664.2802 300.2487198 +22.7806487     379.1054     70.29088      1.407     4.74    -3.867441     19.84636     46.22097        12     1.260     0.896  45.26   0
        98    428.1954    663.3646 300.1355081 +22.6709770     729.3715     70.34466      1.884     4.09    -3.446724     19.84636     73.96766        16     1.322     0.914 -81.18   0
        99    183.1541    663.1151 300.0594116 +22.5973370     423.7379     70.32674      1.517     4.12     -4.29858     19.84636     46.40174         7     1.167     0.415 -56.53   0
       100    869.5607    660.0285 300.2740099 +22.8024388     993.9495     70.38048      1.836     4.02    -3.861148     19.84636     77.26475        15     1.094     1.023  35.56   0
       101    566.3725    652.3132 300.1820948 +22.7092748     115704.2     70.34466      1.841     3.96     -3.44152     19.84636     8118.285       147     1.613     1.585  13.70   0
       102    749.9181    657.2454 300.2376389 +22.7657563     483.9931     70.32674      1.769     5.09    -3.711601     19.84636     35.56364         8     0.971     0.756 -85.45   0
       103    252.6066    652.4274 300.0844705 +22.6151275     1976.113     70.34466      1.731     3.74    -4.071526     19.84636     173.4861        27     1.310     1.183  58.98   0
       104    456.8989    632.8317 300.1543672 +22.6708326     1531.037     70.32674      1.990     4.22    -3.351597     19.84636     126.5259        29     1.542     1.246 -68.70   0
       105    853.6997    618.8226 300.2824693 +22.7858500     1008.973     70.29088      1.670     4.75    -3.626482     19.84636     71.77714        21     1.296     1.174  60.59   0
       106    725.1182    616.3538 300.2432142 +22.7465785     1463.439     70.32674      1.780     4.12    -3.519455     19.84636     99.61433        24     1.253     1.202  28.15   0
       107    512.5026    613.8148 300.1778512 +22.6820627     332.4248     70.23707      1.638     4.91     -3.31044     19.84636     30.49927         5     1.095     0.623  22.46   0
       108    982.2833    610.3252 300.3253141 +22.8219625     675.1248     70.43419      1.566     3.89    -3.629652     19.84636     55.53112        13     1.007     0.893 -33.89   0
       109    967.6393    609.3651 300.3210605 +22.8172965     548.5869     70.39838      2.195     5.17    -3.623921     19.84636     41.30531        10     1.146     0.797  74.11   0
       110    854.1063    608.6993 300.2858883 +22.7830649     1366.326     70.52361      1.967     4.53    -3.570668     19.84636     80.06947        24     1.354     1.185 -75.24   0
       111    607.5030    606.4568 300.2098106 +22.7084553     515.1897     70.43419      2.069     5.51    -3.320177     19.84636     30.26841         7     1.717     0.498  40.38   0
       112    892.1323    603.7319 300.2993547 +22.7930405     2377.016     70.39838      1.656     3.69    -3.550738     19.84636     178.2641        29     1.259     1.213  44.83   0
       113    124.6211    594.5594 300.0635208 +22.5601037     590.4565     70.38048      1.881     4.93    -3.942785     19.84636      52.8934        10     1.170     0.703 -68.83   0
       114    983.7031    593.7360 300.3311517 +22.8176228     484.4326     70.45208      2.023     4.94    -3.570421     19.84636     36.30396         8     1.190     0.580 -44.01   0
       115    117.5218    584.9632 300.0644357 +22.5552204     276.2587     70.30881      1.393     3.59    -3.764066     19.84636     35.71124         6     0.799     0.499 -87.09   0
       116    666.3049    574.7053 300.2384423 +22.7169809     452.9691     70.50573      2.250     6.52    -3.325823     19.84636     35.08044        10     1.513     0.788 -25.79   0
       117    726.3518    567.0880 300.2596185 +22.7328043     667.4951     70.34466      2.701     7.40     -3.38803     19.84636     31.92494        13     1.375     1.115 -50.29   0
       118    980.2376    566.5239 300.3389199 +22.8087668     235.4081     70.30881      1.502     3.93    -3.465257     19.84636     44.02413         7     0.931     0.773  71.17   0
       119    883.8125    562.6703 300.3101138 +22.7787528     640.7908     70.36257      1.857     4.76    -3.311201     19.84636     48.78061        13     1.136     0.981 -81.24   0
       120    867.8981    558.4709 300.3065194 +22.7727753     364.0835     70.46996      1.874     5.70    -3.279175     19.84636     32.23664         7     1.026     0.892  12.29   0
       121    612.3137    557.2053 300.2273228 +22.6957617     1717.912     70.27295      1.915     4.48    -2.999516     19.84636     114.1183        27     1.365     1.277   7.99   0
       122    972.5316    555.6862 300.3400411 +22.8033435     277.1702     70.43419      1.359     5.40    -3.404126     19.84636     40.95921         7     1.063     0.772 -16.93   0
       123   1023.1705    535.9213 300.3622578 +22.8128433     569.2435     57.50927      1.324     3.24    -3.465745     19.84636     67.98125        12     1.043     0.756  82.71  24
       124    895.6824    535.5187 300.3226412 +22.7745127     312.0293     70.48785      1.686     6.08    -3.177656     19.84636     34.67419         9     1.397     0.744  27.12   0
       125    981.5191    534.3774 300.3497715 +22.7999157     688.1845     70.30881      1.849     4.48    -3.337389     19.84636     57.41801        15     1.179     0.996 -57.03   0
       126    722.5179    531.3052 300.2700582 +22.7213803     522.5078     70.50573      1.745     5.69    -3.200545     19.84636      45.3758        11     1.099     0.830   2.19   0
       127    226.8580    528.9159 300.1166274 +22.5719747     267.6288     70.45208      1.858     6.04    -3.115411     19.84636      30.5212         6     1.241     0.827 -43.50   0
       128    289.4174    525.3676 300.1372256 +22.5897354     1975.839     70.32674      1.825     4.11    -2.954413     19.84636     156.2521        27     1.326     1.222  -6.09   0
       129   1022.1318    523.1193 300.3660959 +22.8088536     2426.319     62.60891      1.590     3.37    -3.374525     19.84636     208.9202        24     1.179     1.099 -76.13  24
       130    236.4946    520.1243 300.1224801 +22.5723457      4296.49     70.48785      1.820     3.80    -3.051407     19.84636     334.0522        36     1.383     1.332  34.94   0
       131    377.2169    514.2226 300.1681473 +22.6128885     2704.134     70.30881      1.943     4.26     -2.91177     19.84636     208.0234        32     1.449     1.332 -73.85   0
       132   1002.1390    514.3118 300.3627244 +22.8003310     1148.445     70.41629      1.707     3.88    -3.278556     19.84636     93.21207        18     1.182     1.009 -27.20   0
       133    621.3449    510.7611 300.2452330 +22.6851380     10482.76     70.34466      1.982     4.53     -2.63914     19.84636     608.9629        52     1.549     1.494   8.21   0
       134    954.9515    493.5849 300.3547491 +22.7802327     441.0988     70.38048      1.689     4.85    -3.131549     19.84636     36.10516         9     0.935     0.712 -66.71   0
       135    176.2038    491.1987 300.1131463 +22.5459504     1129.667     70.12931      1.720     4.50    -2.954791     19.84636     101.4334        19     1.234     1.084  45.16   0
       136    562.0139    480.2794 300.2366724 +22.6585909     3634.557     70.32674      1.976     4.52    -2.421134     19.84636     241.4811        39     1.541     1.392  80.09   0
       137    975.2664    480.0084 300.3654960 +22.7824207     723.3715     70.34466      1.690     5.79    -3.081204     19.84636     52.23814        16     1.278     1.000 -44.00   0
       138    277.7894    480.0263 300.1483483 +22.5732378     481.4008     70.34466      1.784     4.91    -2.825776     19.84636     38.69292         8     1.083     0.640  82.64   0
       139    766.1229    469.1514 300.3038438 +22.7166071     668.8781     70.34466      2.056     6.33    -2.842398     19.84636     39.81372        13     1.509     0.990 -83.81   0
       140    468.6550    466.6412 300.2120540 +22.6266699     3415.567     70.30881      1.930     4.47    -2.511873     19.84636     269.9947        36     1.479     1.394  18.67   0
       141    860.2794    460.8718 300.3358720 +22.7424568     755.4421     70.45208      1.821     4.57     -2.77432     19.84636     66.81485        15     1.228     1.042   2.74   0
       142    958.0803    460.5084 300.3664755 +22.7716670     432.4431     70.46996      1.830     6.10    -2.929452     19.84636     35.48871         8     1.337     0.782  67.83   0
       143    356.2951    445.9846 300.1838190 +22.5870296     1331.285     70.27295      1.857     4.70    -2.734091     19.84636     106.2913        23     1.330     1.189 -76.25   0
       144     74.9261    443.5550 300.0971679 +22.5018812     581.7633     70.32674      1.548     4.07    -3.066817     19.84636     63.48014        10     1.128     0.754  38.83   0
       145    325.5945    435.3545 300.1777272 +22.5747670     16582.91     70.34466      1.928     4.01    -2.648647     19.84636     1168.395        63     1.564     1.514  73.85   0
       146    860.2247    432.6826 300.3450161 +22.7343423     621.5573     70.30881      1.676     5.03    -2.606761     19.84636     53.49922        13     1.127     0.867 -22.36   0
       147     21.9953    423.3985 300.0872800 +22.4802091     2879.196     70.16525      1.669     3.45    -3.298848     19.84636     259.2919        29     1.283     1.219 -57.59   0
       148    735.8188    414.9401 300.3120216 +22.6919510     947.3079     70.29088      1.869     5.71    -2.341819     19.84636     83.00834        21     1.383     1.155  -1.78   0
       149    397.7763    399.8454 300.2117111 +22.5862339     1184.097     70.36257      2.069     5.21    -2.599567     19.84636     83.47411        24     1.415     1.240  79.05   0
       150    473.4617    378.7854 300.2420967 +22.6028927     691.8837     70.30881      2.138     8.36    -2.490077     19.84636     47.10765        16     1.633     1.197  89.16   0
       151    718.3278    370.8332 300.3209044 +22.6740382     1084.386     70.34466      1.873     5.14    -2.359322     19.84636     79.72128        21     1.329     1.201  -3.57   0
       152    979.3599    364.7219 300.4042358 +22.7505178     1754.598     70.32674      1.777     4.16    -2.415141     19.84636     117.5893        26     1.336     1.181 -49.56   0
       153    427.1056    355.1200 300.2353636 +22.5821942     329.0295     70.46996      2.054     3.91    -2.525497     19.84636     35.16573         6     0.954     0.460 -35.48   0
       154    101.7760    349.4659 300.1360746 +22.4829540     765.3254     70.32674      2.120     4.41    -3.160331     19.84636     58.51848        14     1.259     0.825 -79.53   0
       155    132.6344    349.0269 300.1458030 +22.4920900     364.5193     70.36257      1.730     4.35     -3.06061     19.84636     44.95662         7     1.020     0.812  70.74   0
       156    790.5131    331.6793 300.3561097 +22.6844288     307.8683     70.50573      1.573     5.31    -2.343134     19.84636     32.78374         5     1.072     0.742  73.33   0
       157    887.8483    321.0016 300.3899098 +22.7105316     1191.803     70.32674      1.920     4.87    -2.354198     19.84636     81.30939        25     1.392     1.274  -7.61   0
       158    306.8132    319.0119 300.2096833 +22.5357435     1222.974     70.27295      2.064     4.36    -2.579846     19.84636     108.1787        25     1.377     1.349 -41.52   0
       159    385.1608    314.8980 300.2353819 +22.5580659     521.4249     70.34466      1.708     3.04    -2.569299     19.84636     44.18889         7     0.872     0.512 -43.07   0
       160    202.2786    306.5113 300.1812507 +22.5007916     446.2487     70.46997      1.606     3.42    -2.577271     19.84636     41.84042         5     0.737     0.470 -17.42   0
       161    739.2173    302.6930 300.3495449 +22.6607258     935.4429     70.27295      1.928     7.34    -2.345892     19.84636     56.75652        20     1.355     1.168 -18.01   0
       162   1010.7826    294.8856 300.4367197 +22.7398584     490.2239     70.30881      1.525     3.92    -2.377553     19.84636     54.46984         9     0.916     0.718 -77.67   0
       163    663.9161    293.7823 300.3289874 +22.6355935     659.8688     70.30881      1.935     4.77    -2.494981     19.84636     56.40292        14     1.373     0.957  -2.47   0
       164    590.4803    285.6085 300.3087787 +22.6112295     505.3802     70.29088      1.898     5.56     -2.50306     19.84636     46.66071         9     1.317     0.661 -24.11   0
       165    858.9076    284.6041 300.3927115 +22.6913993     692.8875     70.23707      1.890     6.02     -2.34879     19.84636     55.56794        17     1.280     1.093 -56.69   0
       166    870.9610    284.3206 300.3965601 +22.6949297     415.5045     70.32674      1.595     5.47    -2.354414     19.84636     39.13106         7     1.332     0.634  17.22   0
       167    988.0905    274.0242 300.4364186 +22.7270634     579.9182     70.29088      1.739     4.84    -2.379277     19.84636     47.18429         9     1.050     0.633 -54.92   0
       168     83.9948    262.5375 300.1587817 +22.4526787     1320.684     70.32674      1.834     4.62         -2.8     19.84636     101.3264        28     1.465     1.323 -82.20   0
       169     34.1763    260.0758 300.1441091 +22.4370209        368.6     70.38048      1.723     4.17    -3.047671     19.84636      49.3669         7     1.032     0.776 -89.05   0
       170    241.3231    255.6029 300.2099165 +22.4978964     3236.773     70.25501      1.949     4.14    -2.536926     19.84636     260.8247        36     1.536     1.346  86.32   0
       171     26.1971    250.5661 300.1447189 +22.4318979     844.2269     70.34466      2.335     3.55    -3.014529     19.84636      68.5279        11     1.019     0.880   4.30   2
       172    885.2094    236.7656 300.4164437 +22.6855311       1864.9     70.32674      1.815     4.06    -2.449332     19.84636      159.372        30     1.342     1.304  84.84   0
       173    988.5702    235.4359 300.4490990 +22.7161136     1544.991     70.36257      1.808     4.10    -2.382517     19.84636     125.5926        22     1.255     1.160 -18.26   0
       174    486.2451    219.4716 300.2978139 +22.5609817     1035.292     70.30881      2.138     5.26    -2.482948     19.84636     79.18434        24     1.554     1.286 -48.24   0
       175    260.1924    199.5570 300.2339773 +22.4874697     3412.118     70.36257      1.997     4.26    -2.388183     19.84636      265.715        42     1.523     1.474  79.85   0
       176    111.8779    199.8380 300.1877983 +22.4430549     316.8679     70.32674      1.441     3.89      -2.5343     19.84636     43.85647         6     0.941     0.460 -53.36   0
       177    506.1199    184.7447 300.3152717 +22.5569668     3607.056     70.38048      2.118     4.63    -2.542704     19.84636     222.4156        38     1.546     1.471   5.61   0
       178    391.9216    185.4059 300.2795300 +22.5229151     340.4087     70.27295      1.686     3.96    -2.554768     19.84636     36.28806         6     1.359     0.330 -43.47   0
       179    759.0580    174.7121 300.3972805 +22.6298974     464.8538     70.41629      2.288     4.58    -2.253719     19.84636     35.35476         6     1.345     0.443  -4.28   0
       180    634.4526    164.6821 300.3617296 +22.5896729     3493.523     70.38048      2.036     4.82    -2.207671     19.84636     218.8096        37     1.487     1.454  50.23   0
       181    409.6126    163.8060 300.2920437 +22.5220173     945.7604     70.21912      1.976     5.15    -2.555405     19.84636      66.9865        19     1.372     1.208 -63.19   0
       182    676.3253    162.2317 300.3755633 +22.6015183     470.1953     70.34466      1.813     4.50     -2.33836     19.84636     42.25047         8     1.259     0.621 -64.14   0
       183    158.8139    157.0040 300.2162834 +22.4448436     249.5838     70.20116      1.234     3.92    -2.022381     19.84636     31.44171         5     0.847     0.520 -28.98   0
       184    678.6039    149.7072 300.3803381 +22.5986022     1427.997     70.23707      1.902     4.73    -2.234572     19.84636     95.70732        27     1.415     1.304   4.46   0
       185    694.2575    148.6005 300.3855722 +22.6029752     467.3624     70.29088      2.024     3.80    -2.212896     19.84636     36.05745         5     0.955     0.434 -15.51   0
       186    765.0123    141.3100 300.4099773 +22.6220816     799.0067     70.29088      1.715     4.88    -2.204745     19.84636     68.18128        17     1.310     1.123 -82.41   0
       187    508.7767    133.2776 300.3328035 +22.5429797     548.8842     70.32674      2.331     7.55    -2.261315     19.84636      38.2532        11     1.502     1.062  83.06   0
       188    184.1069    122.1773 300.2354450 +22.4424341     2114.181     70.27295      1.844     3.77    -2.065364     19.84636     167.1653        28     1.329     1.242  41.31   0
       189    744.6567    114.0991 300.4124674 +22.6081616     542.3429     70.43419      2.361     5.39    -2.113767     19.84636     43.65521         7     1.303     0.629 -81.48   2
       190    300.2443    114.8345 300.2739261 +22.4751583     536.1804     70.39838      1.725     4.00     -2.18277     19.84636     52.68127        10     1.095     0.754  10.94   0
       191    803.0770    105.5101 300.4334552 +22.6231955     1166.042     70.48785      1.858     4.61    -2.125055     19.84636     87.61525        22     1.320     1.195  17.98   0
       192    187.1643    101.7672 300.2430181 +22.4374921     466.8176     70.36257      1.446     3.96    -2.072889     19.84636     40.29411         6     0.813     0.553 -47.59   0
       193    977.6581     99.2277 300.4899109 +22.6736804     365.1714     70.34466      1.975     3.44    -2.493137     19.84636      31.7611         5     0.761     0.450 -75.83   0
       194    751.7299     98.2791 300.4198046 +22.6057337     583.7555     70.45208      1.792     5.99    -2.080095     19.84636     43.50103        12     1.251     0.806 -44.87   0
       195    603.9679     83.2539 300.3786649 +22.5571392     433.6387     70.36257      1.797     5.69    -1.674258     19.84636     43.17711        10     1.188     0.810  -7.70   0
       196    213.9717     81.7325 300.2578496 +22.4397806     438.0399     70.32674      2.018     4.30    -2.164468     19.84636     26.50524         5     1.026     0.514  37.62   0
       197    767.7879     78.0496 300.4313714 +22.6047297     412.7886     70.38048      1.829     3.78    -1.950319     19.84636     33.06638         5     0.832     0.494 -28.79   0
       198    575.5611     76.1880 300.3721147 +22.5465956     951.9941     70.34466      1.962     5.43    -1.732904     19.84636      76.4338        20     1.395     1.216  -4.97   0
       199    299.3126     74.0506 300.2868699 +22.4631677     370.9393     70.34466      1.982     4.44    -2.167733     19.84636     34.43069         6     1.071     0.523 -40.15   0
       200    533.0265     70.1329 300.3608405 +22.5321077     613.1763     70.32674      1.839     5.95    -1.864501     19.84636     48.06054        14     1.338     1.142 -26.22   0
       201    638.6057     67.0217 300.3947159 +22.5628546     609.3764     70.32674      1.712     4.40     -1.59238     19.84636     56.42819        10     1.207     0.771 -10.82   0
       202    459.0367     60.5419 300.3409289 +22.5071746     1287.074     70.34466      1.948     4.55    -2.012897     19.84636      89.6814        29     1.447     1.362  -5.91   0
       203    106.1938     58.5914 300.2318691 +22.4008103     734.7236     70.20116      1.698     5.27    -1.692099     19.84636     75.46183        17     1.208     1.012  53.06   0
       204    167.0484     40.1019 300.2567739 +22.4137551     767.7759     70.38048      1.949     4.15    -2.218362     19.84636     74.21337        12     1.209     0.982 -84.09   0
       205    768.3931   1018.4568 300.1258135 +22.8749518     683.5224     70.34466      1.460     2.84    -5.490401     19.84636     77.87447        12     0.907     0.793  34.41  16
       206    743.9218     20.2304 300.4426954 +22.5809588     640.0703     70.32674      2.024     3.98    -1.406447     19.84636     47.25297         7     1.147     0.517  -7.75   2
       207    925.0796   1016.6201 300.1752342 +22.9214500     204.3587     70.34466      1.220     4.35    -5.362265     19.84636     41.24668         5     1.202     0.448  30.37  16
