#   1 NUMBER                 Running object number                                     
#   2 X_IMAGE                Object position along x                                    [pixel]
#   3 Y_IMAGE                Object position along y                                    [pixel]
#   4 ALPHA_J2000            Right ascension of barycenter (J2000)                      [deg]
#   5 DELTA_J2000            Declination of barycenter (J2000)                          [deg]
#   6 FLUX_APER              Flux vector within fixed circular aperture(s)              [count]
#   7 FLUXERR_APER           RMS error vector for aperture flux(es)                     [count]
#   8 FLUX_RADIUS            Fraction-of-light radii                                    [pixel]
#   9 FWHM_IMAGE             FWHM assuming a gaussian core                              [pixel]
#  10 BACKGROUND             Background at centroid position                            [count]
#  11 THRESHOLD              Detection threshold above background                       [count]
#  12 FLUX_MAX               Peak flux above background                                 [count]
#  13 ISOAREA_IMAGE          Isophotal area above Analysis threshold                    [pixel**2]
#  14 A_IMAGE                Profile RMS along major axis                               [pixel]
#  15 B_IMAGE                Profile RMS along minor axis                               [pixel]
#  16 THETA_IMAGE            Position angle (CCW/x)                                     [deg]
#  17 FLAGS                  Extraction flags                                          
         1    632.9457     16.8101 300.3947817 +22.5626793     795.7876     70.00468      1.484     4.21    -2.425534     19.75045     80.00407        15     1.179     0.927  38.63   0
         2    228.3552     16.0613 300.2691564 +22.4412081     402.0558     70.04033      1.574     4.88    -2.464561     19.75045     39.42561         9     1.132     0.597  74.32   0
         3    453.2268     10.7700 300.3408030 +22.5070940     1184.102     70.00468      1.510     3.46    -2.113984     19.75045     125.4397        20     1.157     1.028 -72.09   0
         4    100.6180      8.5191 300.2319095 +22.4007399     781.0151     70.00468      1.385     2.74    -2.483102     19.75045     106.1448        14     1.034     0.830 -49.32   0
         5    173.5342   1016.4742 299.9269633 +22.7117050      757.715     70.05815      3.007     4.36     8.120249     19.75045     30.32686         6     1.556     0.347 -53.89  16
         6    659.8631   1021.9042 300.0764523 +22.8593249     3993.069     63.26065      1.171     2.01    -5.558321     19.75045     739.1522        22     0.943     0.862  59.15  24
         7    242.8900   1019.3766 299.9475691 +22.7333754      1392.21     69.93332      4.876     9.05   -0.1154124     19.75045     72.05129        16     1.865     1.226  47.07  26
         8    150.7540   1023.5718 299.9175745 +22.7068931     643.9821      55.0524      2.869     5.30     11.04414     19.75045     40.26598         8     1.249     0.636   8.45  25
         9    126.4982   1016.7619 299.9122577 +22.6976533     1061.567     70.00468      5.085     6.01     9.948273     19.75045     30.97206         8     1.343     0.755 -57.51  19
        10    131.9744   1020.7004 299.9126760 +22.7004272     1244.703     67.51765      4.777     8.83     10.59078     19.75045      44.8607        17     2.074     1.051 -70.05  26
        11    108.1574   1009.9178 299.9087900 +22.6901812     1610.293       69.969     17.412    28.78     8.824591     19.75045     47.93747        94     6.715     3.426  80.82  19
        12     76.0773    994.7526 299.9037656 +22.6761964     1909.715     70.00468     18.901    34.52     2.594882     19.75045     57.05476       187    10.804     3.062 -29.48  19
        13     80.9234    983.7682 299.9088477 +22.6745064     2063.143     70.00468     10.052    19.22     2.132054     19.75045     46.07493        84     3.294     3.115  85.20   3
        14     87.8619    976.6786 299.9133112 +22.6745606     2091.952     70.07597     10.167    22.64     2.198213     19.75045     52.93159       105     5.597     2.544 -14.30   3
        15     88.2431   1016.0643 299.9006031 +22.6859570     3210.685     70.00468     17.376    42.83     7.723085     19.75045     70.01385       475     8.600     5.921  82.06  27
        16     68.0512   1022.9960 299.8920748 +22.6818740     1089.022     58.11869      5.268     9.96     3.683958     19.75045      52.4136        21     3.330     0.830 -53.09  27
        17     58.7864   1022.5823 299.8893326 +22.6789709     863.8162     60.14522      7.046     8.64     1.420111     19.75045     39.44361        11     1.699     1.227  67.45  27
        18    229.8773   1022.8849 299.9423825 +22.7304710     825.8484     58.73824      6.237     7.75     1.672759     19.75045     40.67412        15     1.683     0.999  -5.95  25
        19    811.5901   1015.2535 300.1258751 +22.9029573      257.577     70.00468      1.183     3.45    -5.337749     19.75045     30.54879         5     0.725     0.475 -76.51   0
        20     72.0577   1023.6937 299.8930918 +22.6832779     817.6744     54.36792      6.049     7.93     4.790576     19.75045     45.37587        14     1.822     0.966  -5.18  27
        21    568.3097   1012.4155 300.0510434 +22.8291178     887.6387     69.93332      1.072     2.26     -5.69526     19.75045     132.4221        12     0.954     0.682 -88.25   0
        22    235.4254   1012.6750 299.9474320 +22.7292125     622.6533     70.02251      5.157     4.43    0.4578171     19.75045     35.39341         5     0.915     0.611  38.48   1
        23    119.8418   1007.3987 299.9132396 +22.6929708     1474.331     70.00468      9.699    11.38     8.322071     19.75045     43.13038        26     2.636     1.367 -64.10  19
        24     88.8508    989.3988 299.9094760 +22.6785016     2074.293     69.98685     13.740    17.76     4.062163     19.75045     59.10889        80     4.053     2.163 -68.72   3
        25    392.8840   1007.3004 299.9981331 +22.7749720     3775.371     70.16497      1.116     1.82    -5.487733     19.75045     758.2322        24     0.972     0.837 -71.66   0
        26    462.1894   1009.2084 300.0190681 +22.7963331     536.1486     69.89761      1.079     2.00    -5.610446     19.75045     117.7769         9     0.808     0.616 -69.00   0
        27    109.1740    997.0524 299.9132956 +22.6868013     692.7471     70.02251      7.172     7.45     6.689939     19.75045     31.90161         8     1.856     0.836 -72.93   1
        28    100.5062    994.7487 299.9113537 +22.6835366     1318.053     70.07597      7.789     8.50     6.362634     19.75045     64.99625        25     2.209     1.107 -57.70   1
        29    425.6172    994.4269 300.0125063 +22.7811127     300.8682     70.02251      1.117     2.45    -5.506607     19.75045     57.67824         7     0.861     0.538  59.25   0
        30     66.7357   1018.4100 299.8931599 +22.6801651     1380.159       69.969      7.508     9.87     2.994474     19.75045       46.652        13     2.271     1.195 -32.80  19
        31    261.3132    981.4641 299.9656424 +22.7280465     789.9963     70.09377      0.750     1.20    -3.379727     19.75045     354.8405         5     0.570     0.431 -62.53   0
        32    621.7775    980.4015 300.0781130 +22.8359894     187.6137     69.95116      1.250     3.55    -5.641795     19.75045     35.65062         5     0.782     0.466 -14.06   0
        33    727.3884    973.8893 300.1131186 +22.8658214     449.0251     69.95116      1.649     3.68    -5.512883     19.75045     46.17082         8     0.983     0.609 -72.18   0
        34    939.0644    985.6428 300.1752473 +22.9327094     1360.657     69.98685      1.065     1.61    -6.485255     19.75045     283.1911        13     0.814     0.728  58.60   0
        35    539.9650    970.0128 300.0560324 +22.8084491     357.7061     69.98684      1.263     4.00    -5.641171     19.75045     47.62077         7     0.916     0.501  47.99   0
        36    762.8481    968.8273 300.1258119 +22.8750110     528.6387     70.02251      1.102     2.16    -5.441734     19.75045     113.2222         9     0.738     0.718  78.91   0
        37    784.9138    962.5005 300.1347461 +22.8798175     6648.131     70.16497      1.030     1.71    -5.381532     19.75045     1267.166        31     0.947     0.888 -89.26   0
        38    976.4567    961.9088 300.1946348 +22.9371146     383.9408     70.05815      1.471     2.25    -6.249539     19.75045     76.17733         7     0.927     0.531 -15.65   0
        39    830.6660    962.1110 300.1491274 +22.8934345     115.1858     70.11158      1.028     2.94    -5.337749     19.75045     39.58549         7     0.726     0.661 -86.17   0
        40     96.1198    954.5182 299.9230918 +22.6706939     380.2144     70.14718      1.160     3.08   -0.3068564     19.75045     60.78547         6     0.798     0.595 -34.41   0
        41    489.9252    950.8462 300.0467036 +22.7879292     205.3818     70.00468      1.095     2.98    -5.656079     19.75045     49.08867         7     0.910     0.567 -75.73   0
        42    836.3953    949.9507 300.1548728 +22.8916643     182.0865     69.98685      1.074     2.82    -5.337749     19.75045      58.7857         5     0.822     0.490  42.94   0
        43    793.4109    944.5427 300.1432413 +22.8772150     731.7593     69.96901      0.979     1.87     -5.35964     19.75045     123.9532         7     0.720     0.538 -59.58   0
        44    645.5251    941.9949 300.0980135 +22.8321023     378.0159     69.93332      1.444     3.70    -5.557495     19.75045     34.34573         6     0.802     0.490 -81.35   0
        45    831.5236    937.9295 300.1572695 +22.8867531     326.8896     70.11158      0.974     1.95    -5.337749     19.75045     83.49811         6     0.710     0.496 -83.51   0
        46    940.2340    934.6568 300.1922167 +22.9184272     333.7576     70.02251      1.338     2.99    -5.882061     19.75045     46.53239         7     0.828     0.617 -84.92   0
        47    879.8383    929.2362 300.1751564 +22.8987537     312.7213     70.07597      1.041     3.28    -5.441587     19.75045     71.13832        13     1.045     0.901  77.50   0
        48    731.4839    928.2903 300.1292434 +22.8539691     524.2946     70.14718      1.241     2.59     -5.50947     19.75045     84.26533         6     0.808     0.506  50.35   0
        49    444.0576    924.9011 300.0408825 +22.7667180      2391.15     70.09377      1.143     2.01     -5.52049     19.75045     449.0293        16     0.874     0.786  61.27   0
        50    105.9809    913.3426 299.9395605 +22.6618602     119.1628     69.98685      1.217     3.84     -4.61829     19.75045     27.36907         5     0.891     0.475   0.50   0
        51    169.0983    910.8369 299.9599833 +22.6801051     478.0226     70.00468      1.179     2.28    -4.386469     19.75045     65.69444         8     0.777     0.637  55.90   0
        52     77.3991    909.1239 299.9320570 +22.6520637      266.228     69.89761      1.092     3.37    -4.833736     19.75045      38.5378         5     0.750     0.439  69.04   0
        53    146.5304    907.8741 299.9539366 +22.6724762     1000.944     70.07597      1.139     1.97    -4.431371     19.75045     164.7943        12     0.837     0.722  -3.39   0
        54   1017.9838    896.3547 300.2289305 +22.9307519     1193.244     70.02251      1.034     1.72    -5.557636     19.75045     264.8881        13     0.829     0.713 -77.76   0
        55    972.1791    894.8026 300.2151531 +22.9165690     1235.214     69.95116      1.133     1.65    -5.527256     19.75045     276.6071        15     0.924     0.766  78.80   0
        56    934.6702    894.6542 300.2035075 +22.9052763     597.2665     70.04033      0.774     1.32    -5.514227     19.75045     156.1346         5     0.574     0.475   5.46   0
        57    936.8783    889.4229 300.2058991 +22.9044370     6752.829       69.969      0.808     1.62     -5.46413     19.75045     2872.396        10     0.783     0.396 -49.30   0
        58    178.3608    889.2006 299.9699046 +22.6766874     223.6979     70.02251      1.080     3.43    -4.560832     19.75045     34.05805         5     0.736     0.463  77.26   0
        59    755.8322    888.2677 300.1498582 +22.8497923     394.2093     70.00468      1.171     3.33    -5.352378     19.75045     79.71161         7     0.946     0.587  88.93   0
        60    623.9668    882.8857 300.1105471 +22.8086767     2900.698       69.969      1.177     1.84    -5.300444     19.75045      576.726        24     0.986     0.891  84.34   0
        61    113.6857    883.7257 299.9515949 +22.6556891     304.2265     70.11158      1.234     2.09    -4.803973     19.75045     59.00352         5     0.686     0.452  77.98   0
        62    425.9606    880.2863 300.0497783 +22.7484921     263.4495     69.98685      1.092     2.03    -5.336854     19.75045      59.6601         7     0.705     0.608  19.78   0
        63    174.1552    877.0549 299.9725516 +22.6719434     725.2062     70.04033      1.093     2.03      -4.5913     19.75045     143.6194        10     0.809     0.674  89.51   0
        64    644.5287    875.1000 300.1194832 +22.8126143     476.4625     70.16497      1.139     1.77    -5.284818     19.75045     82.20899         6     0.694     0.497  84.87   0
        65    193.0077    874.0232 299.9793961 +22.6767377     340.1363     70.00468      1.437     3.68    -4.789375     19.75045     46.30231         6     0.993     0.529  14.77   0
        66    799.7882    862.4938 300.1719422 +22.8555844     2569.521     69.95116      1.099     1.88    -5.276038     19.75045      423.086        20     1.012     0.853  34.06   0
        67   1016.8019    862.5919 300.2395540 +22.9207040      557.066     69.82614      1.012     2.00    -5.121041     19.75045     116.0223         9     0.779     0.647 -76.73   0
        68    208.7859    857.2070 299.9897725 +22.6766574     359.7437     69.89761      1.201     3.58    -5.040061     19.75045       43.605         7     0.966     0.563 -71.55   0
        69    516.8726    855.3738 300.0861709 +22.7686408     411.7752     70.00468      1.639     2.91    -5.136945     19.75045      58.9842         6     0.884     0.530 -63.04   0
        70    163.3801    853.3929 299.9769056 +22.6619256     605.9844     69.96901      1.065     2.03    -4.605988     19.75045     105.4344         9     0.836     0.599  81.49   0
        71    578.5852    848.3947 300.1076482 +22.7851623     368.8606     69.87975      1.118     3.09     -5.04494     19.75045     55.22518         6     0.826     0.511  49.45   0
        72    313.0754    845.4165 300.0260251 +22.7045986     31471.06     70.00468      1.216     2.09     -5.26821     19.75045     4642.722        65     1.147     1.078  84.54   0
        73    570.9003    844.3230 300.1065816 +22.7816878     980.7604     70.14718      1.279     2.21    -5.040002     19.75045     143.9329        15     0.903     0.848  12.18   0
        74    241.4119    843.8416 300.0042617 +22.6826256     194.7606     70.00468      1.099     3.70    -5.225913     19.75045     47.26492         6     0.809     0.487  83.43   0
        75    983.6165    843.2716 300.2354952 +22.9052053     572.0463     70.00468      0.972     2.16    -5.172504     19.75045     103.1827         5     0.669     0.473 -76.02   0
        76    599.9243    840.3132 300.1169209 +22.7892485     394.2811     70.12938      1.147     2.43    -4.921853     19.75045     86.98423         9     0.896     0.613  52.46   0
        77    610.9626    838.9122 300.1208131 +22.7921593     220.5203     69.98684      0.964     2.16    -4.890985     19.75045     66.17429         5     0.623     0.549 -87.84   0
        78    716.1097    834.6016 300.1549557 +22.8224747     333.7573     69.93332      1.531     2.93    -5.196038     19.75045     37.82275         6     0.792     0.486   5.14   0
        79    753.8464    825.3308 300.1697270 +22.8311363      415.323     69.98685      1.096     3.07    -5.179587     19.75045     84.08878        10     1.037     0.602  79.71   0
        80    362.7528    822.6310 300.0488868 +22.7129824     18377.59     70.04033      1.215     2.10    -5.232078     19.75045     2862.032        44     1.097     1.018  59.99   0
        81    376.9815    823.2301 300.0531166 +22.7174263     1186.964     69.98685      1.225     2.32    -5.211274     19.75045     184.4315        14     0.916     0.803  60.99   0
        82    885.6575    818.2010 300.2131178 +22.8686294       1556.6     69.95116      1.101     1.91    -5.249499     19.75045     278.5546        16     0.866     0.841 -80.18   0
        83    643.5641    814.3906 300.1389437 +22.7949076      454.247     70.00468      1.019     2.37    -4.866505     19.75045     78.58627        10     0.927     0.625  36.70   0
        84    245.2369    814.5091 300.0149968 +22.6753660      517.464     69.98685      1.180     3.02    -5.252852     19.75045     67.84199        10     0.846     0.805 -66.56   0
        85    490.7827    809.3422 300.0930350 +22.7476067     599.5333     70.00468      1.244     2.62    -5.031765     19.75045     75.86804        10     0.916     0.679  48.58   0
        86     50.3451    809.8812 299.9559566 +22.6155002     278.1441     70.04033      1.358     3.68    -5.062166     19.75045     40.68922         8     1.018     0.562 -68.27   0
        87    891.8590    806.0165 300.2190164 +22.8669916     389.4461       69.969      1.325     2.54    -5.231534     19.75045     48.92226         5     0.620     0.580   2.76   0
        88     77.1811    804.6962 299.9659778 +22.6220763     850.4608     69.91547      0.542     1.91    -4.970288     19.75045     503.3964         5     0.859     0.134 -57.90   0
        89    869.4531    800.7990 300.2137312 +22.8587738     196.3654       69.969      1.058     2.15    -5.267984     19.75045     59.92367         5     0.674     0.486 -76.78   0
        90    242.9109    798.9103 300.0193500 +22.6701958     276.6396     70.16497      1.155     2.58     -5.26063     19.75045     52.46376         5     0.755     0.506 -36.01   0
        91    566.0032    788.7475 300.1231448 +22.7642754     266.4745     70.00468      1.142     3.02    -4.778284     19.75045     43.35223         5     0.800     0.543 -89.60   0
        92    535.8740    787.4402 300.1141934 +22.7548581       509.21     69.98685      1.374     2.70    -4.911785     19.75045     60.58259        10     0.915     0.704  89.88   0
        93    445.1827    786.4231 300.0863070 +22.7273454     140.4382       69.969      0.952     3.44    -4.987897     19.75045     31.04824         5     0.761     0.449  19.71   0
        94    952.0237    783.4930 300.2451014 +22.8785679     2650.155     69.93332      1.083     1.89    -5.031421     19.75045     473.3864        18     0.916     0.801  86.38   0
        95    557.5754    784.6789 300.1218457 +22.7605789     743.9294     69.98685      1.138     2.23     -4.81269     19.75045     117.4827        11     0.841     0.740  25.83   0
        96    940.4578    774.8706 300.2443016 +22.8726239     981.6959     70.02251      1.103     1.83      -4.9221     19.75045     176.2278        13     0.938     0.724  74.97   0
        97    303.6756    769.0991 300.0479384 +22.6798951     521.3121     70.12938      1.214     2.57    -5.243568     19.75045     89.59009        11     0.991     0.677  63.51   0
        98    767.0111    766.3637 300.1930180 +22.8181620       1483.1     70.00468      1.318     2.57    -5.118186     19.75045     207.5787        19     1.307     0.908   4.88   0
        99    971.5499    764.9574 300.2572212 +22.8791006     1151.161     70.04033      1.316     1.99    -5.019033     19.75045     161.6242        16     0.936     0.917 -47.23   0
       100    152.7399    753.0900 300.0062393 +22.6299810       323.16     70.09377      1.302     3.01    -4.855799     19.75045     48.41696         7     0.840     0.584  62.69   0
       101    848.9368    752.1757 300.2231604 +22.8386620      349.084     69.98685      1.332     3.32     -5.14311     19.75045     52.15678         7     0.791     0.709 -89.01   0
       102    885.2801    743.1874 300.2374115 +22.8469807     86026.46     69.98685      1.176     2.02    -4.940587     19.75045     14179.06       100     1.184     1.090  67.66   0
       103    737.7660    743.6779 300.1912898 +22.8028780     453.8709     69.95116      1.211     3.00    -5.131614     19.75045     68.85587         9     0.899     0.728 -52.63   0
       104    918.2382    736.0874 300.2499947 +22.8548252     140.2472     69.98685      1.035     2.11    -4.569682     19.75045     51.85047         5     0.724     0.472 -34.57   0
       105    571.7549    732.2045 300.1433329 +22.7497789     894.7979     70.00468      1.267     2.39    -4.515453     19.75045     127.8276        14     0.931     0.830  -9.80   0
       106    752.8096    729.3879 300.2006251 +22.8032889     5496.865     69.89761      1.232     2.22     -5.06623     19.75045     780.4339        29     1.031     0.976  78.93   0
       107    254.4689    724.8704 300.0470319 +22.6524390     2847.149     70.04033      1.242     2.12    -5.107463     19.75045     439.6691        23     1.059     0.939  61.46   0
       108    336.4524    722.8988 300.0731598 +22.6764873     743.3037     70.09377      1.368     2.75    -4.964963     19.75045     93.66659        11     0.981     0.718 -76.38   0
       109    544.9636    718.1346 300.1395719 +22.7377027     394.3317     70.00468      1.156     2.53    -4.560675     19.75045      62.8782         7     0.835     0.521 -53.55   0
       110    536.3621    710.4514 300.1393945 +22.7329172     1808.053     70.02251      1.278     2.41    -4.548613     19.75045     242.5663        19     1.011     0.929  28.38   0
       111    526.5895    704.0786 300.1384263 +22.7281562     841.3932     69.98685      1.361     2.83    -4.536551     19.75045     95.89777        14     0.940     0.904 -71.94   0
       112    454.7718    703.6188 300.1162304 +22.7064720     199.9267     70.00468      1.260     4.36    -4.637183     19.75045      26.9972         5     1.174     0.460   8.26   0
       113    920.0218    701.4201 300.2618295 +22.8454053     242.6533     70.00468      1.117     3.79    -4.573821     19.75045     44.97689         6     0.937     0.499 -76.86   0
       114    189.9680    700.6251 300.0348734 +22.6261202     357.9433     70.00468      1.208     3.19     -4.77397     19.75045      50.0681         9     0.891     0.685 -77.54   0
       115    204.3061    698.5344 300.0400089 +22.6298260      305.832     70.12938      1.157     3.06    -4.789492     19.75045     51.09462         7     0.828     0.648 -78.58   0
       116    229.8210    695.7127 300.0488559 +22.6366780     306.2567     69.93332      1.114     2.88    -4.803526     19.75045     49.19736         7     0.807     0.604 -23.58   0
       117    973.3669    694.7841 300.2806194 +22.8594932     274.8199     69.98685      1.129     1.78    -4.709639     19.75045     61.18569         5     0.671     0.448 -69.04   0
       118    550.3953    694.6086 300.1489154 +22.7325823     344.5804     69.86189      1.445     3.59     -4.55335     19.75045     38.83568         6     0.824     0.545  47.91   0
       119    451.3023    694.0238 300.1182722 +22.7026782     1017.818     69.93332      1.291     2.45    -4.634901     19.75045     144.5204        16     0.980     0.887  81.52   0
       120    105.4843    689.0445 300.0123932 +22.5974301     11470.96       69.969      1.258     2.21    -4.518683     19.75045     1659.002        37     1.128     0.993  73.23   0
       121     26.3775    690.6259 299.9873112 +22.5741245     333.6424     69.96901      1.141     3.52    -4.500964     19.75045     47.99408         8     0.925     0.716 -72.13   0
       122    536.2669    689.0161 300.1463376 +22.7267383     545.2433     69.98685      1.291     3.06    -4.548613     19.75045     65.42876        10     0.887     0.723   7.43   0
       123    954.0844    675.1432 300.2809965 +22.8480715     573.8188     70.09377      1.188     2.44    -4.588668     19.75045     106.1333         9     0.845     0.681 -72.06   0
       124    117.5772    674.1667 300.0209884 +22.5967967     254.3113     70.00468      1.344     3.43    -4.521862     19.75045     44.37429         5     1.016     0.335  67.75   0
       125     51.5099    673.3138 300.0007460 +22.5767110     736.1691     70.16497      1.580     4.14    -4.500964     19.75045     80.20052        18     1.390     0.817 -86.15   0
       126    820.6571    673.3636 300.2399881 +22.8075540     239.6876     70.00468      1.169     3.38    -4.775966     19.75045     57.21691         7     0.978     0.521 -44.50   0
       127    499.5440    669.5539 300.1412405 +22.7101348     186.3527     70.04033      1.193     4.31    -4.489777     19.75045     37.93747         8     0.864     0.805  57.44   0
       128    894.4852    667.9914 300.2647437 +22.8281490     445.6704     69.95116      1.168     2.43    -4.657311     19.75045      58.3573         6     0.752     0.500 -88.43   0
       129    456.7278    662.1503 300.1303272 +22.6951623     420.4283     70.00468      1.355     4.01    -4.507503     19.75045     48.66167         8     0.943     0.625 -70.55   0
       130    604.2554    660.8835 300.1766497 +22.7390640     232.3569     70.09377      1.102     2.40    -4.471086     19.75045     45.67615         6     0.725     0.549 -44.90   0
       131    651.6269    659.0185 300.1920045 +22.7527396     211.3745     70.02251      1.182     3.90    -4.472214     19.75045     36.65765         5     0.901     0.484 -89.80   0
       132    622.1801    658.7989 300.1829079 +22.7438430     367.7918     69.93332      1.413     2.53     -4.46832     19.75045     43.89428         6     0.729     0.555 -44.06   0
       133    500.4240    657.8143 300.1453326 +22.7070304     477.7243     70.02251      1.509     4.91    -4.447417     19.75045     60.98634        10     1.089     0.813  26.79   0
       134    934.1622    653.1923 300.2819254 +22.8357945     2056.647     70.02251      1.265     2.24    -4.509682     19.75045     297.3124        17     0.932     0.872 -88.40   0
       135    466.3003    653.4015 300.1361506 +22.6955248     1109.934     69.87975      1.356     2.69    -4.445704     19.75045     131.1493        17     1.072     0.921 -74.34   0
       136     28.2504    647.3180 300.0019773 +22.5622739     2876.457     70.02251      1.226     2.28     -4.50201     19.75045     396.4828        25     1.057     0.965  81.27   0
       137    329.5657    640.2695 300.0978942 +22.6507212      5258.33     70.00468      1.340     2.46    -4.312547     19.75045     689.2117        29     1.122     1.016  73.33   0
       138    452.0013    637.2288 300.1369618 +22.6865938     5171.686       69.969      1.402     2.69    -4.402215     19.75045     586.7961        29     1.157     1.021  63.46   0
       139    863.5109    630.9279 300.2671445 +22.8082184     1201.937     70.16497      1.284     2.35    -4.528508     19.75045     163.9118        16     1.003     0.838 -87.86   0
       140    948.1309    628.3285 300.2943669 +22.8328408     7087.917     70.07597      1.238     2.19    -4.434013     19.75045     1065.248        31     1.029     0.979  75.65   0
       141    512.5296    626.7698 300.1591955 +22.7017547     6769.514     70.00468      1.419     2.62    -4.345859     19.75045     868.0726        35     1.208     1.074  72.66   0
       142    240.0672    622.4703 300.0758602 +22.6187510     772.3121     70.04033      1.290     2.36    -4.240321     19.75045     101.6529        12     0.908     0.752  84.28   0
       143    681.8301    622.2610 300.2133637 +22.7512480      360.468     70.04033      1.434     4.23    -4.449451     19.75045     42.91691         6     1.236     0.414  31.78   0
       144    444.2556    614.9744 300.1417890 +22.6778843      2383.54     70.00468      1.340     2.64     -4.29965     19.75045     281.3458        23     1.074     1.027  69.91   0
       145    786.8804    614.7979 300.2485118 +22.7806095     584.9695     69.91547      1.577     2.67    -4.437664     19.75045     70.31824        11     0.892     0.804  50.37   0
       146    422.5834    613.7037 300.1354607 +22.6710164     676.2491     69.91547      1.337     2.67    -4.300063     19.75045     83.08663        12     0.966     0.752  24.22   0
       147    177.0063    612.5555 300.0594871 +22.5969761     362.7887     70.02251      1.396     4.80    -4.374232     19.75045     55.61484         8     1.142     0.607  71.53   0
       148    863.7626    610.1832 300.2739692 +22.8023364     854.9904     70.00468      1.330     2.57    -4.404779     19.75045     109.9461        15     1.043     0.818 -64.52   0
       149    560.7891    602.5099 300.1821032 +22.7092711     115819.6     69.95116      1.434     2.71    -4.271163     19.75045     14042.88       143     1.376     1.347 -55.87   0
       150    384.2229    608.7598 300.1251370 +22.6580864     184.8926     70.04033      1.173     3.84    -4.220551     19.75045     23.55124         5     0.950     0.446 -45.38   0
       151    744.3666    607.3431 300.2376920 +22.7657203     503.6707     70.02251      1.250     2.70    -4.420459     19.75045     63.84686         9     0.910     0.635  82.80   0
       152    247.0300    602.7344 300.0844416 +22.6151809     1955.038     70.02251      1.364     2.65    -4.130511     19.75045     253.3331        22     1.171     0.946  66.47   0
       153    812.4772    597.8930 300.2619841 +22.7834304     295.6322     70.14718      1.429     5.11    -4.362852     19.75045     36.17456         7     1.154     0.640  52.23   0
       154    451.3721    583.2006 300.1543342 +22.6709027     1592.818       69.969      1.574     2.97    -4.093602     19.75045     188.9332        23     1.458     0.977  86.44   0
       155    848.1525    568.8467 300.2825455 +22.7857847     962.0466     70.02251      1.276     2.55    -4.232413     19.75045     131.6997        14     0.960     0.840 -71.38   0
       156    719.6203    566.6245 300.2432237 +22.7466082     1428.489     70.00468      1.361     2.56    -4.065979     19.75045     177.0668        19     1.177     0.862  87.65   0
       157    624.8671    563.4003 300.2147660 +22.7172660     294.9988     69.95116      1.374     2.93    -3.861285     19.75045      34.4784         5     0.726     0.455 -18.80   0
       158    506.9826    563.0070 300.1782019 +22.6817920      389.543     69.95116      1.527     3.95    -3.905934     19.75045     43.17841         7     0.902     0.516 -41.93   0
       159    976.7544    560.3585 300.3253936 +22.8218953     703.0895     70.05815      1.139     2.38    -4.345268     19.75045     107.4686        10     0.827     0.731  72.87   0
       160    962.2047    559.4730 300.3211449 +22.8172801     467.5806     69.95116      1.534     2.93    -4.347276     19.75045     63.11525         8     0.933     0.580  69.49   0
       161    848.6966    558.9517 300.2859321 +22.7831059     1266.938     70.04033      1.484     4.72    -4.189564     19.75045     128.4511        17     1.321     0.907  78.81   0
       162    602.1142    557.1367 300.2097190 +22.7086436    -67.19583     70.09377      1.496     3.93    -3.831785     19.75045     30.11374         6     0.766     0.577  46.14   0
       163    440.4716    555.5728 300.1599253 +22.6597042     276.8127     69.98685      1.351     3.95    -3.935531     19.75045     36.38609         5     1.032     0.433 -74.58   0
       164    886.6422    554.0035 300.2993672 +22.7930598     2388.945     70.02251      1.235     2.31    -4.216335     19.75045     350.0432        18     0.962     0.879  78.91   0
       165    119.0745    544.5406 300.0636006 +22.5600797     593.7825     70.05815      1.300     2.88    -4.032952     19.75045     94.50237        10     0.981     0.680  50.47   0
       166    978.5347    544.2341 300.3311911 +22.8177963     463.8151     70.00468      1.237     2.60     -4.32922     19.75045     62.05304        10     0.882     0.705  -9.49   0
       167    719.1489    528.6827 300.2554117 +22.7355723     239.6286     70.02251      1.102     3.46    -3.732848     19.75045     37.53596         5     0.784     0.442 -12.89   0
       168    660.4389    524.4907 300.2384907 +22.7167635     464.8769     70.00468      1.424     3.44    -3.461663     19.75045     61.20479         9     1.013     0.624  87.13   0
       169    974.5973    516.4939 300.3389813 +22.8086462     281.0195     69.91547      1.235     3.35    -3.950761     19.75045     50.55534         7     0.833     0.679 -67.21   0
       170    720.9583    516.7245 300.2598624 +22.7326809      531.894     69.98685      1.533     3.36    -3.644405     19.75045     51.97993        10     0.914     0.804 -24.20   0
       171    878.0930    512.9703 300.3100419 +22.7787103     574.8208     69.95116      1.286     2.84    -3.922458     19.75045     77.33977         9     0.903     0.658 -76.88   0
       172    862.2841    509.2589 300.3063212 +22.7729055     362.5066     70.11158      1.219     2.64    -3.900386     19.75045     62.82747         7     0.824     0.590 -21.45   0
       173    606.7595    507.5509 300.2272840 +22.6958019      1743.06     70.02251      1.425     2.92     -3.47999     19.75045     207.4059        17     1.005     0.951  35.72   0
       174    967.3696    506.1463 300.3400913 +22.8035071     335.1834     70.02251      1.241     2.60    -3.819084     19.75045     57.52109         5     0.907     0.347  -4.43   0
       175     83.4705    498.6393 300.0674602 +22.5362278     228.0661     69.96901      1.472     3.39    -3.956513     19.75045     37.29909         5     1.029     0.323  67.06   0
       176   1017.9691    486.0605 300.3623988 +22.8128982     738.5092     70.04033      1.270     2.94    -3.516732     19.75045     106.3582        11     0.958     0.735 -31.18  16
       177    889.9919    485.7349 300.3226033 +22.7744527     326.9894     69.98685      1.173     2.36    -3.691535     19.75045     51.52858         5     0.765     0.466  52.96   0
       178    976.2589    485.0119 300.3497326 +22.8000984      558.217       69.969      1.309     2.75    -3.531029     19.75045     65.13766         9     0.839     0.694 -24.79   0
       179    717.2280    480.9894 300.2703156 +22.7213004     562.8137     70.00468      1.382     3.45    -3.341612     19.75045      66.3252        11     0.979     0.772  59.95   0
       180    221.4207    479.8109 300.1164396 +22.5722350     464.7244     69.98685      1.546     2.83    -3.379429     19.75045     50.96926         8     0.880     0.619 -66.67   0
       181    283.8187    475.5851 300.1372081 +22.5897481     2145.997     69.98685      1.516     2.93    -3.534625     19.75045     253.0746        24     1.162     1.095  85.89   0
       182   1016.6254    473.4849 300.3660671 +22.8088818     2503.486     69.96901      1.240     2.27    -3.449602     19.75045     317.0901        21     1.020     0.922 -64.60   0
       183    231.0010    470.2147 300.1225356 +22.5723572     4438.833     69.86189      1.467     2.83    -3.358803     19.75045     464.1074        33     1.236     1.101  84.65   0
       184    371.6916    464.4850 300.1681381 +22.6129291     2803.607     70.16497      1.508     2.77    -3.276461     19.75045     327.7658        26     1.174     1.084 -76.07   0
       185    996.6548    464.6429 300.3627128 +22.8003569     999.3062     70.00468      1.167     2.45    -3.462538     19.75045     134.3763        14     0.946     0.805  17.74   0
       186    615.8482    461.0305 300.2452328 +22.6851708     10877.49     70.02251      1.498     3.00    -3.327248     19.75045     1047.561        43     1.246     1.200  63.32   0
       187    633.1122    461.8302 300.2503479 +22.6905773     429.4012     69.98685      1.873     4.72    -3.331353     19.75045       33.711         7     1.011     0.626  85.50   0
       188    812.7704    450.8881 300.3098625 +22.7412965     201.4008     70.00468      1.337     5.22    -3.630906     19.75045     30.43672         6     1.032     0.747  77.97   0
       189    949.1877    443.4091 300.3548126 +22.7800319     398.2878     69.89761      1.286     3.50     -3.47754     19.75045     60.76545         7     1.044     0.478   7.01   0
       190    170.6417    441.2853 300.1131785 +22.5459435     1189.316     69.96901      1.440     2.63    -3.503042     19.75045     157.7549        19     1.089     0.992  82.27   0
       191    556.5114    430.4581 300.2366966 +22.6585990     3845.613     70.07597      1.538     2.89    -3.422616     19.75045     445.8542        30     1.214     1.097 -85.69   0
       192    969.9952    430.5312 300.3654851 +22.7825661     680.5877     69.96901      1.281     2.61     -3.46831     19.75045     106.3336        11     0.902     0.783 -71.21   0
       193    271.4346    430.3858 300.1480455 +22.5730633     329.5394     70.00468      1.454     4.58    -3.429102     19.75045     38.01518         7     0.974     0.726  59.02   0
       194    129.3246    423.5233 300.1061125 +22.5284478     265.0367     70.09377      1.012     3.51     -3.48963     19.75045     38.71947         6     0.884     0.466 -86.87   0
       195    760.5240    419.3677 300.3038271 +22.7165813     676.6339     70.00468      1.495     5.08    -3.483908     19.75045      67.1551        13     1.079     0.895  65.81   0
       196    670.2246    420.4225 300.2753593 +22.6898139     341.9731       69.969      1.422     4.21    -3.341404     19.75045     40.22968         6     0.728     0.696  87.29   0
       197    463.2157    416.8005 300.2121019 +22.6266977     3684.683     69.86189      1.546     2.87    -3.418434     19.75045     406.3626        27     1.169     1.112 -76.08   0
       198    952.2388    411.0188 300.3662890 +22.7716383     338.2345     70.02251      1.269     4.58     -3.47064     19.75045     42.39748         7     0.892     0.694  82.95   0
       199    855.0309    410.9169 300.3360204 +22.7424795     841.3801     70.00468      1.438     3.34    -3.511306     19.75045     91.64951        13     1.065     0.811  30.47   0
       200    448.3331    405.9314 300.2110030 +22.6191137     305.4309     70.05815      1.529     2.52    -3.428015     19.75045     50.20036         5     0.787     0.497  33.48   0
       201    827.5637    398.4257 300.3315191 +22.7306588      304.175     70.02251      1.620     3.55    -3.517918     19.75045     43.52005         6     0.920     0.431  17.30   0
       202    350.8778    396.1791 300.1838591 +22.5870816      1353.42     70.00468      1.439     3.07    -3.336596     19.75045     146.5951        21     1.142     0.993  89.01   0
       203     69.2066    393.6556 300.0971413 +22.5018366     631.5807     69.98685      1.385     3.27    -3.556564     19.75045      69.4996        12     1.080     0.757  41.06   0
       204    320.0476    385.5164 300.1777364 +22.5747726     17042.31     70.00468      1.501     2.90    -3.457031     19.75045     1712.556        50     1.295     1.205  83.30   0
       205    854.5377    382.6091 300.3450638 +22.7341982     754.9588     69.95116      1.295     2.72    -3.514185     19.75045     91.42326        12     0.885     0.844  69.40   0
       206     16.4418    373.4932 300.0873045 +22.4802156     2915.002     70.02251      1.422     2.57    -3.569223     19.75045     346.0501        25     1.184     0.981  80.66   0
       207    770.2309    371.6096 300.3223673 +22.7057714     289.6937     70.00468      1.386     3.90    -3.505054     19.75045     47.67007         9     0.925     0.813  87.49   0
       208    194.0996    371.5660 300.1431178 +22.5329810      240.809     69.98685      1.279     3.96    -3.416385     19.75045     35.39562         5     0.912     0.492   4.67   0
       209    730.2645    365.0639 300.3120436 +22.6919118     1090.685     70.04033      1.531     3.52    -3.453441     19.75045      102.139        20     1.227     1.003  62.50   0
       210    945.2211    357.2554 300.3815679 +22.7540846     387.0886     70.02251      1.467     3.93    -3.519177     19.75045     41.64759         6     0.950     0.466  34.60   0
       211    392.3077    349.7695 300.2118196 +22.5861878     1349.277     69.95116      1.681     3.52    -3.537782     19.75045     132.3223        22     1.228     1.070  71.37   0
       212    831.3040    342.2660 300.3509288 +22.7156436     432.4917     70.11158      1.536     3.18    -3.489059     19.75045     45.87097         8     0.891     0.624 -81.71   0
       213    468.1772    329.2399 300.2420892 +22.6030475     615.0516     70.04033      1.323     3.01    -3.279406     19.75045       75.221        11     0.886     0.832 -68.46   0
       214    712.7335    320.9334 300.3209175 +22.6739797     1184.001     70.05815      1.500     3.39    -3.154256     19.75045     108.7295        22     1.231     1.020  50.09   0
       215    974.0213    315.2061 300.4042063 +22.7506264     1762.333     69.98685      1.324     2.50    -3.553324     19.75045     246.8653        21     1.067     0.950  40.58   0
       216    421.4200    305.0984 300.2353833 +22.5820944     415.4544     69.93332      1.507     4.56    -3.128545     19.75045       44.802         9     1.140     0.581 -73.80   0
       217     96.1620    299.2730 300.1361680 +22.4828507     795.3468       69.969      1.572     3.38    -3.332566     19.75045     82.20792        15     1.044     0.982 -62.66   0
       218    127.2284    299.6479 300.1456972 +22.4922802     289.9246     70.02251      1.332     2.72    -3.317968     19.75045     43.15991         5     0.734     0.440 -18.54   0
       219    989.7797    295.0254 300.4156746 +22.7495456     255.6411     70.00468      1.351     4.86    -3.558959     19.75045     29.72793         8     0.857     0.781 -81.17   0
       220    180.1720    291.4858 300.1647976 +22.5058233     382.4929     70.00468      1.529     5.33    -3.313874     19.75045     39.82298         8     1.321     0.608 -27.20   0
       221    974.5927    287.7638 300.4132970 +22.7429090      222.998     70.00468      1.193     3.45    -3.553998     19.75045     35.39228         5     0.801     0.430  69.38   0
       222    375.0361    282.6003 300.2282619 +22.5617248     181.5765     69.98685      1.194     4.08    -3.413809     19.75045     29.21744         5     0.772     0.616 -84.22   0
       223    784.3078    282.1976 300.3557940 +22.6843002     365.0953     69.91547      1.328     3.37    -3.132422     19.75045     45.24554         7     0.908     0.712 -42.05   0
       224    882.4106    271.2794 300.3899115 +22.7105561     1223.447     69.98685      1.467     3.03    -3.282163     19.75045     112.1224        16     1.053     0.906 -85.01   0
       225    301.1263    269.0560 300.2096767 +22.5356695     1229.565     70.02251      1.476     3.23    -3.456794     19.75045     156.6741        19     1.125     0.971  59.55   0
       226    379.0777    264.2650 300.2354724 +22.5576727     569.3429     70.09377      1.581     5.11    -3.344615     19.75045     63.06915        10     0.965     0.765 -81.87   0
       227    196.1071    256.5531 300.1810920 +22.5005789     367.5459     70.02251      1.552     4.77    -3.314646     19.75045     48.79452         8     1.136     0.608  42.97   0
       228    733.6199    252.6413 300.3496005 +22.6606180     964.8504     70.04033      1.551     4.19    -2.884757     19.75045     79.68286        15     1.116     0.921 -84.18   0
       229    798.7220    252.5247 300.3699205 +22.6800922     360.1032     70.11158      1.711     3.38     -3.08971     19.75045     41.92674         5     1.028     0.322  23.00   0
       230    217.7176    249.0683 300.1902383 +22.5049134     320.6571     70.11158      1.359     2.60    -3.325159     19.75045       40.049         7     0.707     0.667  86.43   0
       231   1004.8536    245.1419 300.4365741 +22.7397192     362.4008     70.05815      1.154     3.37    -3.331532     19.75045     66.14675         6     0.722     0.586 -60.39   0
       232    737.8573    244.0098 300.3537231 +22.6594076     495.9423       69.969      1.656     5.51    -2.885498     19.75045     40.60768         9     1.070     0.800  60.71   0
       233    658.0352    243.7763 300.3289383 +22.6354192     555.1567     70.02251      1.400     3.71    -2.879257     19.75045     57.17485        12     0.972     0.866  21.74   0
       234    584.7812    235.7718 300.3087297 +22.6111634     519.4451     70.00468      1.869     3.31    -2.960674     19.75045     52.97905         9     1.040     0.735 -61.66   2
       235    853.4845    234.8635 300.3927201 +22.6914234     833.5098     70.09377      1.507     2.94     -3.02757     19.75045     89.33049        16     1.056     0.906  57.33   0
       236    865.9741    234.0974 300.3968615 +22.6949448     512.9128     69.95116      1.475     2.56    -3.028061     19.75045     57.55052         9     0.771     0.738 -52.37   0
       237    982.1393    224.0397 300.4363422 +22.7268491     743.4793     70.00468      1.460     3.31    -3.221438     19.75045     75.38987        14     1.091     0.820  63.63   0
       238    216.1380    218.0440 300.1998191 +22.4955348     531.6956     70.02251      1.680     3.75    -3.283909     19.75045       69.483        12     1.138     0.841 -33.14   0
       239     78.4515    212.5061 300.1588369 +22.4526404      1251.84     70.07597      1.361     2.52    -3.269701     19.75045     178.6821        18     1.088     0.941  60.53   0
       240    901.8300    209.0784 300.4161605 +22.6984938     517.9112     70.00468      1.462     4.01    -3.052318     19.75045      57.6485        10     1.089     0.752  53.61   0
       241     28.0799    209.2062 300.1442637 +22.4365797     392.8356     69.93332      1.398     3.27    -3.379286     19.75045     50.62142         5     0.952     0.392  61.30   0
       242    235.7989    205.8798 300.2098786 +22.4979402     3322.802     69.89761      1.543     2.87    -3.306262     19.75045     374.6891        26     1.231     1.070  78.59   0
       243     20.2441    200.5117 300.1446525 +22.4317339     741.1353     70.00468      1.360     2.73    -3.391026     19.75045     99.13824        14     1.028     0.815  56.79   0
       244    219.5021    196.4537 300.2078730 +22.4903464     417.9753     70.09377      1.612     3.52    -3.281833     19.75045     38.90596         7     0.851     0.671  72.35   0
       245    983.3676    185.8339 300.4491284 +22.7162317     1495.926     70.07597      1.363     2.83    -2.969829     19.75045     180.8007        18     1.190     0.848 -86.03   0
       246    879.7176    187.0330 300.4164243 +22.6855328     2172.011       69.969      1.455     2.90      -2.9393     19.75045     225.2448        24     1.158     1.072  82.10   0
       247    429.3809    182.2697 300.2777382 +22.5492108     380.1454     70.02251      1.391     3.02    -3.220414     19.75045     40.81909         5     0.729     0.450  71.34   0
       248    352.8579    174.3518 300.2565066 +22.5239934     416.9201     70.05815      1.754     5.12    -3.210775     19.75045     37.33022         9     0.905     0.820  74.88   0
       249    119.6214    171.9435 300.1847917 +22.4533510     464.4172     70.02251      1.656     4.02     -3.08586     19.75045      48.3387         9     1.040     0.802  60.24   0
       250    480.6110    169.5904 300.2977926 +22.5609272      1007.59     69.89761      1.670     3.67     -3.16052     19.75045     99.62727        18     1.223     0.963  83.06   0
       251    224.2034    165.4492 300.2193974 +22.4828561     176.5475     70.00468      1.062     3.42    -3.283985     19.75045     33.59896         5     0.744     0.454  20.17   0
       252    769.3713    158.9456 300.3911546 +22.6444036     235.3132     70.00468      1.623     5.93    -2.817185     19.75045     34.88674         6     1.081     0.916 -65.29   0
       253    254.7695    149.8034 300.2339760 +22.4875313     3520.043       69.969      1.525     2.84    -3.245609     19.75045     422.5497        30     1.216     1.140 -86.29   0
       254    105.7507    149.1966 300.1878648 +22.4426615     477.5152     70.00468      1.329     3.35    -2.901341     19.75045     51.88642         8     0.934     0.622  29.02   0
       255    226.8310    143.6312 300.2272948 +22.4773806     251.4121     70.02251      1.518     4.50    -3.084866     19.75045     38.34402         5     0.932     0.776  89.07   0
       256    500.6525    134.9130 300.3152834 +22.5569735     3668.314     70.04033      1.607     3.18    -3.034093     19.75045     356.5753        32     1.288     1.208  68.40   0
       257    386.1828    135.1234 300.2796023 +22.5227196     366.8105     70.00468      1.209     4.07    -3.178548     19.75045     42.10657         6     1.084     0.436 -62.33   0
       258    753.1451    124.5427 300.3972648 +22.6296541     617.2072     70.05815      1.881     4.70    -2.699071     19.75045     45.62349        11     1.090     0.882  22.98   0
       259    846.0365    122.7692 300.4267847 +22.6569695     300.3521     70.02251      1.577     3.93    -2.642936     19.75045     31.52889         5     0.853     0.520  48.39   0
       260    629.0317    114.8485 300.3617559 +22.5896825     3490.204     70.04033      1.570     3.22    -2.547571     19.75045     317.2405        34     1.293     1.242 -80.54   0
       261    404.0998    114.0449 300.2920153 +22.5220369      855.825     70.02251      1.478     3.08    -3.183302     19.75045     92.24226        16     1.073     0.931  64.15   0
       262    670.1323    112.6112 300.3752803 +22.6013545     585.0214     70.02251      1.598     3.25    -2.657985     19.75045     54.05698         9     0.898     0.660  78.43   0
       263    686.2015    108.1986 300.3817166 +22.6049009     375.0421     69.79037      1.435     3.49    -2.650431     19.75045       34.833         8     0.799     0.695 -35.08   0
       264    152.8500    106.6038 300.2163189 +22.4445630     294.0402     70.00468      1.307     3.87     -2.60123     19.75045     50.98534         7     0.930     0.730  66.37   0
       265    955.9442    105.4422 300.4666690 +22.6849023     426.9221     69.98685      1.524     3.25    -2.469856     19.75045      42.1727         6     0.900     0.521  71.65   0
       266    724.3568    103.9796 300.3949697 +22.6151193     277.7047     70.04033      1.416     4.44    -2.637289     19.75045     30.82351         6     1.220     0.460 -83.13   0
       267    673.2346     99.8628 300.3803832 +22.5986202     1530.977     70.00468      1.527     2.99    -2.624147     19.75045     149.7155        21     1.116     1.050 -85.82   0
       268    688.1271     98.1785 300.3855677 +22.6025980     512.8589     70.02251      1.949     4.81    -2.617577     19.75045     52.01144        10     1.189     0.851  51.11   0
       269    759.7436     91.4725 300.4100517 +22.6221248     773.2792     70.02251      1.406     3.16    -2.589683     19.75045     87.68201        17     1.154     0.882 -49.23   0
       270    697.3782     84.5147 300.3928825 +22.6014422     332.8949     69.95116      1.507     3.81    -2.598513     19.75045     46.47384         8     1.023     0.727 -28.18   0
       271    503.4367     83.8612 300.3327155 +22.5431414       657.46     70.02251      1.569     3.10    -2.830615     19.75045     69.75767        12     0.998     0.915 -64.80   0
       272     76.3718     83.8871 300.1999300 +22.4151036     264.0427     70.00468      1.236     4.17    -2.492578     19.75045     37.14883         6     0.764     0.649  27.88   0
       273    407.5170     82.7522 300.3032318 +22.5140730     495.1951     70.00468      1.529     3.33    -3.011902     19.75045     58.71357         8     0.835     0.745 -25.10   0
       274    178.6895     72.3404 300.2354648 +22.4424757     2221.042     70.09377      1.480     2.76     -2.49897     19.75045     236.1404        23     1.096     1.077 -82.28   0
       275    745.7806     72.7185 300.4117868 +22.6125511     328.2701     69.98685      1.350     4.34    -2.578159     19.75045     37.17886         6     0.949     0.566  64.81   0
       276    739.7903     64.6332 300.4125439 +22.6084325      397.412     69.98685      1.398     2.78    -2.570922     19.75045     65.15594         9     0.955     0.642 -68.52   0
       277    294.7822     64.6850 300.2740340 +22.4750877      650.145       69.969      1.502     3.02    -2.748199     19.75045     84.08088        11     0.906     0.813 -87.53   0
       278    777.4568     58.8152 300.4261661 +22.6180423     430.4236     69.98685      1.606     4.13    -2.551196     19.75045     35.74201         6     1.061     0.460  32.55   0
       279    797.6045     55.7138 300.4334499 +22.6231851     1303.993     69.93332      1.497     3.09    -2.542698     19.75045     134.9596        21     1.130     1.080  47.53   0
       280    503.2711     54.5267 300.3421810 +22.5346636     317.8196     70.07597      1.430     3.30    -2.592001     19.75045     35.30679         5     0.747     0.449  21.41   0
       281    180.9671     51.0694 300.2430730 +22.4370516     626.9692     69.98684      1.475     3.86     -2.49677     19.75045     66.90323        12     1.045     0.838  48.41   0
       282    972.2826     48.5861 300.4902114 +22.6734425     358.6119     69.98685      1.370     3.26    -2.414155     19.75045     57.91452        10     0.975     0.688  87.98   0
       283    746.0750     48.1387 300.4198529 +22.6055733      321.197     70.05815      1.334     3.65    -2.548033     19.75045     57.69943        11     1.017     0.814  73.85   0
       284    598.7468     33.5105 300.3787166 +22.5572333      554.621     70.04033      1.608     4.37    -2.392645     19.75045     45.37322        10     1.081     0.709 -89.63   0
       285    208.0912     30.4844 300.2581799 +22.4392742     246.3719     70.16497      1.247     2.49    -2.486336     19.75045     53.02494         6     0.880     0.638 -28.41   0
       286    761.6451     28.1267 300.4311955 +22.6044836     463.0069     69.98685      1.528     4.29    -2.524934     19.75045     53.31156         7     0.760     0.690 -61.14   0
       287    570.3552     26.2298 300.3722399 +22.5466343     1149.941     70.04033      1.520     3.26    -2.439517     19.75045     105.5399        19     1.193     0.968 -45.88   0
       288    293.3719     24.0265 300.2867846 +22.4629879      365.111       69.969      1.271     2.52    -2.300617     19.75045     59.61613         5     0.738     0.411  65.51   0
       289      7.6983     22.5607 300.1984954 +22.3769022      384.122     70.00468      1.546     2.91    -2.408082     19.75045     49.81886         6     0.942     0.500  33.20   0
       290    527.6187     20.1451 300.3609114 +22.5320804     756.1899     69.98685      1.571     3.30    -2.406679     19.75045     80.72874        13     0.983     0.899 -37.23   0
       291    139.6978   1023.6385 299.9141182 +22.7035897     561.7088      54.6199      4.237     4.62     11.06436     19.75045     34.72698         6     1.262     0.480  -1.40  25
       292     77.5641   1007.3373 299.9001289 +22.6802480     2565.454     70.00468     14.876    17.65     4.344725     19.75045     58.57749        98     3.386     3.209 -82.84  19
       293    235.3672   1017.3383 299.9458951 +22.7305312     922.2595     70.02251      2.678     3.52     0.700276     19.75045     34.95955         5     1.068     0.335 -70.03  17
