#   1 NUMBER                 Running object number                                     
#   2 X_IMAGE                Object position along x                                    [pixel]
#   3 Y_IMAGE                Object position along y                                    [pixel]
#   4 ALPHA_J2000            Right ascension of barycenter (J2000)                      [deg]
#   5 DELTA_J2000            Declination of barycenter (J2000)                          [deg]
#   6 FLUX_APER              Flux vector within fixed circular aperture(s)              [count]
#   7 FLUXERR_APER           RMS error vector for aperture flux(es)                     [count]
#   8 FLUX_RADIUS            Fraction-of-light radii                                    [pixel]
#   9 FWHM_IMAGE             FWHM assuming a gaussian core                              [pixel]
#  10 BACKGROUND             Background at centroid position                            [count]
#  11 THRESHOLD              Detection threshold above background                       [count]
#  12 FLUX_MAX               Peak flux above background                                 [count]
#  13 ISOAREA_IMAGE          Isophotal area above Analysis threshold                    [pixel**2]
#  14 A_IMAGE                Profile RMS along major axis                               [pixel]
#  15 B_IMAGE                Profile RMS along minor axis                               [pixel]
#  16 THETA_IMAGE            Position angle (CCW/x)                                     [deg]
#  17 FLAGS                  Extraction flags                                          
         1    454.0164     18.2632 300.3408837 +22.5070984     1224.553     70.05231      1.763     4.00    -2.288022     19.76892     102.2005        20     1.221     1.112  81.55   0
         2    101.2083     16.2587 300.2318423 +22.4007389     887.7827     70.03446      1.585     3.54    -1.808138     19.76892     84.02769        16     1.126     0.971  60.53   0
         3    393.5654   1014.9415 299.9981485 +22.7749707     3741.986     70.08801      1.164     1.98     -5.05475     19.76892     613.1022        23     1.012     0.879  79.14   0
         4    251.5627   1023.6618 299.9511589 +22.7348067     285.6229      54.5565      0.932     2.09   -0.4512137     19.76892     70.25072         6     0.771     0.472   2.48  24
         5    109.1912   1019.2160 299.9083704 +22.6907472     1541.432     69.99874     14.763    23.80     8.637415     19.76892     43.56384        74     4.679     3.361  21.66  27
         6     86.0454   1016.0956 299.9021976 +22.6828965     2997.113     70.08801     16.300    40.32     5.981574     19.76892     61.64358       430     7.930     5.689   3.59  27
         7     71.8172   1004.4625 299.9015671 +22.6752878     1768.648     70.05231     10.742    16.14     2.075507     19.76892     53.81639        57     2.993     2.420  38.63  19
         8     85.7191    998.2794 299.9078981 +22.6776953     2194.218     70.19499     16.854    27.08     3.847141     19.76892     60.99899       175     7.135     2.854 -26.32  19
         9     85.3269    986.1072 299.9117399 +22.6740909      2144.26     70.19499      9.890    26.21     2.287093     19.76892     48.06958       169     6.580     2.898 -32.39  19
        10    462.8736   1016.7930 300.0191040 +22.7963197     636.5721      70.0166      1.254     2.54    -5.909567     19.76892      115.557        10     0.937     0.671   9.67   0
        11    426.2645   1001.5685 300.0126741 +22.7809597     193.1031     70.07017      0.979     3.31    -5.235619     19.76892     46.41071         5     0.957     0.349  23.25   0
        12    939.7180    993.2930 300.1752598 +22.9327280     1306.595     70.21281      1.106     1.87    -5.660805     19.76892     232.2962        12     0.775     0.750 -23.17   0
        13    728.5594    981.9860 300.1131432 +22.8661137     473.3192     70.08801      1.515     4.57    -5.076195     19.76892      71.6843         7     1.195     0.497  53.60   0
        14    100.5166   1001.7964 299.9113488 +22.6831503     1520.623     69.99874     11.454    11.24     6.220937     19.76892     55.34121        28     2.477     1.649  78.95   3
        15    763.2177    976.6865 300.1256647 +22.8749964     467.2217      70.0166      1.061     2.11    -5.112361     19.76892     93.85562         8     0.687     0.678 -82.92   0
        16    540.9194    977.5194 300.0561783 +22.8084985     330.5569     70.19499      1.333     3.28    -5.758429     19.76892     42.33895         6     0.781     0.499  -2.89   0
        17    785.5468    970.1887 300.1347369 +22.8798340     6572.408     70.07017      1.088     1.88    -5.135417     19.76892     1130.997        29     0.954     0.902  84.01   0
        18    831.0159    969.7891 300.1490341 +22.8933652     149.9289      70.0166      1.160     2.66    -5.329993     19.76892     52.02843         5     0.796     0.524 -88.00   0
        19    918.2079    963.4417 300.1782760 +22.9177075     132.0947     70.08801      1.125     3.43      -5.4899     19.76892     29.67389         5     0.768     0.443  21.03   0
        20     96.8868    962.2590 299.9230954 +22.6707337     208.9178     70.15935      1.162     3.51    0.4956351     19.76892     54.14845         7     0.908     0.613 -13.21   0
        21    490.3031    958.6040 300.0465872 +22.7878755     283.4573     69.98087      1.208     3.42    -5.530461     19.76892     37.81889         5     0.755     0.447 -19.05   0
        22    794.0039    952.1931 300.1432318 +22.8772093     738.2995     69.90936      1.125     1.98    -5.144075     19.76892       144.78         9     0.830     0.621  25.19   0
        23    977.1930    951.0460 300.2007022 +22.9318466     220.0975     70.08801      1.213     2.88    -5.177184     19.76892     43.19627         7     0.823     0.659 -22.20   0
        24    832.1825    945.7191 300.1572357 +22.8868090     415.4168     70.07017      1.063     1.88    -5.206235     19.76892     77.40183         6     0.667     0.550 -50.49   0
        25    880.7131    936.5631 300.1753412 +22.8987440      434.028     70.05231      1.137     2.63    -5.186002     19.76892     53.66891         7     0.785     0.609  72.61   0
        26    732.0492    936.0150 300.1291997 +22.8539738      310.629     70.10585      1.083     1.54    -5.138085     19.76892     88.51542         5     0.585     0.497 -89.56   0
        27    743.2718    933.4367 300.1335348 +22.8566024     368.7312     70.05231      0.994     2.52    -5.142721     19.76892     67.79521         8     0.886     0.615 -18.12   0
        28    444.5832    932.5400 300.0408495 +22.7666728     2384.353     70.03446      1.223     2.12    -5.182353     19.76892     324.7799        20     0.982     0.887  24.43   0
        29    222.8170    921.9841 299.9753327 +22.6970344     307.3953     70.03446      1.678     5.14    -4.494161     19.76892     31.05405         7     1.150     0.649 -60.86   0
        30    169.9935    918.2283 299.9601409 +22.6800874     311.3748     70.07017      1.032     2.00    -4.122679     19.76892      93.3619         8     0.774     0.606  40.01   0
        31     78.4192    916.6614 299.9322042 +22.6521212     118.6044     70.05231      1.070     3.45    -4.440209     19.76892     40.06907         5     0.783     0.438 -69.58   0
        32    147.0271    915.4742 299.9539021 +22.6723975     991.5778     70.07017      1.174     2.39    -4.129732     19.76892     140.6791        14     0.880     0.834  26.55   0
        33     22.1358    905.3179 299.9184184 +22.6319567     350.0471     70.17717      1.253     5.04    -4.809379     19.76892     41.52952         9     1.066     0.674 -73.70   0
        34   1018.6861    904.0069 300.2289574 +22.9307905     1152.782     69.99874      1.124     1.93    -5.407709     19.76892     242.8971        15     0.934     0.778  56.72  16
        35    972.8198    902.5383 300.2151328 +22.9166111     1237.602     70.03446      1.068     1.71    -5.268829     19.76892     237.8316        15     0.896     0.776  71.73   0
        36    678.3313    902.9432 300.1232373 +22.8283632     367.6905     70.08801      1.423     4.54    -5.119935     19.76892     36.90305         5     0.964     0.606 -17.96   0
        37    756.6929    896.4111 300.1497700 +22.8500074     393.5936      70.0166      1.108     2.30    -5.110658     19.76892      67.9595         8     0.814     0.625 -54.13   0
        38    624.6193    890.5381 300.1105516 +22.8086823     2719.594     70.05231      1.179     2.07    -5.151018     19.76892     410.5489        21     0.974     0.916 -85.23   0
        39    114.3379    891.8292 299.9514439 +22.6558002     314.0876     70.08801      1.175     3.83    -4.380992     19.76892     38.31388         6     0.742     0.637  20.19   0
        40    426.7451    887.5195 300.0499568 +22.7484080     288.7011     70.10585      0.913     1.65    -5.158566     19.76892     86.33839         5     0.631     0.498  -5.25   0
        41    174.9945    884.7464 299.9725936 +22.6719956     733.3351     70.05231      1.187     2.25    -4.400883     19.76892     133.4999        12     0.942     0.747  60.28   0
        42    645.0858    883.0198 300.1193710 +22.8126691     297.0804     69.99874      1.089     1.98     -5.12786     19.76892      78.7743         7     0.794     0.513 -43.53   0
        43    193.7092    881.9191 299.9793291 +22.6768078     244.3131     70.17717      1.265     3.98    -4.516822     19.76892     42.62932         6     0.856     0.606  -3.69   0
        44    800.5374    870.2222 300.1719546 +22.8556493     2423.154     70.05231      1.140     1.98     -5.08191     19.76892      384.237        16     0.910     0.794  13.94   0
        45   1017.4839    869.9554 300.2396679 +22.9206541     637.4297     70.03446      1.031     2.07     -5.73158     19.76892     124.0372         9     0.787     0.662 -59.38   0
        46    208.8217    864.7727 299.9896060 +22.6764339      307.743     70.07017      1.431     3.84    -4.677316     19.76892      44.7085         5     1.012     0.417  -2.73   0
        47    517.4818    862.9653 300.0861794 +22.7686113     398.8166     70.03446      1.164     2.23    -5.124526     19.76892     56.77563         6     0.737     0.497  85.02   0
        48    163.9826    860.9363 299.9769217 +22.6618639     437.9467     70.05231      1.221     3.03     -4.50914     19.76892     85.42905        10     0.991     0.685 -18.73   0
        49    313.7456    853.1187 300.0260129 +22.7046098     30937.88     70.10585      1.281     2.13      -5.0964     19.76892      4823.35        73     1.220     1.146  78.45   0
        50    579.2030    856.1789 300.1075976 +22.7851937     283.1153      70.0166      1.229     3.24    -5.089901     19.76892     41.14828         6     0.755     0.555  47.76   0
        51    571.5167    851.9297 300.1065881 +22.7816676     954.1077     70.19499      1.177     2.29    -5.059115     19.76892     138.1388        13     0.916     0.811  49.01   0
        52    242.1545    851.5505 300.0042686 +22.6826572     365.3691     70.08801      1.621     3.30    -4.825039     19.76892     38.55215         5     0.858     0.526  51.33   0
        53    984.2847    850.7116 300.2355791 +22.9051719      476.455     70.19499      1.110     2.26    -5.426125     19.76892     99.82079         9     0.875     0.618  -8.30   0
        54    600.1953    848.1407 300.1167484 +22.7891893     477.3463     70.03446      1.249     2.87    -5.067401     19.76892     81.45205        10     0.903     0.734  63.04   0
        55    611.5823    846.0181 300.1209841 +22.7919983     352.7716     70.07017      1.313     3.58    -5.063788     19.76892      41.9071         7     0.754     0.648  77.78   0
        56    716.9423    842.5259 300.1549284 +22.8226173     169.9464     70.12369      1.416     3.51    -4.963049     19.76892     46.13911         5     1.005     0.436 -63.05   0
        57    363.3859    830.3679 300.0488523 +22.7129951     18563.38     70.07017      1.261     2.27    -4.943984     19.76892       2312.4        52     1.156     1.107  67.58   0
        58    754.4046    832.9026 300.1697294 +22.8310974     499.5804     69.98087      1.359     1.91    -4.909759     19.76892     74.12893         6     0.712     0.487  83.30   0
        59    377.7728    830.8268 300.0531771 +22.7174469     1055.644     70.03446      1.194     2.34    -4.940325     19.76892     184.7454        13     0.996     0.760  71.00   0
        60    886.2974    825.7449 300.2131569 +22.8686132     1350.486     70.15935      1.117     1.85    -4.835617     19.76892     283.3464        17     0.881     0.838   4.79   0
        61    644.2646    822.0232 300.1389686 +22.7949238     606.2305     70.05231      1.285     2.49    -4.896904     19.76892     80.32348         9     0.816     0.675  24.06   0
        62    480.7968    821.9379 300.0881171 +22.7458312     309.0556     70.07017      1.576     5.38    -4.946401     19.76892     29.14857         7     1.288     0.633 -44.40   0
        63    245.9708    822.0634 300.0150509 +22.6753513     436.3203     70.08801      1.401     3.23    -4.772385     19.76892     59.67629        11     0.991     0.741 -13.84   0
        64    491.3726    817.2267 300.0929409 +22.7476550     636.4102     70.03446      1.768     3.24    -4.901382     19.76892     67.64802        13     1.107     0.829  44.74   0
        65    892.8591    813.4118 300.2192160 +22.8670412      382.058     70.05231      1.165     3.85    -4.774324     19.76892     52.31888         6     0.964     0.490   3.10   0
        66    349.4945    812.8968 300.0502179 +22.7038142     174.8483     70.24841      1.087     4.26    -4.825133     19.76892     28.67504         6     1.038     0.498 -87.51   0
        67     78.8897    811.7083 299.9665080 +22.6221914     362.6384     70.23061      1.204     2.59    -4.461165     19.76892     54.61952         6     0.727     0.564  40.81   0
        68    870.3642    808.5096 300.2138000 +22.8588862     291.9194     70.05231      1.368     4.36    -4.732462     19.76892     41.84768         7     1.060     0.759  65.29   0
        69    243.4392    806.2890 300.0193970 +22.6700691     385.5663     70.05231      1.569     4.80    -4.731429     19.76892     56.33865         8     1.329     0.492  52.42   0
        70    566.7125    796.8928 300.1230038 +22.7644380     245.1603     70.23061      1.103     2.47    -4.716367     19.76892     50.09591         5     0.758     0.406  71.79   0
        71    536.2356    794.7882 300.1142032 +22.7546863     373.8376     70.07017      1.432     2.72    -4.673967     19.76892     53.46437         8     0.867     0.616   2.05   0
        72    558.3588    792.5723 300.1218096 +22.7606912      804.139     70.08801      1.234     2.33    -4.674547     19.76892     94.84168        12     0.844     0.783   2.12   0
        73    952.6779    791.1094 300.2451219 +22.8785803      2503.97      70.2128      1.147     1.94    -4.862833     19.76892     440.9703        19     0.903     0.865  47.24   0
        74    477.7726    791.8159 300.0969781 +22.7362840     208.5445     70.08801      1.284     3.60    -4.772225     19.76892      36.8652         5     0.969     0.385  -3.04   0
        75    941.1797    782.5128 300.2443345 +22.8726637     976.8839     69.99874      1.249     2.17    -4.773748     19.76892     149.9357        14     0.920     0.802  52.74   0
        76    304.5708    776.9900 300.0479333 +22.6800286     494.7687     70.07017      1.340     3.25    -4.657056     19.76892     71.51393        11     1.114     0.654  61.25   0
        77    767.4053    773.9039 300.1929788 +22.8180662      1526.21     69.98087      1.335     2.45    -4.605956     19.76892     181.3156        17     1.036     0.867  78.48   0
        78    972.2726    772.5189 300.2572809 +22.8791189     907.8299     70.19499      1.162     2.18    -4.874272     19.76892     150.6591        13     0.880     0.786 -56.79   0
        79    849.8126    759.6613 300.2232902 +22.8386990     243.9712     70.03446      1.316     4.15    -4.491128     19.76892     37.52384         6     1.303     0.377  85.41   0
        80    153.2273    760.8487 300.0061477 +22.6299473      341.684     70.08801      1.266     2.74    -4.531163     19.76892     55.66909         7     0.856     0.542  56.23   0
        81    885.9139    750.7937 300.2374271 +22.8469815     85365.27     69.99874      1.259     2.08    -4.514217     19.76892     13917.45       123     1.281     1.208  81.67   0
        82    738.1154    751.0928 300.1912766 +22.8027317       404.78     70.24841      1.339     3.17    -4.519923     19.76892     55.35726         8     0.857     0.692  -2.00   0
        83    918.4387    743.5250 300.2499305 +22.8546493     233.8591     70.03446      1.097     3.56    -4.607507     19.76892     42.26286         7     0.864     0.670  75.63   0
        84    572.2646    739.9402 300.1432622 +22.7497652     976.6361     70.10585      1.415     2.97    -4.427733     19.76892     114.4954        17     1.123     0.917  76.09   0
        85    753.3253    737.0581 300.2005806 +22.8032666     5473.202     70.12369      1.314     2.38    -4.437473     19.76892     676.0377        32     1.090     1.075 -63.92   0
        86    255.1599    732.4971 300.0470476 +22.6524337     2896.516     70.05231      1.371     2.48    -4.531138     19.76892     337.9434        26     1.121     1.031  89.13   0
        87    337.0809    730.5721 300.0731423 +22.6764804     649.1909     70.08801      1.428     2.82    -4.453295     19.76892     78.78482        11     0.904     0.803 -81.96   0
        88    545.4899    725.5837 300.1395990 +22.7376106     517.0472     69.99874      1.501     3.60    -4.278738     19.76892     46.17706        10     0.947     0.763  48.35   0
        89    537.0099    717.9482 300.1394435 +22.7328750     2007.756     70.07017      1.361     2.67    -4.203913     19.76892     231.4511        20     1.011     0.984  24.21   0
        90    527.1464    711.5983 300.1384394 +22.7280929      856.122      70.0166      1.452     3.21    -4.147795     19.76892     88.14246        13     1.000     0.840 -78.57   0
        91    921.1326    709.4203 300.2618654 +22.8456644     197.7855     70.05231      1.114     3.39     -4.37493     19.76892     33.84426         5     0.743     0.448  20.43   0
        92    190.9990    708.0150 300.0350703 +22.6261464     332.3134     69.92724      1.384     3.95    -4.381931     19.76892     57.29358         6     0.763     0.584 -55.70   0
        93    205.1856    706.5110 300.0399681 +22.6299757     433.5082      70.0166      1.245     2.87    -4.379115     19.76892     62.79987         8     0.939     0.567 -69.33   0
        94    261.6409    703.8106 300.0583931 +22.6461546     298.9562     70.07017      1.418     3.53    -4.353186     19.76892     35.72462         5     0.794     0.452  75.84   0
        95    973.7697    702.4695 300.2805378 +22.8594522     297.4256     70.07017      0.893     1.99    -4.435705     19.76892      57.8314         5     0.683     0.428 -28.78   0
        96    452.0147    701.6238 300.1183060 +22.7026812     1028.441     70.07017      1.400     2.76    -4.078716     19.76892     131.4237        19     1.131     0.987 -14.47   0
        97    106.1111    696.7037 300.0123753 +22.5974084     11307.54     70.24841      1.313     2.38    -4.296295     19.76892     1463.301        43     1.189     1.080  69.97   0
        98     26.8517    698.6809 299.9871159 +22.5741666     257.6152     70.08801      1.304     3.52    -3.893003     19.76892     39.13062         5     0.725     0.683  31.94   0
        99    537.0167    696.8519 300.1463078 +22.7268242      620.027     70.07017      1.401     3.26      -4.0075     19.76892     65.96105        10     1.015     0.665  16.96   0
       100    572.6039    695.3457 300.1578741 +22.7370716     133.2292     70.03446      1.153     3.45    -3.999588     19.76892     36.66761         5     0.747     0.461 -73.92   0
       101    954.7131    682.6276 300.2810501 +22.8480398     724.0569     70.07017      1.278     2.60    -4.244001     19.76892     81.63084        10     0.802     0.793  44.42   0
       102     52.0180    680.8554 300.0007283 +22.5766176     940.7797     70.05231      1.632     4.28    -4.013835     19.76892     92.60599        17     1.383     0.822  88.02   0
       103    895.0546    675.4175 300.2647965 +22.8280801     434.7125     70.05231      1.386     2.56    -4.093187     19.76892     61.94575         7     0.822     0.611 -67.53   0
       104    457.2597    669.7213 300.1303139 +22.6951035     318.1624     70.10585      1.227     3.22    -3.800313     19.76892     48.65966         6     0.722     0.628  76.60   0
       105    605.1948    668.1955 300.1768499 +22.7390600     250.3372     69.92724      1.199     3.15    -3.746086     19.76892     34.60748         6     0.737     0.572  37.27   0
       106    652.2243    666.8325 300.1919358 +22.7527793     336.1485     70.05231      1.577     3.88     -3.73992     19.76892     43.74247         7     0.940     0.600  72.29   0
       107    622.5080    666.6529 300.1827417 +22.7438120     252.2471     70.12369      1.309     4.15    -3.738765     19.76892     41.61332         7     0.995     0.600  66.73   0
       108    501.2351    665.4177 300.1453962 +22.7070668     509.3446     70.07017      1.406     3.20    -3.730495     19.76892     52.50602         8     0.889     0.632  18.97   0
       109    934.7961    660.7343 300.2819612 +22.8357803     1948.602     70.08801      1.266     2.33     -4.01538     19.76892     281.5286        19     0.976     0.916 -74.39   0
       110    466.8120    661.1321 300.1360791 +22.6955063     903.1877     70.07017      1.379     2.83    -3.724859     19.76892     118.7419        16     0.997     0.941  32.38   0
       111     28.9646    654.8676 300.0020201 +22.5622439     2863.398     70.07017      1.333     2.26    -3.893793     19.76892     409.4179        24     1.057     0.972  66.37   0
       112    330.2535    647.8964 300.0979087 +22.6507196     5336.911     70.14152      1.392     2.51    -3.942865     19.76892     637.5254        35     1.160     1.145 -85.15   0
       113    452.6473    644.8734 300.1369595 +22.6865905     5249.051     70.07017      1.461     2.79    -3.642995     19.76892     597.7151        33     1.166     1.144  -1.91   0
       114    864.1245    638.4799 300.2671691 +22.8081980     1127.404     70.17717      1.434     2.45    -3.917082     19.76892     139.9963        16     0.971     0.892  67.23   0
       115    948.7449    635.8797 300.2943933 +22.8328242     7224.693     70.10585      1.279     2.22    -3.827894     19.76892      1050.46        34     1.102     1.000  48.15   0
       116    513.1570    634.4273 300.1591841 +22.7017525     6562.139     70.08801      1.446     2.75    -3.531201     19.76892     639.0295        35     1.202     1.111  48.52   0
       117    240.6042    630.2526 300.0757755 +22.6187447     900.5322     70.07017      1.550     2.85    -4.048283     19.76892      111.547        17     1.242     0.889 -54.97   0
       118    682.8024    629.7766 300.2135087 +22.7513164     345.0986      70.0166      1.545     4.50    -3.652478     19.76892     36.66443         9     1.016     0.725  72.66   0
       119    487.7191    627.3748 300.1535617 +22.6920952     210.4948     70.05231      1.358     3.41    -3.475503     19.76892     35.64779         6     0.851     0.505  44.13   0
       120    444.8282    622.6500 300.1417533 +22.6778678     2585.844     70.08801      1.541     2.78    -3.514333     19.76892     282.4983        28     1.180     1.101 -60.05   0
       121    787.6926    622.0838 300.2486832 +22.7805689     422.7708     70.24841      1.275     2.61    -3.650903     19.76892     55.51076         7     0.712     0.660 -85.60   0
       122    422.9995    621.0639 300.1354784 +22.6708614     688.8774     70.07017      1.445     3.70    -3.543714     19.76892      75.8203        14     1.135     0.848  14.91   0
       123    177.6629    620.2938 300.0594526 +22.5969903     282.3161     70.15935      1.171     2.65    -4.118752     19.76892     56.97182         5     0.697     0.469 -83.38   0
       124    864.4316    617.7137 300.2740177 +22.8023268     979.8358     70.05231      1.325     2.57     -3.82651     19.76892      117.423        14     0.981     0.795 -52.48   0
       125    745.2222    615.1317 300.2377126 +22.7658351     462.0839     70.08801      1.298     2.64    -3.619243     19.76892     61.10501         9     0.854     0.668 -28.39   0
       126    561.4126    610.1177 300.1821071 +22.7092560     116797.8     70.05231      1.491     2.79    -3.374081     19.76892     12359.62       137     1.415     1.386  -8.39   0
       127    247.6065    610.2765 300.0844470 +22.6151182      2007.05     69.99874      1.454     2.55    -3.986529     19.76892     239.0925        25     1.220     1.011  34.01   0
       128    949.3838    611.2411 300.3026046 +22.8259390      114.727     70.08801      1.086     3.43    -3.612809     19.76892     25.35882         5     0.764     0.445  71.63   0
       129    813.5488    606.0419 300.2619559 +22.7837168     237.8911     70.07017      1.425     4.32    -3.649503     19.76892     32.47557         5     0.785     0.677  -8.41   0
       130    452.2616    590.4329 300.1545408 +22.6708547     1625.974     70.08801      1.554     3.43     -3.36074     19.76892     139.9391        22     1.220     1.035  86.63   0
       131    863.1526    586.7328 300.2836926 +22.7930460     225.3077     70.07017      1.343     2.99    -3.704571     19.76892     35.74704         6     0.733     0.635  72.54   0
       132    769.0062    578.4141 300.2570602 +22.7624258     99.78433       69.963      1.221     4.70    -3.516245     19.76892     22.31089         5     1.055     0.593  74.29   0
       133    848.8839    576.4213 300.2825981 +22.7858062     955.9074      70.0166      1.318     2.85    -3.644023     19.76892     123.1299        16     0.969     0.948  87.04   0
       134    720.0560    574.1602 300.2431947 +22.7465239     1453.477     70.05231      1.397     2.83    -3.424501     19.76892     158.2291        19     1.053     0.981  25.37   0
       135    507.6027    570.0624 300.1783828 +22.6816154     388.5335     70.07017      1.454     2.96    -3.248551     19.76892     51.18385         8     0.842     0.708 -44.72   0
       136    849.1246    566.4243 300.2859232 +22.7830073     1316.267     70.08801      1.743     4.23    -3.612928     19.76892     128.4442        25     1.563     1.106  79.49   0
       137    977.3890    567.6822 300.3254997 +22.8218218     783.4437     70.03446      1.345     2.76    -3.358097     19.76892     99.19658        11     0.894     0.816 -33.98   0
       138    963.0479    567.0380 300.3212373 +22.8173378     401.0324     70.08801      1.371     3.89    -3.424021     19.76892     46.23896         9     0.801     0.783 -34.60   0
       139    602.5146    565.0252 300.2095621 +22.7086446      347.156     70.03446      1.527     4.10    -3.234925     19.76892     41.94516         6     0.977     0.492  11.02   0
       140    441.4389    563.6404 300.1598839 +22.6599191     227.5335     70.14152      1.250     3.24    -3.324006     19.76892     49.97107         6     0.880     0.710 -85.69   0
       141    887.2548    561.5446 300.2993940 +22.7930380     2387.112     70.10585      1.364     2.63    -3.605361     19.76892      269.084        24     1.124     0.997   7.67   0
       142    119.8242    552.3297 300.0635764 +22.5601346     610.0568     70.07017      1.347     3.23    -3.912477     19.76892     67.40932        13     1.115     0.738  82.11   0
       143    979.0436    551.6580 300.3312251 +22.8177142     412.1286     70.07017      1.245     2.43    -3.296284     19.76892     78.82136         8     0.833     0.682  33.42   0
       144    660.7693    532.6287 300.2382314 +22.7168183     444.6196     70.07017      1.414     4.14    -3.267792     19.76892     50.75406         8     0.969     0.563 -22.78   0
       145    975.2308    524.4292 300.3388874 +22.8087486     302.1366     70.07017      1.115     3.29    -3.350919     19.76892     44.99661         5     0.917     0.403 -81.50   0
       146    721.6998    524.0181 300.2600065 +22.7326196     374.5432     69.98087      1.533     4.32    -3.371286     19.76892      45.4524         9     1.067     0.632 -78.95   0
       147    878.6642    520.3572 300.3101051 +22.7786320     574.4441     70.07017      1.281     2.78    -3.554828     19.76892     78.40213        11     0.926     0.808  13.18   0
       148    862.9891    516.6848 300.3064131 +22.7728779     411.4287      70.0166      1.551     6.13    -3.554924     19.76892     35.42298        11     1.142     0.925 -40.74   0
       149    607.3420    515.1085 300.2272906 +22.6957634     1749.704     70.12369      1.499     3.01    -3.248562     19.76892     179.0409        23     1.154     1.056  -8.51   0
       150    967.5984    513.2790 300.3401318 +22.8032574     370.8495     69.98087      1.255     3.81    -3.406184     19.76892      40.8359         8     0.921     0.645 -72.57   0
       151     83.2271    506.2138 300.0671959 +22.5359220     146.5383     70.07017      1.308     3.83    -3.689907     19.76892     24.49297         5     0.935     0.450  44.68   0
       152   1018.4385    493.8282 300.3623084 +22.8129057     834.4615     70.08801      1.299     2.67    -3.313396     19.76892     98.40137        10     0.832     0.786  46.68  16
       153    890.3484    493.4937 300.3224784 +22.7744178     259.9768     70.14152      1.188     4.11    -3.555156     19.76892     37.94299         6     1.137     0.424  53.02   0
       154    976.6955    492.3380 300.3497748 +22.7999672      568.066     70.15935      1.302     4.04    -3.429926     19.76892     67.97573        11     1.058     0.801  51.24   0
       155    718.0176    488.8229 300.2702985 +22.7214088     664.2679     70.05231      1.584     3.63    -3.526411     19.76892     71.81902        14     1.084     0.887 -52.54   0
       156    221.9250    487.3922 300.1164072 +22.5721623       382.87     70.03446      1.738     4.45    -3.781199     19.76892      32.6996         7     1.082     0.521  67.79   0
       157    284.4607    483.0745 300.1372495 +22.5896933     2162.335     70.10585      1.540     2.90    -3.647295     19.76892     213.5397        26     1.219     1.073 -86.36   0
       158   1017.2612    481.1421 300.3660643 +22.8089074     2557.462     70.12369      1.308     2.26    -3.380531     19.76892     341.5163        21     1.016     0.943 -67.34  16
       159    231.5877    477.8429 300.1225136 +22.5723233     4400.867     70.05231      1.509     2.81    -3.741588     19.76892      498.321        33     1.240     1.140  74.20   0
       160    372.3961    472.1468 300.1681441 +22.6129467     2858.314     70.05231      1.609     3.04    -3.270016     19.76892     271.2539        30     1.297     1.121 -83.00   0
       161    997.2038    472.1770 300.3627224 +22.8003204      1080.61     70.03446      1.338     2.64    -3.356115     19.76892     137.2467        16     1.031     0.868 -70.33   0
       162    616.4648    468.6125 300.2452415 +22.6851506      10661.1      70.0166      1.587     3.09    -3.319058     19.76892     1051.763        46     1.296     1.239  60.11   0
       163    634.7965    468.0656 300.2511269 +22.6904915     573.5967     70.08801      3.065     6.31    -3.412652     19.76892     32.51163         9     1.617     0.692 -32.40   0
       164    813.3973    458.6281 300.3098262 +22.7413341     344.0502      70.0166      1.777     4.87     -3.35985     19.76892     31.83617         5     1.097     0.614 -39.18   0
       165    949.7489    450.8157 300.3548663 +22.7799604     342.1443     70.08801      1.367     4.34    -3.255987     19.76892      43.6269        10     1.017     0.751  60.21   0
       166    171.3475    449.0600 300.1131444 +22.5459848      1275.38     70.12369      1.500     2.94    -3.611767     19.76892     124.4267        18     1.135     0.881  83.10   0
       167    557.2032    438.0774 300.2367149 +22.6586096     3771.923     69.98087      1.598     3.20    -3.129806     19.76892     334.0655        35     1.372     1.184  34.97   0
       168    970.6088    437.9579 300.3655487 +22.7825172      623.052     70.08801      1.380     3.07    -3.130569     19.76892     87.07534        10     0.907     0.745  29.84   0
       169    272.1438    437.5112 300.1482250 +22.5729242     345.8032     70.10585      1.390     2.99    -3.417902     19.76892     45.99119         8     0.841     0.669 -54.47   0
       170    761.3779    427.1639 300.3038417 +22.7167010     660.4028     70.08801      1.769     3.93    -3.093181     19.76892     51.51894        14     1.110     0.867 -88.34   0
       171    463.7841    424.4276 300.2120775 +22.6266694     3492.799     70.08801      1.624     3.10    -3.029459     19.76892     324.2156        34     1.339     1.177  86.81   0
       172    952.7449    418.4796 300.3663073 +22.7715665     214.3402     70.10585      1.203     3.69    -2.972313     19.76892     42.22123         5     0.817     0.609 -45.26   0
       173    855.5846    418.4557 300.3360266 +22.7424398     774.9493     70.05231      1.522     3.27    -2.949724     19.76892     94.98814        13     1.023     0.855  50.09   0
       174    828.5910    406.4005 300.3315306 +22.7308852      248.624     69.89146      1.337     4.04    -2.988568     19.76892      33.8511         5     0.956     0.487  -3.56   0
       175    351.3333    403.6405 300.1838512 +22.5869670     1374.691     70.03446      1.527     3.18    -3.052636     19.76892     142.3695        21     1.229     1.060  58.75   0
       176     69.8090    401.1922 300.0971499 +22.5017745     498.5062     69.92724      1.400     2.89    -3.414655     19.76892     77.97588         9     0.969     0.636   5.09   0
       177    320.6845    393.1575 300.1777258 +22.5747626     17464.72     70.03446      1.603     3.07    -3.092746     19.76892     1600.307        55     1.379     1.278  75.07   0
       178    855.2924    390.3543 300.3450651 +22.7342784     806.1985     70.08801      1.370     3.04    -2.951055     19.76892     84.64409        14     0.957     0.939  12.44   0
       179     17.1643    381.1906 300.0872969 +22.4802335     2900.871     70.07017      1.405     2.74    -3.315825     19.76892     333.7654        24     1.132     1.000 -85.16   0
       180    730.9137    372.6070 300.3120753 +22.6918968     919.1161     69.99874      1.464     3.91    -3.025667     19.76892     96.39332        18     1.244     0.928  71.73   0
       181    945.9137    365.6458 300.3813414 +22.7543362     350.0156     70.05231      1.352     3.40    -2.975901     19.76892     41.97151         5     0.768     0.436  18.12   0
       182    392.8429    357.5680 300.2117268 +22.5861964     1156.488     70.10585      1.746     4.11    -3.043127     19.76892       96.719        22     1.340     1.106  56.55   0
       183    831.9749    350.0719 300.3508832 +22.7157156     292.6857     70.08801      1.474     5.46    -3.047719     19.76892      38.6861         8     1.155     0.728   5.10   0
       184    468.4427    336.6604 300.2420362 +22.6028705     611.0647     70.05231      1.549     3.23    -3.035933     19.76892      81.1456        13     1.051     0.833  10.79   0
       185    713.3190    328.6008 300.3208879 +22.6739810      1303.65       69.963      1.599     3.41    -2.999617     19.76892     121.2926        19     1.106     1.046  58.07   0
       186    974.4279    322.6916 300.4041843 +22.7505341     1762.028     70.05231      1.366     2.67    -3.088152     19.76892      207.747        17     0.977     0.933  24.19   0
       187    422.5819    312.6579 300.2355628 +22.5822242     311.0824     70.03446      1.283     4.90    -2.973866     19.76892     36.96517         8     1.018     0.669   4.03   0
       188     96.6433    306.8045 300.1361394 +22.4827533     820.4561     70.08801      1.686     4.15    -3.077651     19.76892     73.44973        19     1.204     1.139 -79.12   0
       189    181.1875    298.8271 300.1649981 +22.5058357     392.4174     70.07017      1.684     4.18    -3.004566     19.76892     43.75797         6     1.119     0.446  59.73   0
       190    785.0009    289.8374 300.3558074 +22.6843297     419.0239     70.07017      1.433     4.37    -3.098282     19.76892     48.14177         7     0.776     0.700 -46.38   0
       191    882.9782    278.8235 300.3899183 +22.7105252     1205.292     70.07017      1.488     2.92    -3.059821     19.76892     128.3084        19     1.191     0.936  25.16   0
       192    301.8707    276.6144 300.2097241 +22.5356687     1371.268     70.07017      1.738     3.30    -2.897574     19.76892     131.0502        23     1.246     1.093 -18.47   0
       193    379.7763    271.4232 300.2356367 +22.5575470      537.899     70.03446      1.554     4.90    -2.887437     19.76892     51.41714        13     1.247     0.902 -27.15   0
       194    196.5271    263.8190 300.1811315 +22.5003920      332.963     70.07017      1.442     3.38    -2.909868     19.76892     49.97678         7     1.027     0.606  31.05   0
       195    734.1215    260.4250 300.3495062 +22.6606295     1107.876     70.07017      1.787     3.52    -2.917283     19.76892     91.88584        19     1.171     1.040  29.56   0
       196    799.1677    259.8603 300.3699553 +22.6799612     396.2823     70.10585      1.554     3.67    -3.104705     19.76892     41.95213         8     0.939     0.718  61.88   0
       197   1005.7562    252.6891 300.4366861 +22.7397956     555.2462     70.08801      1.499     2.49    -3.118009     19.76892     62.97724         7     0.777     0.601 -25.88   0
       198    658.9130    251.4344 300.3290004 +22.6355039     670.6224     70.05231      1.569     4.11    -2.880908     19.76892     66.97766        15     1.133     1.009 -25.46   0
       199    738.4269    251.7576 300.3536615 +22.6594295     393.9629     70.08801      1.657     4.23    -2.897648     19.76892     35.79153         9     0.978     0.776 -36.48   0
       200    854.1414    242.5998 300.3926913 +22.6914736     839.5092      70.0166      1.657     3.72    -3.077633     19.76892     83.94072        17     1.102     1.053 -44.21   0
       201    585.1866    243.1990 300.3087184 +22.6110369     500.4874     69.90936      1.768     4.54    -2.950842     19.76892     57.36872         9     0.947     0.840  -5.13   0
       202    866.1924    241.6960 300.3967408 +22.6948246     594.9341       69.963      1.744     4.74    -3.074476     19.76892     60.23259         8     1.204     0.692 -68.18   0
       203    982.7286    231.6378 300.4363391 +22.7268455      595.402     70.03446      1.294     2.88    -3.118009     19.76892     72.90394        10     0.877     0.777  88.11   0
       204      6.6891    229.3116 300.1333588 +22.4335236     301.3727     70.23061      1.562     2.07    -3.022431     19.76892     48.74109         5     0.701     0.435 -73.39   0
       205    217.1800    225.8515 300.1998758 +22.4956914     483.8507     70.05231      1.437     3.84    -2.686787     19.76892     48.42166         6     0.771     0.550 -28.12   0
       206     79.2475    220.4751 300.1587622 +22.4527632     1276.145     70.07017      1.558     3.32    -3.073457     19.76892     115.7312        20     1.152     1.040  20.79   0
       207    318.9732    220.9676 300.2331071 +22.5248244     1138.727     70.07017      0.436    -5.45      -2.6156     19.76892     966.8694         5     0.302     0.276  -3.43   0
       208     28.5828    217.3999 300.1440242 +22.4366768     350.9867       69.963      1.514     4.65    -2.971421     19.76892     38.44984         8     1.007     0.610 -45.49   0
       209    902.0893    216.5526 300.4160932 +22.6983522     398.5614     70.03446      1.598     5.71    -3.033744     19.76892     34.56468        11     1.194     0.769  36.78   0
       210    236.4913    213.4837 300.2098928 +22.4979347     3182.857     70.21281      1.623     3.12    -2.639597     19.76892     324.9825        32     1.358     1.161  56.91   0
       211     20.6547    207.9777 300.1446203 +22.4315942     797.7766     70.08801      1.458     3.07    -2.869499     19.76892     84.95415        14     1.024     0.859  72.28   0
       212    220.4153    203.8750 300.2080147 +22.4903540     390.2306     70.07017      1.544     4.08    -2.659969     19.76892     41.97168         7     0.973     0.674 -85.73   0
       213    880.3711    194.6601 300.4164295 +22.6855525     2064.718     70.08801      1.571     2.95    -2.841991     19.76892     193.2998        24     1.167     1.045  68.21   0
       214    983.8345    193.3008 300.4491292 +22.7161542     1620.098     70.05231      1.421     2.91    -2.803989     19.76892     162.5425        18     1.095     0.918  58.91   0
       215    430.5682    190.1859 300.2778079 +22.5494526     315.5584     70.07017      1.484     3.45    -2.473087     19.76892     36.98486         5     0.831     0.414 -67.89   0
       216    354.6985    181.5485 300.2570115 +22.5242211     457.8989     70.15935      2.025     4.44    -2.556044     19.76892     40.37244         6     1.248     0.449 -50.75   0
       217    481.1006    177.4117 300.2976766 +22.5609352     859.1914     69.98087      1.560     3.43    -2.449262     19.76892     90.47626        16     1.104     0.939  50.25   0
       218    255.4813    157.3870 300.2340022 +22.4875273     3355.008     70.05231      1.599     3.08    -2.624259     19.76892     361.3532        29     1.272     1.126  88.74   0
       219    106.7496    157.1828 300.1878470 +22.4428523     371.8506     70.07017      1.424     3.55    -2.640427     19.76892     45.00642         7     0.970     0.539 -14.95   0
       220    501.2603    142.6321 300.3152372 +22.5569889     3485.563     70.10585      1.650     3.17    -2.385081     19.76892     318.4762        34     1.328     1.214  84.38   0
       221    387.2372    142.4749 300.2798123 +22.5227580     391.4391      70.0166      1.564     3.43    -2.383718     19.76892     52.07277         7     0.879     0.650 -69.89   0
       222    753.7709    132.0771 300.3972882 +22.6296337     515.4706     70.05231      1.757     5.59    -2.503035     19.76892     43.71563        10     1.187     0.831  50.12   0
       223    629.6362    122.5297 300.3617228 +22.5896922     3385.684     70.05231      1.656     3.45    -2.529731     19.76892     328.7756        32     1.299     1.209  82.84   0
       224    404.7154    121.6816 300.2919963 +22.5220268     726.3947     70.19499      1.519     3.83    -2.324578     19.76892     83.79547        15     1.140     0.891  81.31   0
       225    671.1484    119.8461 300.3755208 +22.6013613     576.5827     70.10585      1.661     3.39    -2.310428     19.76892     54.99019         9     0.944     0.669 -81.69   0
       226    153.6973    114.1585 300.2163941 +22.4445872     409.0966     70.07017      1.530     5.07    -2.633846     19.76892     47.26534         8     1.108     0.668 -87.98   0
       227    956.3073    113.5732 300.4664201 +22.6849845     185.7987      70.0166      1.038     3.44    -2.489969     19.76892     28.00334         5     1.073     0.318  21.68   0
       228    724.8289    111.1772 300.3950537 +22.6149550     323.9108     70.07017      1.229     3.56    -2.408109     19.76892     31.68808         5     1.118     0.327  10.66   0
       229    673.8450    107.4741 300.3803750 +22.5986139      1560.24     70.05231      1.596     3.26    -2.196137     19.76892     152.8007        26     1.222     1.177  48.35   0
       230    688.5980    105.8096 300.3855099 +22.6025563     547.6707     69.89146      2.233     6.36    -2.247485     19.76892     40.31095        10     1.349     0.843  58.98   0
       231    760.4703     99.0562 300.4100901 +22.6221496      838.144     70.08801      1.651     3.24    -2.425562     19.76892     81.63348        15     1.077     0.892 -12.95   0
       232    698.5908     92.4624 300.3929529 +22.6017144     307.0878      70.0166      1.457     4.30    -2.203584     19.76892      48.9901         6     1.127     0.603  43.27   0
       233    504.1663     91.8440 300.3326208 +22.5432699     737.7802     70.12369      1.753     4.26    -2.324409     19.76892      60.0717        14     1.117     0.936  46.24   0
       234     77.3892     91.4872 300.2000415 +22.4151885     417.9682      70.0166      2.274     5.11    -2.258831     19.76892     28.90981         6     1.003     0.839 -40.47   0
       235    408.0386     89.9287 300.3033323 +22.5139030     377.2651     70.03446      1.378     4.46    -2.269972     19.76892     53.95942        10     1.041     0.774  41.41   0
       236    179.2603     79.9327 300.2354416 +22.4424294     2270.393     70.10585      1.558     2.84    -2.565006     19.76892     227.3112        26     1.304     1.086 -82.48   0
       237    747.3382     80.1117 300.4121452 +22.6127697     381.9244     70.14152      1.405     2.67    -2.313398     19.76892     52.14133         5     0.849     0.473 -88.66   0
       238    295.1738     72.2195 300.2739757 +22.4749766     671.2108     70.07017      1.569     3.48    -2.302086     19.76892     74.91923        14     1.097     0.879 -28.34   0
       239    740.6113     72.2225 300.4126090 +22.6084866      460.592     70.07017      1.431     2.99    -2.238231     19.76892     43.66858         7     0.817     0.611 -14.83   0
       240    778.1246     67.5575 300.4258100 +22.6183838     383.9014     70.05231      1.427     5.05    -2.393422     19.76892     39.09305         7     1.321     0.685  22.28   0
       241    798.2024     63.2439 300.4334655 +22.6231581     1365.736     70.05231      1.656     3.19    -2.503826     19.76892      119.115        20     1.102     1.070 -75.21   0
       242    181.7365     58.9720 300.2430106 +22.4371542      616.194     70.07017      1.518     3.13    -2.471272     19.76892     78.37286        10     0.999     0.762 -18.30   0
       243    973.0383     56.7247 300.4900818 +22.6736460     307.3347     70.03446      1.210     2.14    -2.606436     19.76892     55.44495         7     0.696     0.640 -14.91   0
       244    746.8018     55.7158 300.4198925 +22.6055961     467.2449     69.98087      1.476     4.59    -2.165482     19.76892     53.29334        10     1.029     0.832 -80.77   0
       245    598.9941     40.7677 300.3787079 +22.5570139     422.9389     70.07017      1.461     4.24    -1.882116     19.76892     40.36106         7     0.760     0.673  -3.29   0
       246    762.4973     35.0919 300.4314725 +22.6043690     356.8795     70.24841      1.619     5.67    -2.191854     19.76892     33.12066        11     1.038     0.872 -31.61   0
       247    570.7773     33.8836 300.3721563 +22.5465800     981.1351     70.03446      1.573     3.43    -1.750674     19.76892     97.82232        19     1.168     1.021  47.93   0
       248    293.8294     30.8843 300.2869657 +22.4627027      302.272     70.07017      1.443     4.52    -1.937427     19.76892     36.93121         7     0.944     0.616 -71.74   0
       249      8.2928     29.8542 300.1985727 +22.3767698     347.5359     70.12369      1.272     4.30    -1.922448     19.76892     48.79659         8     0.992     0.551  74.18   0
       250    528.3084     27.6606 300.3609552 +22.5320646     830.3448     70.14152      1.710     4.15    -1.887515     19.76892     72.55537        18     1.159     1.094  81.79   0
       251    633.6292     24.4063 300.3947991 +22.5626897     705.8561     70.07017      1.486     3.62    -1.709126     19.76892     76.91576        16     1.103     0.953  81.26   0
       252    229.3620     23.5891 300.2692897 +22.4412771     294.0896     70.07017      1.712     4.63    -2.293766     19.76892     31.07774         7     1.061     0.609  71.17   0
       253    569.1045   1020.2698 300.0510276 +22.8292198     769.0184     68.91845      1.114     2.08    -5.770734     19.76892     153.8421        12     0.848     0.752   0.99  16
