#   1 NUMBER                 Running object number                                     
#   2 X_IMAGE                Object position along x                                    [pixel]
#   3 Y_IMAGE                Object position along y                                    [pixel]
#   4 ALPHA_J2000            Right ascension of barycenter (J2000)                      [deg]
#   5 DELTA_J2000            Declination of barycenter (J2000)                          [deg]
#   6 FLUX_APER              Flux vector within fixed circular aperture(s)              [count]
#   7 FLUXERR_APER           RMS error vector for aperture flux(es)                     [count]
#   8 FLUX_RADIUS            Fraction-of-light radii                                    [pixel]
#   9 FWHM_IMAGE             FWHM assuming a gaussian core                              [pixel]
#  10 BACKGROUND             Background at centroid position                            [count]
#  11 THRESHOLD              Detection threshold above background                       [count]
#  12 FLUX_MAX               Peak flux above background                                 [count]
#  13 ISOAREA_IMAGE          Isophotal area above Analysis threshold                    [pixel**2]
#  14 A_IMAGE                Profile RMS along major axis                               [pixel]
#  15 B_IMAGE                Profile RMS along minor axis                               [pixel]
#  16 THETA_IMAGE            Position angle (CCW/x)                                     [deg]
#  17 FLAGS                  Extraction flags                                          
         1    595.8601      2.8457 300.3789303 +22.5569913     545.3945     62.14119      1.399     3.36    -2.476636     19.73622     73.52822        13     1.013     0.984  73.45  24
         2      4.1774   1019.6660 299.8645330 +22.6712273     903.1483     66.96833      4.135     4.96    -16.65863     19.73622     24.45044         5     1.081     0.645 -63.01  17
         3    644.1494   1022.6047 300.0625489 +22.8642884     5348.299     59.97732      1.027     1.65    -5.830384     19.73622     1117.338        24     0.919     0.840 -26.78  26
         4    638.5684   1023.8547 300.0604042 +22.8629717     1463.779     53.35645      0.784     1.81    -5.844676     19.73622     453.9276         9     0.872     0.350  -0.11  27
         5    205.8299   1020.7758 299.9268064 +22.7321387     2747.825     67.35806     13.674    32.09     13.16267     19.73622     81.40576       234     6.702     4.898  -9.50  27
         6    181.4148   1022.7803 299.9185671 +22.7253780     1053.054     59.14019      5.867    17.79     19.82983     19.73622     38.78314        25     5.859     1.501   6.23  27
         7    169.0058   1009.4396 299.9190560 +22.7178273     1207.374     69.98986      5.965     7.73     19.40089     19.73622     40.31091        13     1.590     1.270  89.88   3
         8    174.0847   1017.8794 299.9178856 +22.7217714     1575.383     70.09663      5.436    10.18     20.41109     19.73622     51.96365        22     3.119     0.926 -65.34  27
         9    171.2990   1016.1234 299.9175920 +22.7204314     1484.612     70.09663      5.251     9.61     20.65327     19.73622     53.10535        21     2.537     1.015 -66.13  19
        10     76.2624   1020.9092 299.8865119 +22.6932465     1793.236     66.94971     19.082    31.90     16.42167     19.73622     49.99375       172    10.567     2.672   8.21  27
        11     81.4690    957.1472 299.9088900 +22.6765439         2141     69.97205     23.684    45.39     2.883442     19.73622      68.1573       389     8.817     6.485  19.85   3
        12     84.2967    989.5891 299.8992058 +22.6866882     2947.365     69.86509     25.087    78.73     11.98519     19.73622     70.17732      1312    14.316    12.015  72.73  27
        13     67.2366    997.9413 299.8911879 +22.6839547     2672.491     69.97205     17.547    28.01     8.140254     19.73622     56.17033       184     6.553     3.323 -53.08  19
        14      1.2545   1015.0792 299.8651192 +22.6690350     525.5376     54.05273      4.022     4.30    -17.32335     19.73622     30.97047         7     1.233     0.427  85.64  25
        15      3.7845   1007.4515 299.8683885 +22.6676106     729.9513     65.84209      3.000     4.15    -15.01676     19.73622     34.58081         5     1.162     0.422  14.07  17
        16    149.6773    994.1258 299.9180375 +22.7076323     1003.341     70.06107      5.500     8.40     17.27338     19.73622     42.09163        16     1.786     1.103   6.52   2
        17    119.1240   1015.7074 299.9015186 +22.7046357     740.8627     70.09663      7.333     6.73     23.98673     19.73622     43.58979        12     1.697     0.853  41.92  18
        18    656.8611    992.0025 300.0764730 +22.8593261      4203.59     69.93642      1.189     1.88    -5.780577     19.73622     849.0922        25     0.980     0.902  25.53   0
        19    224.9603   1020.9586 299.9326919 +22.7379383     3893.493     66.81926      6.881    21.36     8.435904     19.73622     81.41471       195     4.910     3.660  29.91  27
        20    536.1441    986.5638 300.0406667 +22.8215303      309.469     69.97205      1.147     2.59     -5.75917     19.73622     53.34135         5     0.714     0.461 -19.68   0
        21    248.2687    986.1527 299.9512699 +22.7349654     247.3553     69.93642      0.916     1.74    0.7333063     19.73622      80.4641         5     0.673     0.429  77.75   0
        22    565.3306    982.9849 300.0509156 +22.8292656     948.1202     69.97205      1.090     1.94    -5.782697     19.73622     174.2585        11     0.903     0.694  49.48   0
        23    243.9971   1013.2247 299.9411268 +22.7414407     5656.922     69.90076     10.318    34.68     3.957405     19.73622     138.7066       648    10.196     5.532  53.17  27
        24    459.1248    979.2762 300.0190752 +22.7963172     657.8588     70.04327      1.124     1.70    -5.753169     19.73622     134.6666         9     0.780     0.594 -68.72   0
        25    389.8882    977.3463 299.9981676 +22.7749743     3855.338     69.97205      1.080     1.72    -5.649287     19.73622     794.5544        21     0.863     0.857  66.58   0
        26    116.5195    977.4904 299.9131536 +22.6929037     1251.272     70.06107      8.120    10.29      12.1082     19.73622      43.6404        22     2.166     1.363  -7.58   3
        27    931.3386   1008.7712 300.1565268 +22.9464966     436.8671     69.95424      1.239     3.34    -5.812629     19.73622     72.75849         8     0.983     0.632 -52.89   0
        28    422.2621    964.2164 300.0125118 +22.7809309     259.5922     69.93642      0.937     2.32    -5.539704     19.73622     59.78284         5     0.834     0.353 -44.53   0
        29    936.1678    955.9249 300.1752419 +22.9327768     1256.567     69.95424      1.059     1.62    -5.770212     19.73622     317.1743        14     0.837     0.780  17.71   0
        30    586.6682    953.2305 300.0672455 +22.8271366     522.6944     69.93642      1.540     2.89     -5.78085     19.73622     51.63851         6     0.753     0.550 -38.53   0
        31    618.5885    950.8557 300.0779554 +22.8360361     198.1219     69.93642      1.084     4.38    -5.785765     19.73622     37.63658         6     0.848     0.643  62.58   0
        32    724.8803    944.6262 300.1130819 +22.8661471     492.6907     69.93642      1.381     5.45    -5.712552     19.73622     74.12566         9     1.505     0.569  56.63   0
        33     84.9898    947.2342 299.9132108 +22.6747615     2210.941     69.93642     13.283    17.43    0.8153995     19.73622     95.69935        85     3.499     2.412 -42.03   3
        34    536.8213    940.0029 300.0560378 +22.8083803     318.1605     69.90076      1.311     2.96    -5.753098     19.73622     42.23276         5     0.799     0.482 -39.57   0
        35    759.8882    938.9632 300.1258303 +22.8750264     461.1839     69.93642      1.022     1.81    -5.657193     19.73622      130.115         9     0.695     0.671 -26.43   0
        36    781.9536    932.6595 300.1347566 +22.8798379     6470.225     69.98986      1.018     1.61    -5.602214     19.73622     1490.089        24     0.876     0.829 -71.15   0
        37     93.3979    924.7054 299.9231561 +22.6708324     516.0336     69.86509      1.242     2.65    -3.933161     19.73622      75.2203         9     0.843     0.695  14.74   0
        38    487.5130    920.8870 300.0469176 +22.7880961     328.0612     70.07885      1.145     2.53     -5.67408     19.73622     60.26943         7     0.802     0.605 -62.28   0
        39    790.5601    914.6603 300.1432979 +22.8772546     758.9641     69.95424      0.983     1.72    -5.469895     19.73622     162.8653        11     0.808     0.695 -53.56   0
        40    973.7343    913.5551 300.2007496 +22.9318804      224.468     69.95424      1.035     1.89    -5.700747     19.73622     62.77678         5     0.669     0.466 -20.96   0
        41    479.4770    912.9410 300.0470040 +22.7834049     172.5302     70.00767      1.029     3.74    -5.583656     19.73622     32.24378         6     0.806     0.498  86.63   0
        42    642.5989    911.7296 300.0981688 +22.8320177     293.5536     69.88293      0.931     2.02    -5.575688     19.73622     55.02628         5     0.664     0.469  72.26   0
        43    828.7371    908.1807 300.1573025 +22.8868478     504.0921     69.93642      0.924     1.98    -5.424436     19.73622     101.9218         7     0.690     0.590 -33.91   0
        44    876.9199    899.4708 300.1751538 +22.8988008     294.1523     70.06107      0.925     1.71    -5.408559     19.73622     79.64855         6     0.686     0.498   3.55   0
        45    728.3243    898.4231 300.1291964 +22.8539230     425.7644     69.98986      0.842     2.01    -5.414275     19.73622     78.46799         7     0.754     0.559 -69.47   0
        46    441.0333    894.9679 300.0408946 +22.7667097     2462.256     69.98986      1.087     1.68    -5.259279     19.73622     600.2277        18     0.834     0.809 -81.48   0
        47    739.7728    895.4338 300.1337355 +22.8565001     315.5414     69.97205      1.113     2.53    -5.379286     19.73622     71.48433         8     0.848     0.626 -17.08   0
        48    166.1446    880.6272 299.9601020 +22.6800534     392.3643     69.95424      1.084     2.25     -3.65973     19.73622      80.0397         8     0.774     0.646  88.05   0
        49    143.2786    877.7073 299.9539481 +22.6723483     1028.129     70.07885      1.229     2.21    -4.017435     19.73622     165.4279        16     1.184     0.925  60.29   0
        50   1015.0137    866.6251 300.2288992 +22.9307838     1325.652     69.95424      0.981     1.56    -5.279421     19.73622     282.0583        11     0.746     0.647 -76.48   0
        51     18.1268    867.1892 299.9185008 +22.6317378      252.366     69.97205      1.009     2.73    -5.085694     19.73622     48.44663         5     0.856     0.417  47.19   0
        52    969.2263    865.1071 300.2151152 +22.9166185     1287.877     69.90076      1.023     1.57    -5.258315     19.73622     309.2032        11     0.764     0.691  51.59   0
        53    752.8450    858.8955 300.1497006 +22.8499360      333.158     69.97205      0.927     1.75    -5.089561     19.73622     81.45007         6     0.660     0.543  36.67   0
        54    620.8783    853.0040 300.1105213 +22.8086510     2813.065     69.86509      1.080     1.69    -5.059346     19.73622     640.3428        18     0.818     0.811  54.57   0
        55    110.8093    853.7162 299.9516692 +22.6557195     311.0611     69.90076      1.187     2.94    -4.849912     19.73622     46.82525         5     0.740     0.435  11.46   0
        56    423.1609    850.2912 300.0498761 +22.7485316      345.985     69.95424      1.112     2.30    -5.151902     19.73622     64.02592         8     0.821     0.609 -13.71   0
        57    171.2316    846.9785 299.9726332 +22.6719365     831.7255     69.95424      1.192     2.03    -4.924842     19.73622     160.0709        10     0.821     0.736 -87.50   0
        58    641.4142    845.6133 300.1193204 +22.8126924     374.7388     69.88293      1.050     2.32    -5.052588     19.73622     83.32328         7     0.757     0.607  64.21   0
        59    190.2074    844.3400 299.9793881 +22.6768793     274.4388     69.91859      1.155     3.40    -5.006007     19.73622     45.47287         7     0.848     0.608  81.11   0
        60    796.9368    832.6741 300.1719709 +22.8556363     2478.835     69.98986      1.033     1.60    -5.050576     19.73622     551.2748        16     0.924     0.751 -89.69   0
        61   1013.8068    832.7980 300.2395327 +22.9207079     665.1406     69.77583      1.016     1.72    -5.162617     19.73622     166.6252         9     0.745     0.653   5.52   0
        62    160.4587    823.2524 299.9770066 +22.6619001     619.0352     70.00767      1.008     1.86     -5.00236     19.73622     112.7886         7     0.692     0.589  12.87   0
        63    575.4562    818.5889 300.1075814 +22.7851466     199.3124     69.93642      1.014     3.70    -4.968439     19.73622     53.93233         6     0.936     0.421  71.47   0
        64    310.0875    815.5682 300.0260118 +22.7046279     31098.98     69.91859      1.117     1.87    -5.231096     19.73622     5331.287        63     1.097     1.029  64.67   0
        65    567.6806    814.4005 300.1065241 +22.7816116     910.2875      69.8294      0.983     1.45    -4.955759     19.73622     203.7649        11     0.770     0.696  20.86   0
        66    980.6417    813.4987 300.2354712 +22.9052220     412.2263     69.93642      0.886     1.62    -5.102806     19.73622     109.5629         6     0.686     0.479 -86.99   0
        67    238.5218    813.6941 300.0043750 +22.6826025     340.1476     70.07885      0.982     2.26    -5.200601     19.73622     51.67081         5     0.668     0.481  73.21   0
        68    596.7159    810.4213 300.1168569 +22.7891825     609.5369     69.90076      1.034     1.71    -4.945614     19.73622     126.1029         7     0.693     0.574  77.20   0
        69    607.5971    808.7365 300.1207925 +22.7919640     130.2139     69.93642      0.964     2.31    -4.943079     19.73622      51.9055         5     0.696     0.453  69.26   0
        70    750.8060    795.2351 300.1697825 +22.8310526     374.7551     69.95424      0.988     1.90    -4.946476     19.73622     84.87255         6     0.679     0.533 -30.16   0
        71    374.0856    793.2789 300.0531643 +22.7174486     1260.336     70.09663      1.135     1.83    -5.194674     19.73622     235.0938        14     0.957     0.734  80.43   0
        72    359.7965    792.7850 300.0488813 +22.7130176     18578.02     69.81155      1.141     1.87    -5.208508     19.73622     3529.444        48     1.053     0.988  56.33   0
        73    882.7340    788.4393 300.2131024 +22.8686687     1717.979     69.91859      1.013     1.61    -4.938548     19.73622     359.9842        15     0.831     0.785  43.39   0
        74    249.3639    791.2585 300.0150446 +22.6794253      233.145     69.95424      1.990     3.39    -5.160028     19.73622     31.01234         5     0.754     0.441  71.65   0
        75    640.6554    784.5862 300.1389428 +22.7949525     555.2893     69.95424      0.997     2.65    -4.829232     19.73622     91.88806         6     0.814     0.467  82.56   0
        76    242.1408    784.5417 300.0149848 +22.6753306     454.9541     70.02547      1.169     2.83    -5.099161     19.73622     76.73293        10     0.867     0.783  16.27   0
        77    487.9632    779.4794 300.0930782 +22.7476701     533.2182     69.90076      1.090     2.15     -5.03851     19.73622     90.29839         8     0.782     0.604  77.86   0
        78    888.8898    776.2377 300.2189913 +22.8670111     277.4851     69.93642      0.911     2.03     -4.86649     19.73622     89.59495         7     0.747     0.605 -73.81   0
        79    433.7885    774.2706 300.0779184 +22.7299169     193.5276     69.97205      1.120     2.70    -5.124867     19.73622     63.66661         6     0.867     0.476  43.96   0
        80     75.6311    773.6164 299.9668045 +22.6221954     368.1334     69.93642      1.051     3.77    -5.077691     19.73622      46.2222         6     0.880     0.477  84.18   0
        81    866.5714    771.0159 300.2137340 +22.8588193       274.28     69.95424      1.159     1.76    -4.822691     19.73622      52.7123         6     0.706     0.495  88.53   0
        82    239.6880    768.8204 300.0193370 +22.6700864     201.4923     69.88293      0.958     2.26    -4.963928     19.73622     67.08271         5     0.729     0.426  72.09   0
        83    532.9200    757.5342 300.1142075 +22.7548648     367.4715     70.06107      1.155     1.98    -4.701946     19.73622     55.58222         6     0.714     0.499  -0.42   0
        84    949.1025    753.6549 300.2451095 +22.8785800     2511.036     70.04327      1.007     1.64    -4.677909     19.73622     574.8402        16     0.834     0.733  63.49   0
        85    554.7565    754.8876 300.1218646 +22.7606576     691.9877     69.95424      1.015     1.83    -4.595354     19.73622     158.9617         8     0.707     0.615 -74.72   0
        86    937.4616    745.0210 300.2442890 +22.8726103     1075.423     69.91859      1.063     1.90    -4.645131     19.73622     187.2443        12     0.817     0.774  -0.20   0
        87    300.7864    739.0824 300.0480035 +22.6799015     466.8675     69.93642      1.335     3.13    -5.080131     19.73622     81.05914        11     1.005     0.787  -8.75   0
        88    763.7504    736.4036 300.1929557 +22.8180467     1359.796     69.95424      1.050     1.72    -4.480732     19.73622     264.4457        13     0.794     0.759 -49.06   0
        89    968.7198    735.1104 300.2572591 +22.8791351     953.3568     70.07885      1.016     1.82    -4.451263     19.73622     195.5875        10     0.769     0.640 -68.85   0
        90    846.4692    722.3553 300.2232997 +22.8388191     338.8279     69.91859      1.145     2.85    -4.525895     19.73622     82.94835         8     1.055     0.497  41.51   0
        91    149.2426    723.0120 300.0061318 +22.6297948     385.8484     69.95424      1.167     2.56    -4.971989     19.73622     61.51969         8     0.811     0.634  50.46   0
        92    882.3148    713.3254 300.2374090 +22.8469739     86158.73     70.06107      1.044     1.69    -4.491365     19.73622     17172.54       101     1.109     1.035  72.08   0
        93    734.8015    713.8621 300.1912703 +22.8028932       423.28     69.91859      1.171     2.30     -4.38121     19.73622     71.11502         8     0.777     0.634 -59.15   0
        94    487.3393    714.5386 300.1140096 +22.7288509     189.8974     69.98986      0.992     3.03    -4.827668     19.73622     39.07365         5     0.709     0.484 -13.21   0
        95    915.2341    705.9736 300.2500618 +22.8547321     210.1085     69.97205      0.977     3.42    -4.443808     19.73622     66.61636         6     1.028     0.409  59.99   0
        96    568.6529    702.2944 300.1432978 +22.7497344     917.1111     70.02547      1.076     2.02    -4.365446     19.73622     168.2964        12     0.863     0.742  78.30   0
        97    749.8516    699.5085 300.2006272 +22.8032860      5455.47     70.00767      1.075     1.79    -4.361423     19.73622     997.1211        27     0.979     0.869  80.91   0
        98    251.4709    694.8666 300.0470543 +22.6524164     2863.058     69.98986      1.145     2.11    -4.607774     19.73622     441.5713        21     0.947     0.886  73.99   0
        99    333.6286    693.0555 300.0731852 +22.6765582     595.7607     69.95424      1.219     2.76    -4.939555     19.73622      123.384        10     0.960     0.677   9.58   0
       100    541.7115    688.6035 300.1393652 +22.7377226     444.3807     69.86509      1.224     4.27    -4.415527     19.73622     60.68229        10     1.271     0.624 -66.17   0
       101    533.3589    680.5129 300.1393968 +22.7328949     1797.773     69.93642      1.130     2.22    -4.429747     19.73622     264.9886        18     0.970     0.839 -81.71   0
       102    523.5496    674.2463 300.1383821 +22.7281535     892.5686     69.98986      1.188     2.37    -4.432487     19.73622     140.7433        13     0.980     0.829 -84.83   0
       103    916.9441    671.9047 300.2616759 +22.8454597     296.3734     70.00767      1.074     2.89     -4.25687     19.73622     53.12858         5     0.675     0.517 -88.37   0
       104    186.9909    670.8309 300.0348310 +22.6261662     502.1899     69.93642      1.069     3.12    -4.668252     19.73622     75.63508         8     0.900     0.634  58.96   0
       105    201.1977    669.1782 300.0397833 +22.6299573     305.9709     69.90076      1.143     2.39    -4.630147     19.73622     64.07468         9     0.863     0.631 -67.20   0
       106    226.6532    665.7851 300.0487978 +22.6366259     328.7354     69.97205      1.268     4.67    -4.557724     19.73622     51.03985         8     0.932     0.701  47.10   0
       107    970.5523    665.1342 300.2805917 +22.8595844     275.5436     69.97205      1.114     2.48    -4.218075     19.73622     46.42554         5     0.719     0.439 -65.77   0
       108    448.3549    664.2015 300.1182514 +22.7027098      905.424     69.95424      1.091     2.11    -4.414512     19.73622     182.7147        13     0.824     0.812  15.17   0
       109    102.4902    659.1439 300.0123778 +22.5974446     11617.05     70.00767      1.167     2.02    -4.665053     19.73622     1742.099        42     1.081     0.991  61.68   0
       110   1023.7336    661.1023 300.2984876 +22.8743658     249.7532      54.1449      0.792     1.45    -4.162959     19.73622     132.6542         5     0.645     0.416 -72.36  24
       111     23.0841    660.5287 299.9872658 +22.5739973     297.9309     70.06107      0.937     2.02    -4.411101     19.73622     69.60156         6     0.719     0.497  -5.28   0
       112    533.4102    659.2356 300.1463323 +22.7268039     616.9177     69.95424      1.319     2.32    -4.236476     19.73622     95.42862        10     0.885     0.688   7.57   0
       113    951.1119    645.1704 300.2810225 +22.8480225     569.4454     69.95424      1.018     1.62    -4.172261     19.73622     154.6253         8     0.679     0.601 -82.17   0
       114     48.3519    643.3005 300.0007142 +22.5766460     932.5596     69.98986      1.642     4.46     -4.32369     19.73622      87.2307        16     1.478     0.711 -87.55   0
       115    818.2105    643.1967 300.2402390 +22.8076145     260.8171     69.77583      1.340     2.32    -4.170845     19.73622     52.67178         6     0.709     0.560  46.47   0
       116    496.6660    639.9457 300.1411702 +22.7102443     183.7566     70.00767      1.009     3.69     -4.05338     19.73622     37.85639         5     0.813     0.483  37.33   0
       117    891.6302    638.0694 300.2647883 +22.8281528     333.1384     69.93642      0.983     2.37    -4.211643     19.73622     67.13047         7     0.808     0.544  54.78   0
       118    453.3594    632.1758 300.1302221 +22.6950216     395.0437     69.98986      1.195     2.26    -4.094073     19.73622     65.44044         7     0.750     0.601 -72.87   0
       119    648.6063    629.0003 300.1920245 +22.7526793     236.4151     69.77583      1.108     2.07    -3.889868     19.73622     57.17273         6     0.747     0.488 -86.87   0
       120    619.3576    628.9371 300.1829382 +22.7438888     370.4441     69.95424      1.527     2.98    -3.804189     19.73622     49.40256         5     0.744     0.432 -70.00   0
       121    497.7018    628.0748 300.1453524 +22.7071483     591.1478     70.07885      1.205     2.91    -3.893417     19.73622     87.39491         9     0.918     0.678  16.70   0
       122    931.3495    623.2732 300.2819816 +22.8358086     1897.842     69.97205      1.057     1.83    -4.172489     19.73622     364.0182        15     0.840     0.774 -69.09   0
       123    463.2106    623.5682 300.1360857 +22.6955071     849.0156     69.95424      1.162     2.30    -3.958173     19.73622     129.1015        12     0.855     0.751 -53.40   0
       124     25.2711    617.3990 300.0019676 +22.5622893     2887.324     69.86509      1.154     2.07    -3.830589     19.73622     464.1592        19     0.950     0.866  58.01   0
       125    326.6122    610.3749 300.0978884 +22.6507337      5288.84     69.95424      1.187     2.12    -4.203784     19.73622     784.4509        28     1.049     0.945  72.33   0
       126    449.0280    607.3257 300.1369541 +22.6865908     5187.646     69.97205      1.214     2.12    -3.886571     19.73622     822.6641        26     0.987     0.939  40.98   0
       127    787.1068    607.9172 300.2420188 +22.7881572     3402.805     70.11442      0.432     1.70    -3.963594     19.73622     2724.014         5     0.331     0.282 -43.52   0
       128    860.6382    601.1581 300.2671303 +22.8082601     1076.896     70.04327      1.045     1.83    -4.123793     19.73622     215.5944        12     0.813     0.712 -82.18   0
       129    945.1716    598.3953 300.2943799 +22.8328046     7390.122     69.91859      1.088     1.79    -4.085325     19.73622      1352.66        31     0.982     0.902  50.75   0
       130    509.5787    596.8555 300.1591984 +22.7017511     6656.888     69.97205      1.195     2.02    -3.624525     19.73622     1099.471        29     1.043     0.923  49.83   0
       131    679.3324    593.0362 300.2132857 +22.7515683     277.8235     69.95424      1.297     4.10    -3.787595     19.73622       64.381         9     1.331     0.647  58.30   0
       132    236.9707    592.2843 300.0759018 +22.6186410     868.0261     69.95424      1.247     2.60    -4.282642     19.73622     120.9068        12     0.886     0.842 -58.80   0
       133    483.9554    590.0659 300.1534324 +22.6921158     266.2212     69.95424      1.233     2.16    -3.628472     19.73622     45.94104         5     0.592     0.587  44.92   0
       134    441.2982    585.0837 300.1417802 +22.6778887     2629.724     70.11442      1.220     2.16    -3.831541     19.73622     375.1093        21     0.986     0.910  70.99   0
       135    783.8910    584.7668 300.2485435 +22.7805445     502.3392     69.91859      1.303     2.69    -3.798978     19.73622     96.83547        11     0.982     0.721  57.93   0
       136    419.6352    583.4861 300.1355605 +22.6709309     710.6765     69.93642      1.335     2.47    -3.926002     19.73622     90.60406        11     0.875     0.757  40.56   0
       137    174.0062    582.9850 300.0593568 +22.5970746     404.7323     69.86509      1.223     2.37     -4.41379     19.73622     74.40018         9     0.797     0.710 -88.80   0
       138    860.7521    580.2416 300.2739660 +22.8022861     834.6963     69.98986      1.359     2.62    -4.060928     19.73622     123.4705        15     1.050     0.806 -77.25   0
       139    557.8481    572.5945 300.1821080 +22.7092659     119020.6     69.93642      1.246     2.13    -3.593803     19.73622     19084.26       134     1.263     1.229  87.94   0
       140    741.2837    577.7057 300.2375653 +22.7657422     517.5336     70.13219      1.259     3.95    -3.717154     19.73622     82.40932         7     0.940     0.638 -83.38   0
       141    244.0478    572.6671 300.0844784 +22.6151376     2038.164     69.95424      1.157     1.99    -4.242901     19.73622     361.9347        18     0.922     0.843  54.67   0
       142    809.7366    568.4415 300.2619038 +22.7836039     435.8251     69.93642      1.214     2.23    -3.741142     19.73622     59.14605         7     0.764     0.611  71.33   0
       143    448.4852    553.0042 300.1544439 +22.6708380      1704.57     69.88293      1.331     2.27     -3.65149     19.73622     237.6785        20     1.160     0.847 -88.50   0
       144    859.8335    548.8293 300.2838912 +22.7929872     204.0551     69.97205      1.041     2.51    -3.961241     19.73622      51.2255         5     0.845     0.407  45.15   0
       145    845.2524    539.0001 300.2825418 +22.7857930     1153.339     69.90076      1.200     1.96    -3.810822     19.73622     175.0414        14     1.024     0.727 -78.22   0
       146    716.4830    536.7039 300.2431682 +22.7465314      1440.24     70.11442      1.136     2.13    -3.493432     19.73622     233.6911        16     0.954     0.855  83.93   0
       147    961.2733    534.1095 300.3202988 +22.8191595     250.6552     70.11442      1.282     2.61    -3.945993     19.73622     57.00719         5     0.771     0.398  72.31   0
       148    926.0206    533.2505 300.3095867 +22.8083484     240.0064     69.95424      1.048     3.42    -4.006032     19.73622     41.01924         5     0.804     0.489  60.37   0
       149    621.2464    533.4698 300.2145615 +22.7170466     255.0364     69.93642      1.148     2.43     -3.53541     19.73622     46.60924         5     0.713     0.458 -21.30   0
       150    503.8522    532.6125 300.1782992 +22.6815931     560.6246     69.98986      1.632     3.34    -3.576786     19.73622     66.40531        10     0.956     0.809  25.54   0
       151    973.8073    530.4288 300.3254034 +22.8218578       771.88     69.95424      1.020     1.88    -3.902437     19.73622     130.0271         9     0.754     0.615  53.94   0
       152    959.4056    529.5499 300.3211985 +22.8172897     415.0537     69.93642      1.019     2.01    -3.933155     19.73622     76.15656         5     0.648     0.470 -71.34   0
       153    845.6824    528.9890 300.2859298 +22.7830460     1333.173     69.91859      1.352     3.62    -3.765194     19.73622      199.176        14     1.276     0.720  72.08   0
       154    599.2075    527.1627 300.2097500 +22.7086267     441.8626     69.97205      1.233     2.76    -3.536895     19.73622     61.47334         7     0.716     0.652  38.30   0
       155    437.1871    526.1917 300.1596436 +22.6597532     275.8898     69.84724      1.282     1.92    -3.621629     19.73622     42.59204         5     0.900     0.682   1.19   0
       156    883.6878    524.0132 300.2993926 +22.7930075     2379.019     69.90076      1.099     1.80    -3.871997     19.73622     481.0605        17     0.880     0.774 -85.62   0
       157    544.6207    520.1880 300.1950250 +22.6902538     250.7463     69.93642      0.999     2.35    -3.576786     19.73622     45.66592         5     0.719     0.438 -68.53   0
       158    975.3836    514.3201 300.3311308 +22.8177011     515.0873     69.97205      1.119     2.23    -3.842015     19.73622     85.03442         8     0.829     0.600 -87.07   0
       159    116.1272    514.7991 300.0635353 +22.5601440     563.3009     69.84724      1.250     2.27    -4.211602     19.73622     79.91959         8     0.745     0.649  75.78   0
       160    716.1174    498.6996 300.2554060 +22.7355069     295.5407     70.11442      1.254     2.44    -3.486421     19.73622     55.52847         6     0.724     0.606  52.81   0
       161    657.0029    494.5834 300.2383331 +22.7166016     447.8919     69.86509      1.206     2.83    -3.475627     19.73622     74.28323         7     0.892     0.619   6.72   0
       162    718.0135    486.8398 300.2598507 +22.7326689     441.0621     69.97205      1.228     2.75    -3.484207     19.73622     92.40968        10     1.003     0.612 -65.31   0
       163    971.9476    486.9044 300.3389694 +22.8087930     347.6022     70.02547      1.068     1.95     -3.74426     19.73622     73.59678         6     0.682     0.553  51.30   0
       164    875.2808    483.0023 300.3101004 +22.7787049     517.6888     69.86509      1.101     1.98     -3.57061     19.73622     94.91282         7     0.677     0.626 -89.51   0
       165    859.4828    479.2883 300.3063834 +22.7729033     431.9709     70.06107      1.120     2.32    -3.522617     19.73622     56.82703         6     0.663     0.609  18.95   0
       166    603.7932    477.4370 300.2273375 +22.6957235     1903.384     69.97205      1.243     2.21    -3.418453     19.73622     302.5717        21     1.032     0.965  59.60   0
       167    964.6418    475.9001 300.3402673 +22.8034415     276.4704     69.93642      1.086     3.03    -3.715675     19.73622      60.6755         7     0.856     0.573 -53.88   0
       168   1014.9125    456.2538 300.3623284 +22.8128563      820.588     69.98986      1.134     1.94    -3.744959     19.73622     172.0201        10     0.794     0.674  49.43   0
       169    886.7962    455.9449 300.3224822 +22.7743812     249.1919     69.91859      0.975     1.99    -3.570067     19.73622     64.36736         6     0.702     0.536  44.92   0
       170    973.4176    454.8820 300.3498336 +22.8000304      609.728     69.91859      1.155     2.43    -3.699548     19.73622     102.5342         9     0.833     0.696  70.32   0
       171    714.4373    451.3357 300.2702735 +22.7213988     695.7407     69.95424      1.261     2.65    -3.484415     19.73622     96.66331        13     0.915     0.850  81.71   0
       172    218.4380    449.7598 300.1164595 +22.5721900     357.5348     70.02547      1.135     2.96     -3.50366     19.73622     64.78041         8     0.892     0.628 -73.37   0
       173    280.7785    445.5114 300.1372181 +22.5896756     2093.916     69.88293      1.251     2.23    -3.234976     19.73622     318.6381        21     1.060     0.896  44.35   0
       174   1013.6905    443.5854 300.3660636 +22.8088489     2562.356     69.88293      1.065     1.86    -3.754593     19.73622     459.6148        17     0.884     0.796 -67.13   0
       175    228.0641    440.3275 300.1225157 +22.5723719     4426.475     69.98986      1.260     2.31    -3.425707     19.73622     612.1911        24     1.031     0.924 -87.70   0
       176    368.8053    434.5134 300.1681630 +22.6129263     2815.148     69.88293      1.277     2.31    -3.129205     19.73622     377.7358        22     1.089     0.893  77.24   0
       177    993.7405    434.7098 300.3627256 +22.8003212     1122.696     70.04327      1.085     1.91    -3.723569     19.73622     201.9969        12     0.764     0.732  44.90   0
       178    612.9187    431.1084 300.2452314 +22.6851551     10652.21     70.07885      1.288     2.30    -3.413336     19.73622     1506.047        39     1.104     1.037  60.53   0
       179    630.6995    431.2861 300.2507098 +22.6905369     484.3185     70.11442      1.751     5.49    -3.434265     19.73622     46.91179        10     1.350     0.765 -56.66   0
       180    946.5121    413.3278 300.3549453 +22.7800264     419.3257     70.09663      1.097     3.38    -3.579655     19.73622     63.73885         5     0.730     0.475 -73.66   0
       181    167.9230    411.4587 300.1132033 +22.5460426     1175.463     69.98986      1.251     2.39     -3.60819     19.73622     164.8277        16     0.946     0.915  14.93   0
       182    553.6315    400.5845 300.2366912 +22.6586135     3739.877     69.93642      1.248     2.26    -2.935683     19.73622     545.9209        25     1.052     0.936  71.87   0
       183    967.0771    400.6822 300.3654659 +22.7825527      690.156     70.06107      1.051     2.02    -3.593627     19.73622      125.308         7     0.669     0.648 -26.86   0
       184    268.2274    400.1929 300.1480380 +22.5729043     366.1894     69.95424      1.190     3.36    -3.117189     19.73622     57.68214         8     0.889     0.679 -59.71   0
       185    126.0316    393.5757 300.1059959 +22.5283412     176.6956     69.95424      1.270     2.90     -3.69293     19.73622     37.52034         5     0.745     0.583 -85.15   0
       186    813.1779    392.7384 300.3200729 +22.7341582     179.8866     69.93642      1.242     3.82    -3.471094     19.73622     31.35933         5     0.918     0.455 -47.12   0
       187    757.7472    389.4611 300.3038665 +22.7166049     749.5051     70.00767      1.283     2.42      -3.5097     19.73622     105.8578        11     0.876     0.770  72.62   0
       188    460.2950    386.9072 300.2120876 +22.6266988      3498.23     70.11442      1.288     2.29    -3.067495     19.73622     457.9013        28     1.112     1.010  86.99   0
       189    949.4026    381.1842 300.3662885 +22.7716534     310.6024     69.81155      1.029     2.36    -3.451358     19.73622        65.37         5     0.701     0.457  70.48   0
       190    852.0704    380.8936 300.3360411 +22.7424087     908.5825     70.07885      1.261     2.12    -3.375587     19.73622     153.3574        11     0.833     0.759 -66.36   0
       191    444.9134    375.4463 300.2110246 +22.6187955     221.7126     69.93642      0.957     2.28    -2.999948     19.73622     52.87814         5     0.707     0.447 -23.32   0
       192    824.6761    368.9694 300.3313768 +22.7307735      312.231     69.95424      1.213     3.64    -3.410686     19.73622     56.12799         7     0.962     0.601 -67.85   0
       193    347.8438    366.2397 300.1838211 +22.5870407     1463.438     70.04327      1.261     2.29    -3.000619     19.73622     227.5354        16     0.931     0.864  85.05   0
       194     66.3205    363.9143 300.0970806 +22.5019127     576.9953     70.11442      1.116     1.96    -3.745943     19.73622     100.1672         7     0.683     0.628 -84.41   0
       195    317.1490    355.6107 300.1777281 +22.5747830      17289.4     69.97205      1.295     2.37    -2.984114     19.73622      2284.85        50     1.187     1.080  67.94   0
       196    851.7075    352.7159 300.3450803 +22.7342020     790.5502     70.13219      1.172     2.10    -3.264528     19.73622     149.3951        14     0.976     0.779 -86.07   0
       197     13.5448    343.5704 300.0872968 +22.4802382      2920.62     69.95424      1.208     2.25    -3.738183     19.73622     376.1754        22     1.024     0.920  37.83   0
       198    766.8839    341.8592 300.3221742 +22.7056655     394.7041     70.06107      1.415     3.61    -3.436798     19.73622     41.84857         6     0.907     0.464 -52.92   0
       199    415.6169    340.5292 300.2132506 +22.5999846     182.5526     69.97205      1.237     3.65    -2.977363     19.73622     49.56831         5     0.960     0.499  -0.76   0
       200    727.4642    335.1699 300.3120662 +22.6919304     1131.581     69.97205      1.337     2.37    -3.339714     19.73622     137.9275        15     0.935     0.852  65.72   0
       201    536.0115    329.7272 300.2542206 +22.6329810     211.1564     69.97205      1.366     4.87    -2.845233     19.73622     33.67939         6     1.044     0.644 -56.04   0
       202    942.5207    327.7903 300.3814849 +22.7542436     213.8754     69.91859      1.180     3.41    -3.304974     19.73622     43.53012         7     0.990     0.495  41.14   0
       203    389.4183    320.1460 300.2117203 +22.5862757     1262.006     69.93642      1.454     3.10    -3.003585     19.73622     135.0087        16     1.078     0.906  75.19   0
       204    828.4135    312.8327 300.3507731 +22.7157604     489.5806     69.95424      1.386     3.02    -3.131006     19.73622     52.90719         8     0.872     0.635  38.37   0
       205    710.6758    310.0591 300.3149913 +22.6796841     250.2928     70.00767      1.179     3.23    -3.098639     19.73622     44.67201         5     0.792     0.484  41.56   0
       206    465.0762    299.2317 300.2420483 +22.6029558      725.085     69.95424      1.336     2.55    -2.912591     19.73622     89.68854        11     0.849     0.772  18.87   0
       207    848.4536    292.2172 300.3637129 +22.7158390      208.726     69.93642      1.050     3.35    -3.002889     19.73622     32.10274         5     0.734     0.456  69.76   0
       208    709.8159    291.1268 300.3208710 +22.6739865     1437.815     69.95424      1.337     2.48    -3.000646     19.73622     193.7995        16     0.989     0.853   7.32   0
       209    971.1699    285.2309 300.4042384 +22.7505893     1901.997     69.95424      1.200     2.22    -3.425759     19.73622     300.5438        17     0.926     0.857 -57.24   0
       210    418.3342    275.1120 300.2353371 +22.5820147     310.0068     70.04327      1.278     2.62    -3.006363     19.73622     53.06482         7     0.780     0.611 -72.16   0
       211    123.8304    269.3983 300.1456348 +22.4920478     411.1988     69.91859      1.235     2.58    -3.041136     19.73622     64.89801         9     0.890     0.679  31.59   0
       212     93.3931    269.1277 300.1362668 +22.4828386      764.671     69.91859      1.513     3.99    -3.111172     19.73622     86.97029        16     1.253     0.961 -13.02   0
       213    177.0064    261.0269 300.1648754 +22.5055970     343.0647     69.95424      1.235     3.28    -2.973968     19.73622     53.30087         7     0.873     0.626 -71.70   0
       214    781.7298    252.3146 300.3558756 +22.6843802     364.4763     70.06107      1.314     3.89    -2.997187     19.73622     47.32841         9     0.897     0.856 -56.65   0
       215    879.6584    241.3826 300.3899437 +22.7105737     1074.179     69.90076      1.174     2.51    -3.027297     19.73622     154.2984        14     0.963     0.778  77.96   0
       216    298.3654    239.0262 300.2097408 +22.5356795     1152.566     69.97205      1.231     2.54    -3.018594     19.73622     162.6613        14     0.991     0.762  88.37   0
       217    376.1478    234.0789 300.2355353 +22.5575823     656.3677     69.95424      1.623     4.07    -3.098673     19.73622     67.20383        12     1.117     0.704   7.46   0
       218    778.5158    233.3102 300.3610437 +22.6779551     310.7205     70.09663      1.057     2.77    -2.998452     19.73622     43.29327         5     0.703     0.463 -69.06   0
       219    193.0984    225.9639 300.1812579 +22.5003591     389.9691     69.95424      1.257     3.41    -2.923781     19.73622     51.34386         9     0.905     0.710 -22.23   0
       220    730.8715    222.7598 300.3496251 +22.6606485     1025.796     69.93642      1.377     2.77    -3.013378     19.73622     134.6984        14     0.955     0.874   3.41   0
       221    795.7820    222.2325 300.3700196 +22.6799435     306.5364     69.93642      1.266     3.45    -2.987389     19.73622     46.43586         7     0.842     0.617  56.68   0
       222    214.2390    219.6277 300.1898850 +22.5048808     251.6874     69.98986      1.189     3.51    -2.942538     19.73622     46.70623         6     0.737     0.630  47.61   0
       223   1002.2366    215.0768 300.4367026 +22.7397203     447.4014     69.91859      1.204     2.78    -3.160251     19.73622     68.74075         7     0.725     0.646  78.11   0
       224    735.1575    214.2790 300.3537132 +22.6594952     431.9561     69.93642      1.248     2.00    -3.001136     19.73622     62.55635         6     0.689     0.548  50.42   0
       225    655.5326    213.6408 300.3291199 +22.6354541     617.4979     69.93642      1.268     2.74    -2.979483     19.73622     93.34452        12     0.906     0.823  -4.38   0
       226    581.5024    205.6275 300.3086708 +22.6109669     558.1123     69.90076      1.260     3.30    -2.894789     19.73622     80.82624        11     1.065     0.762  24.77   0
       227    862.9384    204.0634 300.3968463 +22.6948367     403.9712     69.98986      1.164     2.36    -2.969358     19.73622     91.01489        11     0.948     0.680 -89.38   0
       228    850.8112    204.9557 300.3927768 +22.6914609     752.8456     69.95424      1.186     2.13    -2.968946     19.73622     143.0212        11     0.916     0.741 -29.35   0
       229   1023.4730    194.9189 300.4498692 +22.7402817     818.7185     55.62112      0.976     1.87    -2.994631     19.73622     182.0778         9     0.845     0.587 -81.48  24
       230    979.4690    194.0942 300.4364129 +22.7268686      690.639     70.07885      1.111     2.48    -2.944521     19.73622     96.91627        12     0.940     0.710  64.86   0
       231      3.3783    191.5157 300.1335005 +22.4335602      348.852      64.2904      1.231     3.60    -2.998661     19.73622     44.63156         7     0.850     0.668   9.66  16
       232    213.8895    187.6511 300.2001544 +22.4955958     527.0493     69.97205      1.317     2.58    -2.891891     19.73622     65.93535         9     0.828     0.697 -69.92   0
       233     75.5451    182.5009 300.1588393 +22.4526230     1334.962     70.04327      1.276     2.39     -2.81778     19.73622     173.8125        17     0.993     0.900  47.37   0
       234    898.7410    179.1835 300.4160818 +22.6984061     383.6123     69.91859      1.144     2.16    -2.863296     19.73622      67.9024         8     0.761     0.638  32.30   0
       235    232.9735    175.9681 300.2098776 +22.4979645     3317.564     69.95424      1.327     2.38     -2.88918     19.73622     495.1573        25     1.098     0.958  89.01   0
       236     17.1768    170.4511 300.1446211 +22.4316549     783.1084     69.95424      1.257     2.47    -2.797471     19.73622     113.6302        13     0.926     0.870  77.63   0
       237    216.4492    166.6059 300.2077794 +22.4903212     303.3255     69.93642      1.291     2.49    -2.859136     19.73622     65.40462         6     0.827     0.491  83.33   0
       238    876.9258    157.0817 300.4164542 +22.6855178     2163.417     70.06107      1.249     2.12    -2.863427     19.73622     327.7094        23     1.014     0.968  82.07   0
       239    980.5928    155.8306 300.4491818 +22.7162008     1620.045     69.95424      1.189     2.13    -2.659454     19.73622       249.56        15     0.958     0.774  57.04   0
       240    426.1626    152.5014 300.2775691 +22.5491460     366.0917     69.95424      1.323     3.06    -2.999405     19.73622     45.32173         6     0.770     0.500   1.87   0
       241    350.3020    144.4111 300.2565976 +22.5240815     397.9561     69.84724      1.186     3.15    -2.989991     19.73622     57.69139         7     0.824     0.614  70.58   0
       242    116.9546    141.4915 300.1850105 +22.4532723     383.1693     69.93642      1.209     3.10    -2.744657     19.73622     62.18955         8     0.854     0.752  41.64   0
       243    477.7509    139.7798 300.2977481 +22.5609539     1057.774     69.93642      1.368     2.65    -2.832904     19.73622     138.2048        15     1.045     0.791  56.75   0
       244    405.8090    139.6030 300.2754226 +22.5393398     307.0669     69.77583      1.449     4.72    -2.947239     19.73622     39.55556         7     1.039     0.608  78.07   0
       245    221.1974    135.3356 300.2194019 +22.4827665     251.8035     69.95424      1.403     3.51    -2.818052     19.73622     34.97293         5     0.793     0.448  13.10   0
       246    251.8533    119.7115 300.2340004 +22.4874720     3339.554     69.97205      1.296     2.36    -2.821018     19.73622      500.567        25     1.077     0.938  84.33   0
       247    102.9774    119.3217 300.1878610 +22.4427159     463.3733     69.91859      1.206     2.46    -2.721011     19.73622     59.78293         7     0.703     0.659 -24.86   0
       248    497.8837    104.9893 300.3153012 +22.5569918     3693.746     69.91859      1.358     2.56    -2.705418     19.73622      495.925        28     1.089     1.056  29.66   0
       249    383.3935    104.8298 300.2797321 +22.5226320     434.2222     69.95424      1.377     3.10    -2.770605     19.73622     68.56847        10     0.898     0.801  71.24   0
       250    750.0480     94.2325 300.3973085 +22.6294478     602.0347     69.98986      1.483     3.47    -2.600893     19.73622     62.27882         9     0.889     0.758  14.76   0
       251    842.9948     93.0616 300.4266512 +22.6569477     265.1369     69.93642      1.243     3.69    -2.616194     19.73622     45.80106         5     0.661     0.592  89.78   0
       252    190.8925     88.8112 300.2250766 +22.4603203     289.9841     69.90076      1.248     2.14    -2.613028     19.73622     47.87066         6     0.715     0.539  56.25   0
       253    549.5516     87.7778 300.3369661 +22.5675285     355.7606     69.95424      1.384     2.64    -2.647358     19.73622     33.25417         5     0.712     0.453  68.09   0
       254    626.1951     84.9666 300.3617392 +22.5896838     3740.597     69.93642      1.331     2.42    -2.455227     19.73622      491.159        27     1.100     1.002  71.90   0
       255    401.1398     83.9499 300.2920260 +22.5219529     934.6003     70.00767      1.392     3.02    -2.672888     19.73622     106.8329        12     1.023     0.706  63.30   0
       256    667.3831     82.1168 300.3754898 +22.6012035     474.0275     69.91859      1.403     3.62    -2.387141     19.73622     54.34531        11     0.954     0.837 -60.01   0
       257    683.0532     78.3015 300.3816079 +22.6048008     434.2757     70.04327      1.234     3.35    -2.368418     19.73622     46.62277         7     0.715     0.692 -11.64   0
       258    150.0625     76.6548 300.2163316 +22.4445866     443.1508     70.02547      1.409     2.49     -2.46428     19.73622     65.99478         9     0.832     0.724  73.09   0
       259    953.0191     75.7931 300.4665530 +22.6849249     385.0547     69.91859      1.214     2.35     -2.67738     19.73622     65.43231         6     0.857     0.425  35.49   0
       260    721.7732     74.0456 300.3950491 +22.6151753     412.6704     69.97205      1.640     4.89    -2.399926     19.73622     40.12151         8     0.970     0.713  65.11   0
       261    670.4106     69.9615 300.3803759 +22.5986163      1403.61     69.95424      1.241     2.43    -2.307707     19.73622     191.5184        16     0.969     0.871  86.24   0
       262    685.8599     68.3951 300.3856956 +22.6027937     528.5566     69.91859      1.870     6.58    -2.303175     19.73622     46.23699        15     1.535     0.977  33.89   0
       263    756.8151     61.4123 300.4100638 +22.6220385     905.1785     69.90076      1.352     2.68    -2.306841     19.73622      119.877        14     0.950     0.855  -5.60   0
       264    694.9122     54.6407 300.3929768 +22.6015511     447.9127     69.93642      1.248     2.74    -2.219191     19.73622     68.29992         9     0.855     0.688 -74.55   0
       265    500.5751     54.2565 300.3325964 +22.5432202      668.306     69.95424      1.386     2.93    -2.588647     19.73622     79.25452        12     0.963     0.806  57.88   0
       266     73.3906     54.0605 300.1998396 +22.4151071     371.7404     69.91859      1.324     3.56    -2.716883     19.73622      56.1204         7     0.932     0.632  63.71   0
       267    404.2119     52.1886 300.3032843 +22.5137488     354.1601     69.84724      1.205     3.33    -2.595998     19.73622     66.51829         9     0.997     0.680  83.32   0
       268    786.4063     50.4384 300.4228434 +22.6277451     397.5358     69.98986      1.480     2.86    -2.208823     19.73622     47.94927         7     0.891     0.528  55.86   0
       269    743.8340     42.7765 300.4120646 +22.6127925     351.1342     69.97205      1.214     2.90    -2.146449     19.73622     66.69586         9     0.913     0.667   9.01   0
       270    175.7909     42.2376 300.2354900 +22.4424182       2300.5     69.97205      1.295     2.50    -1.943798     19.73622     285.7664        20     1.007     0.950  89.71   0
       271    736.9468     34.5737 300.4125795 +22.6083713     558.8099     69.97205      1.362     2.74    -2.075163     19.73622     69.88362        10     0.939     0.664 -69.03   0
       272    291.6704     34.3233 300.2740779 +22.4748848      636.207     70.06107      1.191     2.78    -2.591219     19.73622      81.3334        10     0.842     0.783 -77.84   0
       273    774.8279     29.4756 300.4260351 +22.6182498      325.949     69.95424      1.238     3.46    -2.021699     19.73622     57.85765         9     0.907     0.722  25.62   0
       274    698.0155     29.2856 300.4021675 +22.5951910     209.7173     69.91859      1.182     3.86    -2.027471     19.73622     37.98516         6     0.927     0.462  35.88   0
       275    794.8353     25.7232 300.4334864 +22.6231620     1322.293     69.91859      1.275     2.26    -1.994967     19.73622     190.8633        18     1.053     0.905 -68.84   0
       276    178.0064     21.0974 300.2430346 +22.4370115      470.743     69.86509      1.398     4.35    -1.652994     19.73622     72.25945        12     1.013     0.944 -87.40   0
       277    969.5812     19.0182 300.4901339 +22.6735509     321.7797     69.95424      1.148     2.38    -2.745176     19.73622     66.04647         8     0.760     0.669   7.51   0
       278    743.0688     18.3171 300.4197594 +22.6055304     489.8253     70.06107      1.224     2.67    -1.923682     19.73622     65.89989         7     0.784     0.662  70.53   0
