#   1 NUMBER                 Running object number                                     
#   2 X_IMAGE                Object position along x                                    [pixel]
#   3 Y_IMAGE                Object position along y                                    [pixel]
#   4 ALPHA_J2000            Right ascension of barycenter (J2000)                      [deg]
#   5 DELTA_J2000            Declination of barycenter (J2000)                          [deg]
#   6 FLUX_APER              Flux vector within fixed circular aperture(s)              [count]
#   7 FLUXERR_APER           RMS error vector for aperture flux(es)                     [count]
#   8 FLUX_RADIUS            Fraction-of-light radii                                    [pixel]
#   9 FWHM_IMAGE             FWHM assuming a gaussian core                              [pixel]
#  10 BACKGROUND             Background at centroid position                            [count]
#  11 THRESHOLD              Detection threshold above background                       [count]
#  12 FLUX_MAX               Peak flux above background                                 [count]
#  13 ISOAREA_IMAGE          Isophotal area above Analysis threshold                    [pixel**2]
#  14 A_IMAGE                Profile RMS along major axis                               [pixel]
#  15 B_IMAGE                Profile RMS along minor axis                               [pixel]
#  16 THETA_IMAGE            Position angle (CCW/x)                                     [deg]
#  17 FLAGS                  Extraction flags                                          
         1    633.0256     19.5521 300.3947048 +22.5626991     621.1497     70.23306      1.581     4.01    -2.028404     19.81488     59.57811        16     1.207     0.908  84.18   0
         2    453.5891     13.3234 300.3408710 +22.5071412     1234.137     70.23306      1.632     3.55    -1.704341     19.81488     104.7434        19     1.139     1.007  62.71   0
         3    100.8112     11.3526 300.2318267 +22.4008091     953.0354     70.25095      1.626     4.11    -2.866744     19.81488     84.48025        18     1.230     0.986  87.93   0
         4     68.9464   1022.2957 299.8934341 +22.6809748     1107.941     61.72073      6.529     9.29     4.824201     19.81488     49.65939        22     1.816     1.326 -11.15  27
         5    660.0393   1023.7681 300.0767652 +22.8589569     1425.862     54.12909      0.913     2.06    -4.508082     19.81488     439.5106        11     1.012     0.462   2.06  24
         6    243.1797   1023.3431 299.9472240 +22.7336348     805.6632     56.42476      7.156    11.01    0.9315249     19.81488     44.07936        17     2.982     1.132  21.24  26
         7    136.6232   1022.0299 299.9145415 +22.7012389     791.7175     62.83036      7.976     9.18     10.20385     19.81488      36.0668        14     2.065     1.138 -20.33  24
         8    120.6747   1010.2286 299.9134299 +22.6930672     1471.927     70.25095     10.272    12.42     8.510179     19.81488     55.87569        35     3.204     1.341   5.72  19
         9    106.3915   1012.9791 299.9080976 +22.6895621     1620.199     70.21516     17.574    29.33     8.933598     19.81488     43.03564       128     6.018     3.968 -74.69  27
        10     70.0799   1002.8213 299.9001271 +22.6757408     1756.873     70.19727     10.807    31.60     3.246847     19.81488     46.01704       150     6.492     4.270  86.73  19
        11     85.6030    991.1907 299.9087349 +22.6770766     2153.322     70.05394     15.564    51.96     4.321425     19.81488     59.14718       532    10.469     7.156  89.66  27
        12     91.9891   1021.5485 299.9008339 +22.6876867     2639.698     64.83797     14.458    21.96     9.243201     19.81488     73.95108       116     4.886     2.741 -26.36  27
        13    462.4877   1011.9884 300.0191157 +22.7962620     496.8238     70.17937      1.130     2.27    -4.265247     19.81488     83.64442         8     0.722     0.681  56.91   0
        14    393.1473   1010.0562 299.9981762 +22.7748822     3739.929     70.26883      1.238     2.03    -4.338816     19.81488     616.2153        25     0.991     0.970  15.39   0
        15    568.7100   1015.5475 300.0510105 +22.8291801     1017.037     70.26883      1.196     2.22    -5.254945     19.81488     133.9705        15     0.953     0.861 -69.24   0
        16    109.3622   1004.3581 299.9118274 +22.6879868     770.8144     70.32245      2.677     3.49     7.663341     19.81488     46.01051         5     1.167     0.301  19.34   1
        17    425.5362    996.8030 300.0125656 +22.7808136     215.4925     70.19727      0.989     4.41     -4.37972     19.81488     42.90857         7     0.866     0.639   8.35   0
        18    939.2542    988.4092 300.1752735 +22.9326165     1184.419     70.23306      1.107     1.99    -5.331619     19.81488     197.6266        12     0.838     0.772  62.94   0
        19     86.8425   1016.1028 299.9010086 +22.6845809     3172.927     70.23306     11.503    22.37     7.542398     19.81488     71.51968       152     4.172     3.330 -28.39  27
        20    727.8491    977.4670 300.1129599 +22.8660395     378.1922     70.23306      1.421     4.72    -4.413481     19.81488     62.96919        10     1.225     0.782  58.43   0
        21    173.4739   1022.3640 299.9258815 +22.7124088     531.6317     61.39416      6.026     6.28      8.78922     19.81488     32.59232         8     1.216     0.976  -6.67  24
        22    785.2355    965.4113 300.1347616 +22.8798060     6690.783     70.23306      1.172     2.01    -4.625805     19.81488      1030.82        33     1.064     0.971  17.00   0
        23    830.8917    965.4235 300.1489831 +22.8935104     238.5042     70.16147      0.897     2.10    -4.911698     19.81488      50.1478         5     0.681     0.466 -19.43   0
        24    762.8790    971.6971 300.1257502 +22.8748989     542.0074     70.34031      1.145     2.17     -4.52499     19.81488     107.2838        11     0.921     0.671  81.24   0
        25    836.9595    952.9822 300.1549247 +22.8917633     341.0694     70.25095      1.446     3.40    -4.976399     19.81488       52.796         7     0.989     0.672  11.06   0
        26    793.7103    947.5824 300.1432067 +22.8772368     877.2489     70.16147      1.166     2.17    -4.717246     19.81488     131.4722        14     0.989     0.773  68.42   0
        27    976.6821    946.4578 300.2006027 +22.9318112     238.6942     70.28671      1.087     2.88    -4.931962     19.81488     45.71307         7     0.870     0.565 -60.87   0
        28    832.1549    940.7523 300.1574092 +22.8868143     423.5344     70.25095      1.140     2.49    -4.963335     19.81488     87.89066         9     0.870     0.719 -30.45   0
        29    940.6584    937.7129 300.1922180 +22.9184962     236.3243     70.30458      1.165     4.20    -5.140986     19.81488     32.65184         6     0.947     0.531 -45.17   0
        30    880.6110    932.1259 300.1753189 +22.8988791     336.6753     70.25095      1.125     3.37    -5.184941     19.81488     74.02421         9     1.021     0.625  20.19   0
        31    731.4311    931.3732 300.1290826 +22.8538989     372.5221     70.23306      1.042     2.48    -4.563818     19.81488     65.91142         7     0.858     0.480 -80.18   0
        32    444.3174    927.7910 300.0408758 +22.7666803     2389.579     70.17937      1.266     2.24    -4.748951     19.81488     348.1227        22     1.058     0.946  55.87   0
        33    742.5906    928.3453 300.1335443 +22.8563798     293.8463     70.23306      1.055     2.42    -4.606028     19.81488     64.44662         6     0.783     0.547 -47.58   0
        34    222.3906    917.1842 299.9753242 +22.6969860     334.3333     70.16147      1.810     4.07    -4.024334     19.81488     33.45504         5     0.912     0.518 -37.58   0
        35    105.7217    915.6533 299.9395734 +22.6614949      195.041     70.26883      1.033     3.51    -3.266342     19.81488     38.69822         5     0.798     0.446  14.60   0
        36     86.0813    915.1825 299.9336262 +22.6554585     124.9244     70.23306      1.177     4.72    -3.523541     19.81488     36.29049         5     0.944     0.670  23.61   0
        37    169.3008    913.6412 299.9599800 +22.6800217     505.3665     70.21516      1.382     3.69    -3.415848     19.81488     63.70784         7     0.914     0.665  10.72   0
        38    146.6825    910.5375 299.9539629 +22.6723373      862.945     70.32245      1.196     2.33    -3.398731     19.81488     127.4678        15     1.027     0.830  51.10   0
        39   1018.3655    899.2533 300.2289686 +22.9307709     1098.463     70.25095      1.080     1.76    -4.447876     19.81488     228.0951        13     0.844     0.733  44.19  16
        40    972.3869    897.7578 300.2151175 +22.9165515     1227.438     70.25095      1.159     2.25    -4.793417     19.81488      167.526        13     0.858     0.817 -48.11   0
        41    756.1441    891.7527 300.1496777 +22.8499540     411.0972     70.26883      1.096     2.57    -4.728097     19.81488     69.48052         8     0.861     0.588   5.39   0
        42    624.2107    885.7093 300.1105577 +22.8086262     2717.595     70.17937      1.246     2.14     -4.90582     19.81488     392.1336        21     1.026     0.945 -80.90   0
        43    130.9811   1016.8500 299.9144755 +22.6980603      783.096     70.23306      3.647     4.17     9.498156     19.81488     35.85032         5     1.387     0.357  -0.09  16
        44    426.3678    882.9269 300.0498949 +22.7484342     313.2872     70.23306      1.158     3.42    -4.667545     19.81488     53.43875         8     1.023     0.533  37.70   0
        45    174.5824    879.9663 299.9725808 +22.6719639     800.0756     70.21516      1.233     3.17    -4.262938     19.81488     104.9795        13     1.111     0.769  57.96   0
        46    644.6164    878.2455 300.1193402 +22.8126110     318.6703     70.25095      1.191     2.12    -4.804942     19.81488     57.06089         5     0.677     0.464 -73.04   0
        47    193.7708    876.6321 299.9796283 +22.6767733     266.8922     70.23306      1.154     2.87    -4.375143     19.81488      58.5292         7     0.819     0.657 -70.91   0
        48    800.0878    865.4167 300.1719399 +22.8555864     2415.622     70.16147      1.254     2.16    -4.808802     19.81488     355.6638        21     1.000     0.924  78.06   0
        49   1017.3031    865.6116 300.2395875 +22.9207992     621.3202     70.12564      1.156     2.36    -4.495452     19.81488      105.989        11     0.899     0.718  40.41   0
        50    208.7450    859.8761 299.9897344 +22.6764719     302.8928     70.26883      1.188     2.57    -4.580659     19.81488     51.75706         7     0.807     0.599 -69.69   0
        51    516.8263    858.1324 300.0861081 +22.7684867     359.3606     70.21516      1.270     3.07    -4.822518     19.81488     57.62224         7     0.962     0.599 -72.02   0
        52    163.7354    856.2638 299.9769238 +22.6619165     630.0707     70.26883      1.224     2.73    -4.649231     19.81488      84.2522        10     0.886     0.722  63.96   0
        53    313.3793    848.3008 300.0260254 +22.7045826      31112.2     70.16147      1.349     2.38    -4.466886     19.81488     3633.167        71     1.287     1.170  74.20   0
        54    984.0873    846.4736 300.2354578 +22.9053461     444.0599     70.37603      1.099     4.31    -4.669733     19.81488     94.62442        12     1.342     0.651  39.47   0
        55    571.1594    847.1307 300.1065982 +22.7816425     957.4665     70.21516      1.398     2.48    -4.771668     19.81488     123.1342        14     0.935     0.868  -2.25   0
        56    241.2831    846.2673 300.0042752 +22.6823470     243.5986     70.34031      1.251     2.37    -4.536311     19.81488     47.89337         6     0.689     0.619 -42.88   0
        57    600.1235    842.9268 300.1169822 +22.7891308     506.5034     70.30458      1.264     2.95    -4.717946     19.81488      72.4176        10     0.963     0.687  18.32   0
        58    611.1294    841.1137 300.1209985 +22.7919143     380.8213     70.34031      1.354     3.48    -4.696435     19.81488     51.21505         7     0.804     0.707  27.09   0
        59    717.0664    837.9302 300.1550223 +22.8227929     275.0209     70.26883      1.135     3.69    -4.725047     19.81488     37.92383         5     0.649     0.603   4.60   0
        60    754.1163    827.6119 300.1699206 +22.8309505     549.4436     70.19727      1.533     3.39    -4.762415     19.81488     70.00698        10     1.064     0.632  80.46   0
        61    363.0482    825.5309 300.0488788 +22.7129732     18430.51     70.23306      1.352     2.36    -4.292182     19.81488     2217.613        55     1.230     1.156  75.03   0
        62    377.4692    826.1396 300.0531655 +22.7174778     1215.544     70.26883      1.502     2.67    -4.367827     19.81488     135.5452        17     1.054     0.935  36.40   0
        63    886.0468    821.0172 300.2131767 +22.8686371      1598.15     70.26883      1.222     2.08    -4.764421     19.81488     262.4176        18     1.018     0.858  81.10   0
        64    245.3337    817.2897 300.0149628 +22.6752618     565.1492     70.35817      1.467     2.69    -4.437983     19.81488     87.82618        10     0.977     0.674  74.67   0
        65    643.9379    817.1703 300.1390043 +22.7948953      439.811     70.25095      1.248     2.42    -4.544398     19.81488     67.28545         8     0.775     0.651  40.27   0
        66    491.1570    812.3516 300.0930175 +22.7476578     533.3734     70.25095      1.606     2.45    -4.573972     19.81488      53.6615         9     0.837     0.668 -64.17   0
        67     50.1549    812.8903 299.9557549 +22.6153714     343.4344     70.21516      1.295     3.30    -4.612488     19.81488     41.07614         8     0.809     0.685  36.51   0
        68    892.1826    808.8046 300.2190631 +22.8669736     351.0593     70.17937      1.409     3.07    -4.721793     19.81488     40.79523         8     0.836     0.630  43.75   0
        69     77.4734    805.6425 299.9665972 +22.6215032     975.7789     70.21516      1.065     5.11    -4.609482     19.81488     501.9994         9     1.236     0.598  58.37   0
        70    437.0799    807.0468 300.0779191 +22.7299032     232.6027     70.25095      1.100     3.67    -4.554141     19.81488     41.58024         5     0.678     0.573 -88.38   0
        71    870.1384    803.7977 300.2138214 +22.8589250     284.5433     70.21516      1.319     4.02    -4.742108     19.81488      41.3195         6     1.200     0.386  29.91   0
        72    243.1125    801.7003 300.0193444 +22.6701282     290.3808     70.39388      1.193     4.11    -4.407562     19.81488     39.08993         6     1.192     0.404 -11.10   0
        73    535.8726    789.9946 300.1142064 +22.7546706     386.4396     70.17937      1.308     4.00    -4.364539     19.81488     39.64551        10     0.936     0.739  -5.82   0
        74    558.0385    787.5775 300.1218916 +22.7606304     799.6985     70.25095      1.364     2.88    -4.330487     19.81488     96.04887        12     0.966     0.812  37.77   0
        75    952.3997    786.3314 300.2451477 +22.8785851     2631.961     70.17937      1.200     2.09    -4.494866     19.81488     399.6422        23     1.053     0.924 -26.73   0
        76    940.6620    777.9246 300.2442234 +22.8726527     900.0991     70.28671      1.184     2.36    -4.421342     19.81488     161.3977        12     0.867     0.822  34.30   0
        77    304.0879    771.7191 300.0480526 +22.6798483     416.6321     70.35817      1.361     3.69    -3.994861     19.81488     56.83465         9     0.998     0.688  86.92   0
        78    767.1045    769.1678 300.1929824 +22.8180833     1533.289     70.21516      1.496     2.53    -4.421093     19.81488     166.6191        18     1.010     0.938  72.78   0
        79    971.9665    767.9124 300.2572413 +22.8791669     931.2813     70.19727      1.187     2.19    -4.349273     19.81488     158.3053        13     0.887     0.783  14.69   0
        80    849.5475    755.2656 300.2231937 +22.8388246     439.2078     70.26883      1.447     4.02    -4.278787     19.81488     45.01367         6     0.884     0.522  49.76   0
        81    885.5823    746.0850 300.2374113 +22.8469979     86142.66     70.19727      1.306     2.28    -4.167598     19.81488     11165.74       119     1.322     1.250  69.77   0
        82    737.9679    746.1201 300.1914035 +22.8027311     468.6987     70.23306      1.377     2.87    -4.187304     19.81488     69.07549         8     0.876     0.658  86.07   0
        83    918.9781    739.3016 300.2500281 +22.8550664     201.4478     70.16147      1.360     4.62    -4.072054     19.81488     30.55127         5     1.043     0.582  74.59   0
        84    571.9680    735.1636 300.1432776 +22.7497817      865.814     70.25095      1.324     2.76    -3.826495     19.81488     110.9644        13     0.911     0.886 -26.00   0
        85    753.0886    732.2905 300.2006123 +22.8032998     5356.424     70.39388      1.317     2.37    -4.081001     19.81488     701.9615        31     1.111     1.045  36.07   0
        86    254.7320    727.6335 300.0470489 +22.6523946     2901.812     70.23306      1.390     2.48    -3.984521     19.81488     340.0917        23     1.112     0.976  63.44   0
        87    336.7477    725.7041 300.0731747 +22.6764668     686.1669     70.30458      1.322     2.51    -4.003855     19.81488     92.03792        11     0.923     0.736  44.21   0
        88    212.4176    723.2015 300.0353386 +22.6384182     282.5604     70.14355      1.327     3.50    -4.008167     19.81488     30.90894         5     0.790     0.448  71.56   0
        89    545.0319    720.6431 300.1396166 +22.7375345      401.921     70.28671      1.348     5.35    -3.766134     19.81488     44.51979         9     1.269     0.635  87.22   0
        90    536.5565    713.3305 300.1393571 +22.7328942     1880.255     70.19727      1.512     2.76    -3.754073     19.81488     212.0232        22     1.142     0.987  64.93   0
        91    527.1528    707.0831 300.1384624 +22.7282807     991.0207     70.23306      1.635     3.02    -3.751523     19.81488     102.9264        15     1.135     0.813 -88.27   0
        92    920.8333    704.4294 300.2619493 +22.8456149     231.4474     70.25095      1.252     3.44    -4.048815     19.81488     36.38654         5     0.794     0.431 -21.37   0
        93    190.1539    703.3364 300.0348802 +22.6260403     491.9832     70.26883      1.382     4.04     -4.03474     19.81488     51.94366         7     0.843     0.698 -79.12   0
        94    204.4796    701.7997 300.0398318 +22.6299018     324.9525     70.10772      1.472     3.90    -4.015034     19.81488     48.86134         6     0.938     0.596  11.34   0
        95    230.0121    698.5370 300.0488280 +22.6366337     268.2533     70.21516      1.465     3.85    -3.986821     19.81488      46.3239         8     1.062     0.792  36.86   0
        96    973.4722    697.6627 300.2805622 +22.8594559     187.4364     70.26883      1.011     4.10    -4.091226     19.81488     44.21587         6     0.860     0.557  49.78   0
        97    451.6699    696.7502 300.1183354 +22.7026642     983.1494     70.23306      1.455     2.60    -3.897768     19.81488      126.121        15     0.980     0.892  56.15   0
        98    550.2911    696.6931 300.1490427 +22.7322448     231.0683     70.39388      1.055     3.59    -3.669011     19.81488     37.66809         6     0.868     0.509  43.89   0
        99    105.7718    691.9446 300.0123676 +22.5974348     11551.93     70.23306      1.413     2.51    -4.139918     19.81488     1431.806        51     1.253     1.205 -89.33   0
       100     26.7811    693.4476 299.9873457 +22.5741395     472.2686     70.26883      1.549     4.77    -4.279805     19.81488       47.836        12     1.261     0.823  38.46   0
       101    536.7480    692.2338 300.1462778 +22.7269020     574.1893     70.25095      1.496     3.17    -3.663107     19.81488     63.95601        10     0.998     0.673  38.35   0
       102    954.2523    678.1201 300.2809250 +22.8480839     694.4526     70.25095      1.375     2.92    -4.071604     19.81488     93.88265        11     0.944     0.773 -16.76   0
       103     51.7323    675.8144 300.0008279 +22.5765830      935.715     70.23306      1.736     4.28    -4.216745     19.81488     83.91711        18     1.364     0.875  75.43   0
       104    821.3523    675.2772 300.2404239 +22.8074167     219.9141     70.23306      1.276     3.46     -3.95432     19.81488     44.48294         5     0.757     0.458  77.00   0
       105    894.5069    670.8449 300.2646650 +22.8280820     481.5479     70.25095      1.636     4.25    -4.037707     19.81488     35.80631         5     0.894     0.577  45.78   0
       106    456.6999    664.7354 300.1303111 +22.6949944     474.8085     70.32245      1.602     4.35    -3.749099     19.81488     47.04443         9     0.909     0.903  58.35   0
       107    604.2766    663.1692 300.1767492 +22.7388285     236.7436     70.21516      1.459     5.32    -3.528602     19.81488     38.95673         6     0.994     0.804  89.66   0
       108    622.1229    661.2302 300.1829358 +22.7436266     349.1185     70.21516      1.516     4.80     -3.56335     19.81488     42.93226         7     0.956     0.682   0.50   0
       109    500.7423    660.7657 300.1453057 +22.7070732      580.436     70.25095      1.520     4.18    -3.600974     19.81488     67.97456        13     1.083     0.916 -89.85   0
       110    934.4750    656.0825 300.2819254 +22.8358287     2063.538     70.34031      1.387     2.55    -4.009324     19.81488      247.626        21     1.054     0.992 -60.31   0
       111    466.6648    655.9995 300.1362520 +22.6954800     1038.695     70.25095      1.635     3.43      -3.6706     19.81488      103.046        18     1.235     0.909  80.34   0
       112     28.4346    650.1037 300.0019522 +22.5622198     2884.805     70.23306      1.425     2.59    -4.008845     19.81488     316.1619        27     1.164     1.051  59.38   0
       113    973.8583    645.5355 300.2976346 +22.8446083     153.0995     70.26883      1.188     4.28    -4.040541     19.81488     27.42925         6     1.067     0.489   5.83   0
       114    329.8928    643.1531 300.0978873 +22.6507461      5234.53     70.25095      1.449     2.72    -3.984608     19.81488      606.845        35     1.211     1.128  49.30   0
       115    452.2820    640.0869 300.1369511 +22.6866008     5034.653     70.35817      1.507     2.78    -3.666894     19.81488     532.8819        36     1.311     1.124  59.95   0
       116    863.8146    633.8033 300.2671433 +22.8082477     1102.939     70.07187      1.370     3.14    -3.835705     19.81488     128.4398        17     1.112     0.898 -76.70   0
       117    948.3883    631.1563 300.2943684 +22.8328449     7157.121     70.23306      1.349     2.48    -3.970405     19.81488     829.9154        35     1.145     1.063 -88.44   0
       118    512.7170    629.6606 300.1591456 +22.7017462     6681.201     70.34031      1.530     2.81    -3.537229     19.81488       686.54        39     1.330     1.148  65.84   0
       119    240.2865    625.2688 300.0758443 +22.6187201     913.9058     70.34031      1.547     3.62    -3.977682     19.81488     95.77621        17     1.166     0.958  76.45   0
       120    682.1483    625.5970 300.2132129 +22.7514110     325.0093     70.23306      1.439     3.33    -3.573319     19.81488      38.4444         6     0.725     0.637  50.43   0
       121    444.5139    617.8377 300.1417679 +22.6778896     2580.029     70.21516      1.557     2.82    -3.583407     19.81488     290.6161        29     1.239     1.094  52.96   0
       122    787.3600    617.5272 300.2486101 +22.7806505     553.2681     70.21516      1.660     3.57    -3.782396     19.81488     55.62203         8     0.886     0.695  60.92   0
       123    422.9185    616.1952 300.1355838 +22.6709379      636.108     70.16147      1.593     3.78     -3.60446     19.81488     65.63406        15     1.189     0.864   2.72   0
       124    176.7611    615.7292 300.0592030 +22.5969134     367.9372     70.17937      1.431     4.23     -3.99117     19.81488       53.171         8     1.011     0.878 -36.84   0
       125    864.0455    613.1685 300.2739243 +22.8023944     861.9742     70.28671      1.361     2.73     -3.72376     19.81488     100.2063        10     0.835     0.749 -66.44   0
       126    561.0453    605.3124 300.1821026 +22.7092630     115827.4     70.21516      1.554     2.91     -3.41155     19.81488     10360.03       161     1.529     1.500  73.20   0
       127    744.6145    610.1373 300.2376956 +22.7657107     485.1742     70.19727      1.429     3.28    -3.714017     19.81488     66.76456        11     0.969     0.802  13.83   0
       128    247.2486    605.5179 300.0844291 +22.6151489     2015.124     70.25095      1.471     2.76    -3.950869     19.81488      184.638        21     1.102     0.997  74.13   0
       129    813.0750    601.2422 300.2619171 +22.7836881     481.3972     70.21516      1.660     3.84    -3.720365     19.81488     40.41573         6     0.889     0.500  35.62   0
       130    296.3770    588.1536 300.1053461 +22.6249186     142.6043     70.25095      1.176     4.54    -3.723342     19.81488     31.19526         5     0.846     0.692 -27.83   0
       131    451.6580    585.6294 300.1544607 +22.6707970     1633.364     70.23306      1.744     3.37     -3.38901     19.81488     132.1073        21     1.171     1.058 -81.67   0
       132    863.8099    582.3868 300.2838579 +22.7934884     307.2257     70.14355      2.050     6.61    -3.618534     19.81488     32.17489         7     1.687     0.727  19.93   0
       133    848.4436    571.6400 300.2825622 +22.7857965     987.2168     70.32245      1.379     2.72     -3.57886     19.81488     113.3551        14     0.981     0.850 -66.50   0
       134    719.7679    569.3222 300.2432241 +22.7465470     1313.012     70.21516      1.451     2.85    -3.440617     19.81488     150.2028        20     1.087     1.012  52.70   0
       135    506.9248    565.7753 300.1781107 +22.6816852     362.7738     70.25095      1.509     3.85    -3.158095     19.81488      40.3885         7     0.941     0.583 -18.74   0
       136    977.0770    563.1393 300.3254263 +22.8219172     689.4666     70.28671      1.274     2.78    -3.594447     19.81488     94.17365         9     0.863     0.701  11.61   0
       137    848.7988    561.8152 300.2858665 +22.7830829     1272.578      70.0898      1.596     3.39    -3.541203     19.81488     127.5812        18     1.215     0.917  76.06   0
       138    962.6553    562.0283 300.3212904 +22.8172756     527.5882     70.23306      1.904     3.19       -3.592     19.81488     48.88192         7     0.734     0.670  82.12   0
       139    886.8878    556.8810 300.2993421 +22.7930854       2396.6     70.35817      1.349     2.57    -3.553929     19.81488     314.5105        23     1.108     0.971  88.85   0
       140    119.3014    547.6387 300.0634816 +22.5601470     709.9264     70.25095      1.567     3.32    -3.813668     19.81488     65.12254        12     1.026     0.830 -86.97   0
       141    978.5592    547.3914 300.3310073 +22.8178398     443.2776     70.23306      1.432     3.27    -3.459665     19.81488      54.5797         7     0.861     0.649 -61.73   0
       142    660.3583    527.1154 300.2384394 +22.7166185     489.5311     70.19727      1.636     2.79    -3.088801     19.81488     42.93626         7     0.733     0.638  72.04   0
       143    974.6595    519.7558 300.3387733 +22.8087355     336.0282     70.25095      1.183     3.20    -3.301723     19.81488     48.08587         6     0.701     0.668 -48.03   0
       144    721.1095    519.2933 300.2599022 +22.7325921     391.0378     70.39388      1.484     3.70    -3.258659     19.81488     48.21165         8     0.979     0.621   2.98   0
       145    878.3742    515.6418 300.3100917 +22.7786941     568.0714     70.28671      1.402     3.39    -3.341364     19.81488     77.15073        15     1.037     0.968 -18.00   0
       146    607.0851    510.3090 300.2273135 +22.6958185     1758.926     70.39388      1.604     3.29    -2.824583     19.81488     150.4387        25     1.275     1.085  64.40   0
       147    862.5164    511.8803 300.3063714 +22.7728605      412.441     70.37603      1.513     2.13    -3.325197     19.81488     48.20053         5     0.700     0.459  68.10   0
       148    967.6297    508.5501 300.3402229 +22.8034109     381.3854     70.25095      1.638     3.87     -3.24257     19.81488     36.28072         6     0.890     0.482 -88.09   0
       149   1018.1036    488.9957 300.3623181 +22.8129214     737.6404     70.14355      1.304     2.69    -3.100923     19.81488     109.0588        12     0.954     0.791 -64.10  16
       150    890.3242    489.1357 300.3224303 +22.7746660      296.061     70.30458      1.354     4.33    -3.177531     19.81488     28.58676         7     0.891     0.598 -60.88   0
       151    976.5917    487.7096 300.3497900 +22.8001120     598.9244     70.14355      1.337     2.76    -3.113729     19.81488     73.94488        11     0.990     0.690  61.46   0
       152    717.7460    483.7193 300.2704146 +22.7213735     760.8879     70.26883      1.800     4.20     -3.16372     19.81488     73.91435        14     1.145     0.961 -66.70   0
       153    221.6858    482.4586 300.1164762 +22.5721977     350.2024     70.34031      1.556     3.36    -3.207287     19.81488     40.62107         6     0.876     0.464 -88.94   0
       154    284.0265    478.3435 300.1371919 +22.5897274     2113.645     70.23306      1.555     2.98     -3.07699     19.81488      187.608        25     1.190     1.143 -28.33   0
       155   1016.7615    476.3245 300.3660170 +22.8088800     2433.198     70.19727      1.356     2.46     -3.07369     19.81488     266.8328        23     1.069     1.026  62.63  16
       156    231.2511    473.0402 300.1225092 +22.5723682      4277.25     70.25095      1.484     2.75    -3.162261     19.81488     440.1219        33     1.204     1.157  68.71   0
       157    372.0636    467.2692 300.1681656 +22.6129689     2818.293     70.26883      1.627     3.10    -2.662124     19.81488     253.2448        32     1.306     1.178  74.22   0
       158    996.9552    467.3806 300.3627460 +22.8003761     1032.803     70.26883      1.349     2.84    -3.096084     19.81488     111.1201        17     0.999     0.941  -4.31   0
       159    616.0544    463.7918 300.2452209 +22.6851604     10625.85     70.23306      1.601     3.05    -2.815137     19.81488     927.9752        51     1.426     1.258  62.04   0
       160    634.2144    463.7668 300.2508834 +22.6905992     422.2301     70.21516      1.999     5.15    -2.891817     19.81488     43.06681         6     1.383     0.543 -48.45   0
       161    949.6483    445.9860 300.3549455 +22.7800553     455.3203     70.25095      1.390     2.38    -3.097039     19.81488      53.7643         7     0.700     0.654  54.01   0
       162    170.8381    444.0042 300.1131668 +22.5459111     1190.045     70.26883      1.495     2.87    -3.270176     19.81488     135.9526        18     1.293     0.892  71.77   0
       163    599.3073    438.5428 300.2482099 +22.6728925     9680.039     70.28671      1.219     5.25     -2.75328     19.81488     1469.538        17     1.020     0.764 -74.18   0
       164    556.7562    433.2467 300.2366843 +22.6586117     3832.998     70.26883      1.629     3.12     -2.62816     19.81488     351.4026        31     1.240     1.190  83.93   0
       165    970.2262    433.2920 300.3654861 +22.7825761     728.5502     70.17937      1.407     3.31    -3.130701     19.81488     73.65384        11     0.907     0.866  -7.86   0
       166    670.6650    423.8070 300.2752160 +22.6900606     301.9155     70.19727      1.425     5.32    -2.830734     19.81488     35.54635         7     1.187     0.674 -79.90   0
       167    761.0132    422.3152 300.3038428 +22.7167194     575.8089     70.17937      1.433     3.46    -2.834607     19.81488     53.78965        11     0.968     0.756  69.34   0
       168    463.3504    419.6351 300.2120375 +22.6266907     3490.942     70.25095      1.665     3.06    -2.364883     19.81488     335.1488        32     1.305     1.213  18.22   0
       169    952.7585    413.8326 300.3663610 +22.7717529     331.4669     70.28671      1.519     4.63     -3.09701     19.81488     49.21195         8     1.256     0.487 -40.85   0
       170    855.2774    413.6107 300.3360442 +22.7424755     718.0749     70.21516      1.699     3.31    -2.801193     19.81488     70.25525        10     1.092     0.605   8.35   0
       171    350.9657    398.5889 300.1839144 +22.5869396     1393.449     70.21516      1.571     2.90    -2.362849     19.81488     151.5325        21     1.193     1.001  68.16   0
       172     69.5218    396.3046 300.0971836 +22.5018254     393.8507     70.35817      1.318     3.57    -3.052452     19.81488     63.71093         7     0.859     0.643 -32.10   0
       173    320.3138    388.3113 300.1777207 +22.5747956     16858.59     70.39388      1.623     3.04    -2.593171     19.81488     1445.253        57     1.393     1.299  78.05   0
       174    854.7886    385.3782 300.3450625 +22.7342218     563.6145     70.21516      1.328     3.15    -2.575741     19.81488     79.37154        12     1.067     0.734  28.85   0
       175     16.7506    376.2585 300.0873045 +22.4802380     2761.423     70.28671      1.419     2.62    -2.805443     19.81488     305.9359        26     1.150     1.049  77.40   0
       176    770.0644    374.1079 300.3223214 +22.7055920     361.2087     70.34031      1.357     4.84    -2.479087     19.81488     38.35996         8     0.941     0.704  85.95   0
       177    730.6598    367.7862 300.3120986 +22.6919654     1075.424     70.19727      1.501     3.66    -2.448462     19.81488      97.3783        18     1.153     1.005  80.44   0
       178    945.8222    360.4419 300.3815403 +22.7543393     344.4925     70.26883      1.259     2.88    -2.712716     19.81488     56.69291         5     0.721     0.479 -13.97   0
       179    392.3852    352.5150 300.2117600 +22.5861476     1162.878     70.19727      1.699     3.81    -2.400265     19.81488     111.9846        20     1.198     1.105  73.72   0
       180    831.6863    344.9331 300.3509981 +22.7156835     347.1381     70.34031      1.624     3.72    -2.316165     19.81488     36.45374         5     0.831     0.478  41.05   0
       181    468.3213    331.9770 300.2420532 +22.6030299     639.9051     70.19727      1.589     4.11    -2.411794     19.81488     78.31854        14     1.228     0.897 -79.50   0
       182    713.0068    323.6627 300.3209287 +22.6740055     1191.909     70.19727      1.545     3.45     -2.41285     19.81488     98.82903        23     1.204     1.108  79.56   0
       183    343.0724    323.5003 300.2058444 +22.5630315     1309.478     70.39388      0.609     2.31    -2.458755     19.81488     555.3157         5     0.501     0.323 -85.34   0
       184    974.3005    317.8956 300.4042372 +22.7506495     1860.518     70.42957      1.502     2.87    -2.663139     19.81488     205.5999        22     1.190     1.014  50.46   0
       185    421.9221    307.7052 300.2354982 +22.5821497     224.8317     70.35817      1.205     2.91    -2.441182     19.81488     49.02673         7     0.868     0.562  79.37   0
       186    127.4429    302.2704 300.1457111 +22.4922480     456.6343     70.19727      1.832     4.21    -2.876822     19.81488     39.16737         6     1.033     0.489  84.48   0
       187     95.9963    301.8746 300.1360700 +22.4826977     753.0728     70.14355      1.729     3.99    -2.835062     19.81488     61.07998        15     1.154     0.912 -49.03   0
       188    180.4695    294.2169 300.1648026 +22.5058497     304.9544     70.25095      1.609     5.25    -2.806425     19.81488     43.94055         8     1.189     0.655 -59.73   0
       189    784.8668    284.7908 300.3559370 +22.6843806     330.4747     70.23306      1.810     3.58    -2.359904     19.81488     36.09395         6     0.762     0.626 -79.11   0
       190    882.7540    274.0980 300.3899154 +22.7106406     1185.168     70.26883      1.476     3.01     -2.36519     19.81488     108.1944        19     1.093     0.970  75.05   0
       191    301.5411    271.7070 300.2097450 +22.5357146     1317.362     70.28671      1.664     3.10    -2.527096     19.81488     131.7764        22     1.150     1.099 -43.28   0
       192    379.2753    267.0468 300.2354320 +22.5576927     548.0598     70.23306      1.651     4.69    -2.524627     19.81488      46.1937        12     1.209     0.937  31.75   0
       193    195.9136    259.1227 300.1809946 +22.5004177     451.5895     70.35817      1.585     5.58    -2.662166     19.81488     43.32868        11     1.020     0.861 -26.24   0
       194    733.8182    255.6350 300.3494980 +22.6607091     918.7599     70.23306      1.606     3.61    -2.494304     19.81488     100.6359        20     1.213     1.097  17.38   0
       195    798.8164    254.4251 300.3701418 +22.6798396     269.5474     70.25095      1.703     3.54    -2.411778     19.81488     35.30839         5     0.959     0.377  84.21   0
       196    217.7002    251.9424 300.1900966 +22.5048942     335.9162     70.32245      1.463     5.11    -2.600031     19.81488     36.56672         6     1.100     0.671  71.51   0
       197   1005.2971    247.8790 300.4366364 +22.7398174     457.3329     70.34031      1.476     4.87     -2.47728     19.81488     46.74451        13     1.014     0.967  37.98   0
       198    737.4783    247.2391 300.3533637 +22.6593948     417.0945     70.21516      1.770     5.58    -2.497979     19.81488     38.44236        10     1.176     0.747   0.55   0
       199    658.7228    246.4319 300.3290956 +22.6355595     606.3973     70.21516      1.437     3.77    -2.419581     19.81488     62.15451        11     1.053     0.741  84.52   0
       200    584.4750    238.0459 300.3086994 +22.6108960     578.2719     70.23306      1.827     4.55    -2.422477     19.81488     52.83789        10     1.064     0.880  86.28   0
       201    853.9936    237.6552 300.3927812 +22.6915552     769.8054     70.21516      1.451     2.98    -2.460531     19.81488     85.71064        14     0.972     0.917 -50.45   0
       202    865.8555    236.8734 300.3967322 +22.6948845     407.6894     70.23306      1.516     4.78      -2.4628     19.81488     39.55826         9     1.104     0.738 -29.71   0
       203    982.5793    226.8319 300.4363835 +22.7269651     574.9357     70.23306      1.390     2.94    -2.435402     19.81488     73.87553        12     0.951     0.810  37.29   0
       204      6.6552    224.1606 300.1335469 +22.4336026     319.0799     70.23306      1.626     3.98    -2.587823     19.81488     27.68779         6     1.074     0.421  77.11  16
       205    216.5753    220.2985 300.2000176 +22.4954793     417.4029     70.16147      1.575     6.10    -2.620126     19.81488      46.8014        11     1.295     0.807  61.16   0
       206     78.8447    215.3629 300.1588230 +22.4527422     1315.214     70.26883      1.623     2.99    -2.604362     19.81488      145.491        22     1.158     1.075 -70.26   0
       207    901.7719    211.8188 300.4160606 +22.6984463     338.5327     70.23306      1.464     3.47    -2.459118     19.81488     55.68279         7     0.950     0.644   7.03   0
       208    236.1179    208.5836 300.2098941 +22.4979806     3178.642     70.19727      1.628     3.11    -2.626529     19.81488     270.2441        33     1.316     1.237 -18.72   0
       209     20.3373    203.2044 300.1445966 +22.4316993     784.3983     70.21516      1.447     2.83    -2.635785     19.81488     81.39089        14     1.020     0.817  73.24   0
       210    220.0252    199.2871 300.2079088 +22.4904864     275.7569     70.17937      1.224     4.29    -2.621871     19.81488      36.7289         7     0.759     0.690  -1.71   0
       211    879.9801    189.8460 300.4163987 +22.6856054     2009.776     70.26883      1.508     3.05    -2.479867     19.81488     180.9384        27     1.203     1.135 -37.47   0
       212    983.6031    188.5077 300.4491416 +22.7162587     1640.361     70.14355      1.467     2.61    -2.433652     19.81488     182.2222        22     1.112     1.016  -8.11   0
       213    353.3127    176.6678 300.2566902 +22.5239710     373.6592     70.34031      1.711     5.39     -2.54845     19.81488     33.22753         8     0.991     0.828 -27.64   0
       214    119.4876    174.2696 300.1847841 +22.4531501     331.4749     70.39388      1.618     4.73    -2.678109     19.81488     42.39491         7     1.019     0.815  52.31   0
       215    480.8164    172.3905 300.2977439 +22.5609727     939.8646     70.16147      1.619     3.54    -2.524584     19.81488      80.0659        15     1.143     0.868  83.05   0
       216    255.0192    152.5106 300.2339651 +22.4875615     3490.385     70.17937      1.608     3.10    -2.629766     19.81488     307.4265        29     1.265     1.141  71.64   0
       217    106.0866    151.9642 300.1878579 +22.4427316     455.7983     70.21516      1.640     4.88    -2.698758     19.81488     46.56265        10     1.078     0.772 -70.69   0
       218    500.9860    137.6874 300.3152807 +22.5570562     3530.086     70.17937      1.666     3.18    -2.498164     19.81488     302.3608        33     1.285     1.256 -71.03   0
       219    753.3252    126.8849 300.3973591 +22.6295742     517.5602     70.34031      1.962     5.27    -2.266894     19.81488      46.7029         8     1.293     0.607 -42.58   0
       220    629.3113    117.6262 300.3617367 +22.5897562     3723.812     70.17937      1.725     3.22    -2.291734     19.81488     310.1328        35     1.300     1.277   7.90   0
       221    404.3653    116.9701 300.2919391 +22.5221438     803.8353     70.25095      1.837     4.02    -2.535154     19.81488      82.4241        17     1.393     0.796  40.26   0
       222    670.3755    115.2880 300.3752831 +22.6013896     398.8921     70.19727      1.593     5.71    -2.212872     19.81488     50.08849        11     1.123     0.819 -39.02   0
       223    686.3225    111.7917 300.3813841 +22.6051637     373.9987     70.19727      1.687     4.64    -2.194387     19.81488     44.13189         7     1.169     0.522 -66.25   0
       224    153.6480    109.7248 300.2163389 +22.4448812     384.9822     70.23306      1.477     4.68    -2.698758     19.81488     42.54426         8     1.054     0.635  51.58   0
       225    956.1522    108.5698 300.4665201 +22.6850641     261.9441     70.25095      1.176     5.01    -2.433652     19.81488     35.75188         9     0.911     0.780  23.91   0
       226    725.1743    106.2956 300.3952690 +22.6152255     166.7105     70.17937      1.499     3.67    -2.166506     19.81488     29.86247         5     1.030     0.376 -86.78   0
       227    673.4332    102.5787 300.3803586 +22.5986553     1578.322     70.23306      1.663     3.13    -2.158349     19.81488     147.4252        25     1.213     1.176 -60.78   0
       228    688.1710    100.5909 300.3855936 +22.6025002     510.6118     70.23306      1.942     5.39    -2.148823     19.81488      49.5573         9     1.354     0.605 -89.24   0
       229    759.8724     93.9890 300.4100712 +22.6220851     816.8348     70.25095      1.487     3.40    -2.127556     19.81488     73.63487        14     0.996     0.902 -81.20   0
       230    697.9545     86.9208 300.3930754 +22.6015046     422.7706     70.23306      1.527     5.20    -2.120692     19.81488     49.65771         8     0.968     0.790  69.72   0
       231    503.6196     86.4906 300.3327094 +22.5431458     609.7796     70.16147      1.615     5.55    -2.350673     19.81488     55.98646        12     1.186     0.929 -42.32   0
       232    407.3948     84.7362 300.3033381 +22.5137986     520.5918     70.21516      1.667     5.17    -2.416988     19.81488     43.67017        10     1.160     0.854  87.83   0
       233    789.8218     83.5887 300.4227767 +22.6280687     345.5849     70.21516      1.948     3.48    -2.126882     19.81488      26.4061         5     0.815     0.429  20.35   0
       234    178.8483     75.1413 300.2353880 +22.4425166      2167.83     70.28671      1.615     3.06    -2.480595     19.81488     210.4234        27     1.273     1.114 -82.58   0
       235    739.7036     67.3899 300.4124160 +22.6084013     523.5089     70.16147      1.420     3.19    -2.098145     19.81488     64.10797        11     0.968     0.826  68.76   0
       236    294.6987     67.1994 300.2739767 +22.4749777     712.9363     70.10772      1.623     3.65    -2.358016     19.81488     75.20099        14     1.054     0.919  71.39   0
       237    797.8418     58.3452 300.4334641 +22.6232177     1208.376     70.23306      1.554     3.41    -2.119463     19.81488     118.6728        19     1.183     0.971  57.91   0
       238    181.3786     54.0568 300.2430128 +22.4372253     524.6666     70.25095      1.604     3.85    -2.287826     19.81488     54.58589        11     1.170     0.847  74.81   0
       239    746.5515     51.0996 300.4198332 +22.6057723     515.5334     70.26883      1.593     5.48    -2.086405     19.81488     55.87417        10     1.301     0.651 -87.52   0
       240    972.8651     51.6054 300.4902106 +22.6736951     417.0717     70.21516      1.410     3.62    -2.015898     19.81488      48.9138        11     1.011     0.723  69.76   0
       241    599.0311     35.2345 300.3790340 +22.5570185     456.2179     70.25095      1.657     3.98    -2.047578     19.81488     50.57482        11     1.039     0.933  49.30   0
       242    207.5722     33.1544 300.2579326 +22.4390818     333.9756     70.26883      1.864     4.82    -2.096287     19.81488     27.86213         6     0.966     0.682   9.46   0
       243    762.2178     30.7755 300.4313058 +22.6046253     314.1349     70.23306      1.416     3.12    -2.080312     19.81488     42.98329         5     0.855     0.435 -45.20   0
       244    570.4490     28.8457 300.3722076 +22.5466191     1011.806     70.25095      1.606     3.69    -1.956089     19.81488     92.10509        18     1.105     1.056 -40.60   0
       245    293.0851     26.4888 300.2866780 +22.4628086     338.7163     70.35817      1.583     5.47    -1.974262     19.81488     44.71447         8     1.234     0.683   6.90   0
       246      7.9552     25.3240 300.1984542 +22.3769659     411.3273     70.21516      1.525     3.70    -2.941638     19.81488     36.68452         7     0.764     0.642   6.56   0
       247    527.8205     23.0026 300.3608331 +22.5321670     683.8315     70.17937      1.454     3.14    -1.853028     19.81488     75.86868        15     1.006     0.966  -9.67   0
       248    219.7018   1022.5122 299.9401980 +22.7263424     432.1391     60.81845      3.556     4.59     3.325086     19.81488       32.393         5     1.242     0.482   6.60  16
       249    228.5118     18.5066 300.2691913 +22.4411567     220.7608     70.39388      1.274     2.72    -1.973306     19.81488     76.18762         6     1.043     0.497   3.13   0
       250    277.4624     16.8077 300.2849600 +22.4553458     384.9486     70.17937      1.866     3.75    -1.903267     19.81488     32.97257         5     0.852     0.564  40.54   0
       251    251.3684   1018.8232 299.9512409 +22.7348009     411.4051     70.23306      1.267     2.72  -0.05191731     19.81488     61.46818         7     0.813     0.610 -13.28  16
