#   1 NUMBER                 Running object number                                     
#   2 X_IMAGE                Object position along x                                    [pixel]
#   3 Y_IMAGE                Object position along y                                    [pixel]
#   4 ALPHA_J2000            Right ascension of barycenter (J2000)                      [deg]
#   5 DELTA_J2000            Declination of barycenter (J2000)                          [deg]
#   6 FLUX_APER              Flux vector within fixed circular aperture(s)              [count]
#   7 FLUXERR_APER           RMS error vector for aperture flux(es)                     [count]
#   8 FLUX_RADIUS            Fraction-of-light radii                                    [pixel]
#   9 FWHM_IMAGE             FWHM assuming a gaussian core                              [pixel]
#  10 BACKGROUND             Background at centroid position                            [count]
#  11 THRESHOLD              Detection threshold above background                       [count]
#  12 FLUX_MAX               Peak flux above background                                 [count]
#  13 ISOAREA_IMAGE          Isophotal area above Analysis threshold                    [pixel**2]
#  14 A_IMAGE                Profile RMS along major axis                               [pixel]
#  15 B_IMAGE                Profile RMS along minor axis                               [pixel]
#  16 THETA_IMAGE            Position angle (CCW/x)                                     [deg]
#  17 FLAGS                  Extraction flags                                          
         1    632.7585     17.1618 300.3946830 +22.5625561     800.1656     70.12437      1.569     3.35    -2.339864     19.75907      87.5623        14     1.002     0.937  33.68   0
         2    453.4684     11.1545 300.3408323 +22.5071024     1373.375     70.01739      1.490     3.33    -2.668971     19.75907     140.9082        18     1.133     0.942  84.42   0
         3    100.8456      9.3031 300.2318165 +22.4008458     659.8478     70.05307      1.300     2.71    -2.355989     19.75907     105.0937        13     0.975     0.810  46.42   0
         4    122.9904   1017.5983 299.9111262 +22.6965879     943.8635     69.85661      5.505     5.27     10.45963     19.75907     31.17474         8     1.244     0.631  11.23  17
         5    659.9196   1022.4944 300.0764906 +22.8592797     3827.259     60.64714      1.140     2.03    -5.831942     19.75907     653.5387        23     0.982     0.877  22.40  24
         6    240.5280   1020.3486 299.9467453 +22.7326975     1257.675     68.61149      5.789    11.02    0.3710721     19.75907     36.79637        27     2.099     1.611 -67.39  18
         7    224.2832   1022.6686 299.9409422 +22.7284808     670.9984     59.81746      3.694     6.88     2.247723     19.75907     37.73373         9     1.659     0.800  41.98  25
         8    150.6924   1022.6313 299.9180919 +22.7063550     715.2761     59.90094      4.428     6.26     11.22763     19.75907     37.49014         8     1.341     0.821  42.72  24
         9    141.4355   1023.2716 299.9150081 +22.7037563     536.5401     56.68614      2.618     3.49     11.25226     19.75907     32.46515         5     0.800     0.440  70.06  24
        10    121.1161   1022.0746 299.9090868 +22.6973066     743.0154      62.5536      5.430     6.16     11.13396     19.75907     38.59496         7     1.338     0.796  49.64  25
        11     69.5783   1021.6583 299.8932176 +22.6816967     1617.068     64.20937      8.739    17.15     4.814824     19.75907     48.90554        58     3.668     2.228  19.88  27
        12    106.9010   1010.1617 299.9085502 +22.6896225     1493.522     70.05307     16.063    24.78     9.142826     19.75907     38.95879        66     5.916     2.882 -88.34  19
        13     99.9782    995.5352 299.9111617 +22.6833530     1336.382     70.01739      7.486     7.47     6.782679     19.75907      66.8468        26     2.077     1.162 -66.25   3
        14     95.0156    985.9917 299.9127272 +22.6791283     1474.119     69.96384     10.967    12.86     4.794552     19.75907     44.57088        34     2.799     1.644  36.21   3
        15     86.6387   1012.7660 299.9014101 +22.6842782     2947.715      70.0709     15.131    45.53     7.527166     19.75907     73.59023       540     8.716     6.599  58.29  27
        16     80.3070    981.5002 299.9096216 +22.6734213     1865.789     70.19559      6.684    15.99     2.083185     19.75907     52.74207        59     3.827     1.857 -83.81   3
        17     88.1710    977.9263 299.9132269 +22.6747613     1996.028     70.05307     10.565    20.16     2.589433     19.75907     46.74929        91     4.175     2.704 -32.09   3
        18    250.9319   1016.7410 299.9511529 +22.7347902     304.1149     70.05307      0.958     1.93   -0.7212147     19.75907     71.46534         6     0.685     0.533  39.32   0
        19    231.7706   1023.0043 299.9431595 +22.7308268     767.1373     58.03652      6.409     7.70     1.420173     19.75907     42.85629        13     2.283     0.727  -9.20  25
        20    111.8203   1013.6316 299.9089484 +22.6920947     1020.905     70.03523      5.949     6.10     9.809027     19.75907     32.47181        10     1.590     0.658 -56.80  19
        21    118.3644   1008.5209 299.9126446 +22.6925979       1460.7      69.9817     11.818    12.77     8.959673     19.75907     45.79502        32     2.432     1.865   6.92  19
        22    128.7979   1013.6082 299.9142289 +22.6971906     765.1417     69.85661      3.010     3.35      9.77972     19.75907     31.60082         5     0.755     0.431  21.73   0
        23    462.4981   1009.8345 300.0191781 +22.7963675     629.0898     70.01739      1.136     2.06    -5.956688     19.75907     109.4484         7     0.689     0.589 -84.08   0
        24    393.0126   1007.8993 299.9981980 +22.7749420     3959.771     69.94598      1.145     1.90    -5.948423     19.75907     752.8143        24     0.932     0.899 -52.71   0
        25     84.2339    991.5769 299.9075610 +22.6774874     2141.153     70.05307     15.386    25.43     4.003272     19.75907     57.18763       134     5.350     3.357  -0.48  19
        26    568.6030   1013.3094 300.0510582 +22.8292280     831.2823     69.94598      1.083     1.98    -5.864037     19.75907     147.0782        14     0.936     0.749 -37.69   0
        27     69.9304   1001.2934 299.8999565 +22.6759709     1907.741     70.15999     12.225    25.10     2.662121     19.75907       51.141       125     5.880     2.974 -66.61  19
        28    425.9362    994.5292 300.0127892 +22.7809996     329.5698      70.0709      1.143     3.70    -5.894702     19.75907     52.82343         6     0.935     0.483  -8.95   0
        29    939.1212    986.3693 300.1752269 +22.9327161     1259.969     70.03523      1.027     1.72    -5.797701     19.75907     278.1956        13     0.908     0.727 -57.09   0
        30    589.6008    983.8172 300.0671945 +22.8270779     290.1625     69.94598      0.993     2.49    -5.837875     19.75907     48.21185         5     0.721     0.441  68.01   0
        31    442.9544    978.0560 300.0234447 +22.7813896     870.4692      70.0709      0.435     1.72    -5.824452     19.75907     701.9321         5     0.360     0.265  47.80   0
        32    727.7472    975.3068 300.1129728 +22.8661097     443.0347     70.08873      2.037     5.87    -5.760357     19.75907     47.01548        10     1.418     0.875 -76.29   0
        33    105.6379    974.7686 299.9196791 +22.6791064     928.2364     70.03523      5.515     7.27     3.236671     19.75907     32.52348         9     1.969     0.751 -65.97   0
        34     58.2992   1022.0809 299.8895778 +22.6784274     533.5157     62.51364      2.966     4.63     1.980927     19.75907     27.80552         5     1.359     0.447  56.59  24
        35    762.9119    969.2804 300.1258863 +22.8749359     605.3647     70.15999      1.006     2.01    -5.756355     19.75907     114.6067         9     0.721     0.675 -17.13   0
        36    784.9855    963.1754 300.1347491 +22.8798097     6438.566     70.05307      1.068     1.71    -5.748498     19.75907     1481.047        25     0.890     0.834  82.71   0
        37    976.0252    962.5898 300.1944724 +22.9369647     268.3097     70.03523      1.131     2.25    -5.797169     19.75907     58.36826         5     0.705     0.584 -84.49   0
        38    830.6558    962.6650 300.1491427 +22.8933690     305.8514     70.08873      1.083     3.49    -5.765223     19.75907     68.83675         7     1.054     0.478  43.87   0
        39     96.3309    955.0621 299.9232028 +22.6706653     500.1942      70.0709      1.232     2.41   -0.2370049     19.75907     70.30717         7     0.807     0.555 -57.95   0
        40    490.5053    952.1677 300.0466627 +22.7882491     279.5586     70.01739      1.450     3.44    -5.705635     19.75907     46.99003         5     1.124     0.304  68.51   0
        41     66.7843    949.0804 299.9159746 +22.6600723     89.89567     70.03523      0.872     3.67    -2.833278     19.75907     32.91496         5     1.123     0.346  77.95   0
        42    793.1593    945.0604 300.1431919 +22.8770665     874.8515     70.03523      1.174     2.46    -5.727271     19.75907     159.1189        12     1.029     0.749  51.55   0
        43    645.6292    942.6982 300.0980191 +22.8321084     176.6501     69.96384      1.236     3.19    -5.732855     19.75907     45.23559         7     0.863     0.627 -17.66   0
        44    831.7994    938.6057 300.1573306 +22.8868102     463.8203     69.85661      1.094     2.14    -5.750776     19.75907     89.99129         7     0.797     0.556  74.77   0
        45    880.0430    929.7461 300.1752467 +22.8987441     342.8178     70.05307      0.930     1.56    -5.782829     19.75907     98.72368         7     0.655     0.589   4.91   0
        46    731.2993    928.9190 300.1291786 +22.8538713     466.8954     70.15999      1.113     2.15    -5.705233     19.75907     72.90043         7     0.677     0.649 -17.67   0
        47    444.1545    925.5647 300.0409033 +22.7667042     2375.743      70.0709      1.150     1.97    -5.605261     19.75907     380.2315        22     0.984     0.910  74.08   0
        48    742.8475    925.7874 300.1337944 +22.8564390     328.4846     70.05307      1.182     2.61    -5.687154     19.75907     69.97343         9     0.856     0.714  81.32   0
        49    105.5227    914.0517 299.9394039 +22.6616808     253.6948     70.03523      1.107     2.88    -4.663774     19.75907     36.74052         6     0.778     0.499  89.58   0
        50    169.2946    911.3309 299.9600975 +22.6800632       471.22      70.1778      1.227     3.35    -4.513437     19.75907      72.0326         9     0.960     0.708  61.20   0
        51    146.5329    908.4450 299.9539659 +22.6723975      911.088     70.03523      1.047     2.13    -4.573544     19.75907     156.6949        13     0.868     0.747  49.85   0
        52   1018.0386    896.9517 300.2289365 +22.9307295     1156.952     70.05307      1.037     1.60    -5.938663     19.75907     296.5213        11     0.773     0.665 -83.79   0
        53    972.2501    895.4700 300.2151426 +22.9165702     1392.744     70.03523      1.126     1.93      -5.8602     19.75907     215.0191        14     0.845     0.770   9.96   0
        54    755.8471    889.5862 300.1496248 +22.8499557     334.6083     70.03523      1.130     2.26    -5.414002     19.75907     75.67828         6     0.717     0.585 -60.72   0
        55    178.3392    889.8682 299.9698912 +22.6766316     213.4843     70.08873      1.151     4.14    -4.818359     19.75907     34.97871         7     0.844     0.616  69.27   0
        56    623.9968    883.5980 300.1105194 +22.8086661     2853.621     69.82084      1.137     2.00    -5.540002     19.75907      467.496        19     0.895     0.892  40.72   0
        57    426.0732    880.6378 300.0499000 +22.7483957     288.7432      69.9817      1.134     2.54    -5.339416     19.75907     66.95556         7     0.786     0.677 -70.99   0
        58    174.3261    877.7838 299.9725765 +22.6719636     589.6452     70.03523      1.056     2.11    -4.963554     19.75907     126.0101        11     0.825     0.715  76.25   0
        59    644.6101    876.0950 300.1193777 +22.8127015     397.2282     69.96384      1.072     1.79    -5.431027     19.75907      90.3251         5     0.679     0.428 -63.68   0
        60    799.9916    863.2310 300.1719515 +22.8556409     2567.301     70.03523      1.171     1.93    -5.139042     19.75907     475.0957        19     0.910     0.856  82.17   0
        61   1016.9097    863.2728 300.2395446 +22.9207237     610.6722     70.19559      1.068     1.85    -6.076945     19.75907     153.4304        11     0.862     0.660 -86.06   0
        62    208.5282    857.4592 299.9898154 +22.6764147     183.7862      70.0709      1.226     3.67    -5.203576     19.75907     36.59509         6     0.941     0.412  19.33   0
        63    516.9326    855.9926 300.0861827 +22.7686102     334.4705     70.03523      1.210     2.29    -5.243664     19.75907     60.42764         6     0.730     0.536 -58.14   0
        64    163.6180    854.0976 299.9769564 +22.6619600      539.355     69.96384      1.180     2.46     -5.13416     19.75907     79.64167         9     0.769     0.745  37.74   0
        65    578.5229    849.1943 300.1075601 +22.7851497     242.1267     69.94598      1.118     3.11    -5.300753     19.75907     43.79575         5     0.737     0.455 -69.24   0
        66    313.1457    846.0744 300.0260328 +22.7045754     31155.01     70.05307      1.228     2.07    -5.266595     19.75907      5128.36        68     1.150     1.087  41.06   0
        67    570.9364    844.8599 300.1066093 +22.7816293     924.2581      70.0709      1.172     2.19    -5.243149     19.75907     163.7972        10     0.837     0.697  82.86   0
        68    241.2467    844.4968 300.0041994 +22.6825283      231.823      70.0709      1.136     3.02    -5.242665     19.75907     52.43601         6     0.693     0.652  31.82   0
        69    983.6882    843.8774 300.2354974 +22.9051926     488.9868      70.1778      1.106     2.55    -5.924749     19.75907      95.9827         9     0.874     0.652   9.03   0
        70    599.9600    840.8604 300.1169435 +22.7891941     536.6982     70.03523      1.225     2.64    -5.317495     19.75907     97.97774        12     0.962     0.804  25.21   0
        71    611.1384    839.1707 300.1209726 +22.7920647     289.6566     70.05307      1.135     2.42    -5.331283     19.75907     58.56696         6     0.735     0.538  33.35   0
        72    753.9241    825.9747 300.1697239 +22.8311290     470.4904     70.05307      1.286     2.15    -5.202371     19.75907     77.52544         9     0.750     0.724  83.81   0
        73    362.8339    823.2818 300.0488954 +22.7129637     18193.08     69.99954      1.240     2.13    -5.139619     19.75907     2849.804        48     1.096     1.054  53.48   0
        74    377.0867    823.8669 300.0531368 +22.7174113     1089.229     70.14218      1.270     2.31    -5.113699     19.75907     169.1164        15     1.064     0.796  70.99   0
        75    251.8463    821.6348 300.0149307 +22.6791600     63.37017     70.05307      0.973     3.45    -5.240178     19.75907     28.53914         5     0.762     0.452  15.64   0
        76    885.7816    818.7314 300.2131607 +22.8686088     1493.923     70.03523      1.103     2.07    -5.154685     19.75907     317.8466        17     0.921     0.873  71.57   0
        77    374.0504    818.0404 300.0540881 +22.7148292     303.6094     70.05307      1.087     2.29     -5.09631     19.75907     72.30882         8     0.808     0.620 -55.04   0
        78    480.1245    815.5178 300.0878992 +22.7459540      215.425     70.14218      1.262     3.77    -5.005634     19.75907      45.3702         5     0.752     0.608 -69.41   0
        79    643.8296    815.1318 300.1389696 +22.7949811     548.8409     70.01739      1.197     1.98    -5.139781     19.75907     96.20765         8     0.739     0.621  64.34   0
        80    245.3383    815.0128 300.0150623 +22.6753074     535.7009     69.99954      1.368     2.49     -5.23497     19.75907       68.807         7     0.794     0.572  65.77   0
        81    490.9137    810.0698 300.0930280 +22.7476307     531.7892     70.14218      1.349     2.68    -4.954755     19.75907     81.56756        10     0.898     0.712 -74.90   0
        82     49.8252    811.0686 299.9556128 +22.6154438     364.3604     70.03523      1.227     2.94    -5.123425     19.75907     57.51872        10     0.930     0.721 -28.60   0
        83    891.8895    806.7348 300.2189671 +22.8669979     293.0013     70.14218      1.134     3.09    -5.105295     19.75907     48.26303         7     0.829     0.595 -35.88   0
        84    348.8506    805.6815 300.0502731 +22.7037192     234.1536     70.05307      1.335     3.82    -5.110894     19.75907     42.66851         5     0.894     0.469  49.47   0
        85    436.8801    804.6502 300.0779829 +22.7298549     142.6915     70.03523      1.023     4.32      -4.9351     19.75907     35.11712         7     0.933     0.570  82.33   0
        86     77.4138    804.9138 299.9661814 +22.6219696     873.5107      69.9817      0.651    -0.90    -5.123403     19.75907     532.5161         7     0.748     0.390  -5.99   0
        87    243.0559    799.4160 300.0194264 +22.6701518     216.5858     69.99954      1.147     3.82     -5.22921     19.75907     42.71153         6     0.777     0.604 -50.79   0
        88    566.0098    789.7564 300.1230021 +22.7643468     292.6635     70.05307      1.369     3.82    -4.829144     19.75907     36.40806         5     0.821     0.510  56.48   0
        89    535.9618    788.0110 300.1142194 +22.7548272     422.2682     70.01739      1.423     2.82    -4.759726     19.75907     48.86152         8     0.786     0.677  38.69   0
        90    445.0139    787.0411 300.0862407 +22.7272477     45.12314     70.05307      1.079     3.23    -4.805313     19.75907      37.8941         5     0.960     0.371  30.85   0
        91    952.1164    784.1152 300.2450976 +22.8785690     2782.664     70.15999      1.148     1.81    -5.189484     19.75907     555.4532        21     0.926     0.857  84.05   0
        92    557.7889    785.3718 300.1218700 +22.7606217     812.8116     70.03523      1.245     2.62    -4.774373     19.75907     114.4442        11     0.860     0.817  82.33   0
        93    940.5615    775.5568 300.2442796 +22.8726468     1055.974     70.12437      1.068     2.06    -4.938851     19.75907       159.11        15     0.960     0.827  63.09   0
        94    304.0037    769.7163 300.0480292 +22.6799422     563.4884     69.96384      1.206     2.15    -5.107588     19.75907     109.8773         9     0.830     0.704 -51.91   0
        95    767.0501    767.0028 300.1929958 +22.8181460      1529.48     70.03523      1.350     2.35    -5.171838     19.75907     226.0489        20     1.269     0.895   9.16   0
        96    971.7488    765.6077 300.2572381 +22.8791434     983.2657     70.03523      1.095     2.02    -5.275695     19.75907     161.9201        11     0.785     0.722  71.39   0
        97    152.5304    753.8492 300.0061198 +22.6299028     337.7955     70.03523      1.364     3.40    -5.212205     19.75907     44.59941         5     0.764     0.439  67.64   0
        98    885.3906    743.8318 300.2374027 +22.8469935     85200.83     70.01739      1.184     2.03    -4.648639     19.75907     13590.61       105     1.203     1.117  56.05   0
        99    737.7017    744.1513 300.1912872 +22.8027839     526.0032      70.0709      1.331     2.19     -5.20376     19.75907     84.99935         9     0.831     0.668  20.37   0
       100    918.2566    736.4571 300.2500444 +22.8547332     124.6348     70.10655      0.963     2.90    -4.395666     19.75907     41.47761         5     0.720     0.448  22.69   0
       101    571.7093    732.9725 300.1432443 +22.7497694     869.6812     70.01739      1.274     2.13    -4.492283     19.75907     154.1758        16     1.047     0.940 -45.92   0
       102    752.8303    730.0524 300.2005843 +22.8032765     5363.295     70.05307      1.261     2.17    -5.094776     19.75907     845.9643        29     1.068     1.013 -49.80   0
       103    661.2542    729.9515 300.1721001 +22.7757729     854.2009      70.0709      0.510     2.41    -4.484061     19.75907     530.2751         6     0.515     0.340 -15.99   0
       104    254.5469    725.3552 300.0470835 +22.6523740     2810.711     70.05307      1.265     2.22    -5.125321     19.75907     396.3927        22     1.028     0.960  50.16   0
       105    336.6230    723.5504 300.0731830 +22.6765010      698.244     70.03523      1.321     3.30    -4.632423     19.75907     94.28281        14     1.001     0.983  55.16   0
       106    212.2547    720.4855 300.0355244 +22.6382777     344.3598     70.08873      1.215     4.42    -5.169571     19.75907     48.86827         6     1.291     0.430 -86.71   0
       107    544.8624    718.5139 300.1395914 +22.7375649     483.9078     70.14218      1.431     3.79    -4.408161     19.75907     66.45972        10     1.072     0.725  88.24   0
       108    536.3261    710.9355 300.1393994 +22.7328291     1863.547      70.0709      1.302     2.50    -4.381939     19.75907     254.5806        22     1.035     1.024 -52.24   0
       109    526.7610    704.6870 300.1384549 +22.7281662      862.443     70.01739      1.369     2.30    -4.376356     19.75907     126.0315        16     1.115     0.838  51.48   0
       110    920.6104    701.9497 300.2620000 +22.8455325     248.2886     70.05307      1.323     3.43    -4.311678     19.75907     49.76772         6     0.935     0.589 -31.78   0
       111    204.3898    700.2354 300.0396649 +22.6301112     455.5475     70.01739      1.379     2.78    -5.079467     19.75907     61.74326         5     0.925     0.367 -67.79   0
       112    190.0773    701.0313 300.0349591 +22.6260412     340.3152     70.01739      1.310     2.33    -5.040079     19.75907     56.74454         7     0.834     0.513  40.20   0
       113    973.5975    696.0092 300.2804495 +22.8597151     341.1686     69.85661      1.377     3.74    -4.529704     19.75907     43.12665         7     0.914     0.657  83.04   0
       114    451.6113    694.5768 300.1183626 +22.7027113     1008.405     70.03523      1.346     2.53    -4.420497     19.75907     134.2256        14     0.990     0.843  86.75   0
       115    229.9926    696.2515 300.0489159 +22.6366575      367.701     70.03523      1.259     2.75    -5.105104     19.75907     52.51434         7     0.747     0.631 -19.15   0
       116    105.5774    689.7442 300.0123797 +22.5974280      11145.6      70.0709      1.264     2.26    -4.863558     19.75907     1638.257        38     1.118     1.028  60.95   0
       117     26.2725    691.2637 299.9872593 +22.5740421     498.9089      70.0709      1.330     3.11    -5.510886     19.75907     54.27987         6     0.763     0.517  54.46   0
       118    536.1172    689.7788 300.1462136 +22.7266974     462.4414     69.99954      1.223     2.48    -4.275946     19.75907     80.55899        10     0.847     0.722  64.47   0
       119    289.7106    681.5306 300.0722620 +22.6503682     165.5779     70.19559      1.061     3.45     -4.57741     19.75907     34.66189         5     0.767     0.449  20.52   0
       120    954.2914    675.6658 300.2810456 +22.8480852     617.0662     70.15999      1.098     2.05    -4.289663     19.75907     127.0149         9     0.796     0.655 -80.19   0
       121     51.6408    673.5090 300.0009079 +22.5765746     777.5845     70.03523      1.526     3.99    -5.236701     19.75907     88.42665        14     1.424     0.597 -86.02   0
       122    117.7880    674.2496 300.0212096 +22.5966546     191.5453      70.0709      1.055     2.56    -4.743613     19.75907     41.20396         6     0.722     0.559 -51.72   0
       123    499.8018    670.2176 300.1412740 +22.7101877     215.1128     69.94598      1.322     3.40     -4.37169     19.75907     30.95969         5     0.962     0.348  44.94   0
       124    894.4406    668.2627 300.2647970 +22.8280134     415.4394     70.01739      1.262     2.87    -4.245773     19.75907     58.96072         8     0.789     0.742  13.30   0
       125    456.5109    662.8319 300.1302076 +22.6950767     431.6269     69.99954      1.362     3.96    -4.378235     19.75907     46.67922         9     1.022     0.704  22.71   0
       126    651.8155    659.8319 300.1919613 +22.7528210     272.8594     70.01739      1.425     3.46     -4.23619     19.75907     31.90489         5     1.023     0.338 -45.29   0
       127    500.9046    658.7655 300.1453402 +22.7072335     460.0652     70.03523      1.442     3.56    -4.317019     19.75907     57.90642        12     1.104     0.789  71.89   0
       128    622.0340    659.1237 300.1829202 +22.7436828     316.7634     70.03523      1.349     4.90    -4.216253     19.75907     35.26205         8     0.927     0.735 -88.91   0
       129    934.3759    653.8124 300.2819425 +22.8358389     1830.683     70.03523      1.199     2.20    -4.211025     19.75907     283.6629        16     0.942     0.825  61.25   0
       130    466.1864    653.9538 300.1361036 +22.6954340     859.6994     70.03523      1.238     2.76    -4.353153     19.75907     126.1508        13     0.966     0.842  -7.48   0
       131     28.3069    647.9842 300.0019602 +22.5622510     2980.853     69.96384      1.289     2.27    -5.143221     19.75907      382.796        23     1.044     0.943  66.01   0
       132    329.6726    640.8932 300.0978954 +22.6507129     5161.645     70.15999      1.343     2.44    -4.414974     19.75907     753.0621        29     1.123     1.011  72.03   0
       133    452.1057    637.8000 300.1369747 +22.6865745     5052.915     69.91025      1.389     2.62     -4.25596     19.75907     579.7278        33     1.150     1.090  28.80   0
       134    863.6042    631.4776 300.2671462 +22.8082054     1108.231     69.94598      1.239     2.33    -4.177469     19.75907     144.8286        13     0.911     0.815  -2.61   0
       135    948.1951    628.8341 300.2943707 +22.8328096     7213.016     70.01739      1.238     2.08     -4.08264     19.75907     1175.149        32     1.058     0.980  71.69   0
       136    512.6322    627.3864 300.1591897 +22.7017508     6730.562     70.03523      1.394     2.56    -4.139975     19.75907     787.9951        35     1.156     1.088  65.50   0
       137    682.6966    623.2901 300.2134553 +22.7515982     327.9513     70.21339      1.224     4.05    -4.242015     19.75907     40.64715         6     1.070     0.438   7.02   0
       138    240.1549    622.8754 300.0759271 +22.6186720     811.6091     70.01739      1.363     2.69    -4.722722     19.75907     97.59091        13     0.914     0.854 -43.17   0
       139    444.3491    615.6780 300.1417527 +22.6779009     2528.432     70.03523      1.376     2.64    -4.155879     19.75907     294.1739        25     1.130     1.034  75.21   0
       140    787.2035    615.2513 300.2486167 +22.7806358     431.7148     70.03523      1.240     3.15    -4.235106     19.75907     61.13599         9     0.874     0.714 -13.25   0
       141    422.5981    613.9764 300.1355405 +22.6708850     828.5648      69.9817      1.390     2.74    -4.143305     19.75907     102.6125        13     0.977     0.823  14.14   0
       142    177.0831    613.4293 300.0593990 +22.5970265     540.2145     70.05307      1.439     4.31    -4.735677     19.75907     65.14989        12     1.140     0.859 -50.74   0
       143    863.9008    610.8577 300.2739415 +22.8023739     913.1298     70.12437      1.335     2.68    -4.140486     19.75907      123.748        16     1.063     0.892 -35.60   0
       144    560.8756    603.1013 300.1820955 +22.7092584     117252.5     70.15999      1.418     2.77    -3.959949     19.75907     12959.23       146     1.385     1.352  -7.04   0
       145    744.4951    607.8113 300.2377318 +22.7656914     528.0032      69.9817      1.412     3.51    -4.228077     19.75907     62.65667         9     0.894     0.719 -53.01   0
       146    247.1411    603.3578 300.0844418 +22.6151731     2011.091     70.01739      1.373     2.55     -4.57903     19.75907     229.6942        20     1.050     0.990 -57.48   0
       147    451.5625    583.5700 300.1544320 +22.6708547     1589.883      70.0709      1.557     3.01    -4.093876     19.75907     174.7462        21     1.358     0.910 -83.72   0
       148    863.0790    579.8493 300.2837641 +22.7932239     357.1805     70.03523      1.488     2.72    -4.028643     19.75907     40.43177         6     0.756     0.539 -35.71   0
       149    848.3141    569.3159 300.2825865 +22.7857724     1057.848     70.14218      1.313     2.97    -3.995345     19.75907     128.4771        16     1.155     0.901  73.02   0
       150    719.5544    567.0837 300.2432012 +22.7465202     1315.641     70.01739      1.334     2.72    -3.989192     19.75907     171.1183        17     1.016     0.950 -24.60   0
       151    963.9860    563.9730 300.3203758 +22.8189159     256.9805     70.05307      1.243     3.79     -3.66436     19.75907     39.00525         5     0.707     0.585 -89.86   0
       152    506.8925    563.3154 300.1782276 +22.6816458     439.6397     70.21339      1.316     4.90    -3.834754     19.75907     47.97949         9     1.013     0.727  47.51   0
       153    976.7825    560.7830 300.3254021 +22.8218354     659.8914     70.01739      1.174     2.24    -3.550362     19.75907      123.679         8     0.804     0.619  84.05   0
       154    848.6959    559.5709 300.2858725 +22.7830886     1383.754     69.99954      1.583     2.95    -3.957876     19.75907      160.389        20     1.334     0.876  59.69   0
       155    962.3769    559.8835 300.3212032 +22.8172590     419.7578     69.99954      1.273     2.69     -3.66011     19.75907     63.19314         9     0.867     0.663  27.95   0
       156    602.2761    558.2172 300.2095681 +22.7087984    -105.5286     70.03523      1.712     4.85    -3.477207     19.75907     32.69752         7     0.974     0.686  82.34   0
       157    886.7723    554.6363 300.2993419 +22.7930874     2424.521     70.05307      1.236     2.21    -3.918621     19.75907     357.6826        19     0.947     0.907  15.86   0
       158    978.3546    545.0670 300.3309996 +22.8177925     400.8545     70.03523      1.146     2.77    -3.462325     19.75907     72.98541         9     0.884     0.682 -46.95   0
       159    119.1137    545.3524 300.0635135 +22.5601033     535.5502     70.01739      1.228     2.58    -4.108386     19.75907     72.35313         7     0.799     0.592 -20.78   0
       160    779.2116    538.2267 300.2711602 +22.7561258     159.3791     70.03523      1.244     4.44    -3.844438     19.75907      25.0838         5     0.772     0.725 -38.34   0
       161    660.6636    525.1680 300.2384840 +22.7168257       399.94     70.03523      1.285     2.64    -3.612243     19.75907     58.48592         7     0.741     0.620  87.27   0
       162    974.4805    517.0580 300.3388933 +22.8085858      349.166      70.0709      1.389     3.19    -3.459602     19.75907     47.96786         6     0.801     0.604  56.40   0
       163    720.8871    517.2276 300.2598171 +22.7326071     353.9832     70.03523      1.483     3.96    -3.646255     19.75907     58.60479         9     0.925     0.828 -67.65   0
       164    878.1962    513.4895 300.3100397 +22.7786995     671.9083     69.94598      1.390     3.73    -3.864636     19.75907     68.51203        12     1.081     0.816  55.58   0
       165    862.2334    509.7870 300.3062682 +22.7728508     377.9909     70.01739      1.444     3.13    -3.895331     19.75907     51.85598         6     0.918     0.576  17.41   0
       166    606.9215    507.9453 300.2273491 +22.6957631     1833.177      70.0709      1.455     2.91     -3.33175     19.75907     186.0294        20     1.074     1.028  43.85   0
       167    967.3461    506.3223 300.3401573 +22.8033636     320.2689      70.0709      1.188     3.60     -3.48346     19.75907     42.99644         7     0.924     0.648   6.32   0
       168     83.1824    499.4955 300.0672519 +22.5361675     263.4142     69.94598      1.220     4.60    -4.083147     19.75907     37.84833         6     0.917     0.677 -84.95   0
       169   1018.1650    486.6015 300.3624101 +22.8129285     820.0648     69.99954      1.307     2.22    -3.242852     19.75907     130.3091        12     1.081     0.718 -72.89  16
       170    976.4794    485.3394 300.3498221 +22.8000732     420.8114     70.08873      1.097     2.30    -3.412899     19.75907     82.88831        10     0.793     0.766  -0.73   0
       171    889.8182    486.5422 300.3224171 +22.7744439     299.5516     69.99954      1.070     1.83    -3.791053     19.75907     54.68233         5     0.652     0.475  19.68   0
       172    717.3443    481.8524 300.2702069 +22.7213883     586.6005      70.0709      1.436     3.63    -3.370096     19.75907     67.15414        14     1.091     0.878  80.39   0
       173    221.6208    480.4864 300.1164343 +22.5722758     450.5882     69.96384      1.297     2.93    -4.065175     19.75907     48.57137         6     0.829     0.485  89.86   0
       174    283.8922    476.0965 300.1372142 +22.5897064     2161.926     70.21339      1.458     3.03     -3.94332     19.75907     221.0723        23     1.099     1.069  22.96   0
       175   1016.6764    474.0887 300.3660111 +22.8088874     2465.234      70.1778      1.274     2.32    -3.262211     19.75907     335.7456        22     1.052     0.943  24.35   0
       176    231.1647    470.9409 300.1225009 +22.5724026     4399.098     70.05307      1.407     2.74    -3.985659     19.75907     465.9596        28     1.150     1.053  74.60   0
       177    371.9121    464.9541 300.1681991 +22.6129233     2767.386     70.01739      1.509     2.91    -3.855526     19.75907     286.6881        25     1.161     1.060  84.05   0
       178    996.6873    465.1052 300.3626964 +22.8003162     1026.031     70.21339      1.223     2.26    -3.332805     19.75907     147.3056        11     0.850     0.722  -0.05   0
       179    615.9302    461.5438 300.2452277 +22.6851455     10756.28     70.05307      1.520     3.15    -3.343552     19.75907     1007.129        43     1.280     1.195  46.04   0
       180    633.7372    461.4442 300.2508034 +22.6904573      483.563     70.05307      1.945     7.15    -3.321814     19.75907     36.42789        10     1.662     0.861 -45.13   0
       181    235.9984    449.4031 300.1309988 +22.5676757     201.6676     69.82084      1.396     6.04     -3.81334     19.75907      31.6713         7     1.126     0.912 -18.33   0
       182    949.0247    444.1234 300.3546521 +22.7800045     415.1526     70.05307      1.232     2.34    -3.450038     19.75907     69.77734         8     0.801     0.621  39.07   0
       183    170.7551    442.0549 300.1131121 +22.5459858     1152.784      70.0709      1.462     2.95    -3.891292     19.75907     155.1497        18     1.084     0.944  61.20   0
       184    556.5633    430.9940 300.2366724 +22.6585709     3781.526      70.0709      1.544     2.99    -3.385727     19.75907     391.9227        31     1.279     1.117  57.81   0
       185    970.1162    431.0746 300.3654661 +22.7825763     685.1346     70.12437      1.350     2.90    -3.389259     19.75907     85.04355        14     1.063     0.784 -72.55   0
       186    271.5427    430.7754 300.1480960 +22.5729995     416.5645     70.03523      1.492     5.07    -3.665059     19.75907     45.20024         9     0.937     0.775 -70.76   0
       187    129.2849    424.1880 300.1060315 +22.5284138     313.5614      69.9817      1.452     4.86    -3.946149     19.75907     38.31847         7     1.036     0.647 -80.37   0
       188    760.7258    419.7673 300.3038855 +22.7165673     673.5482     70.03523      1.508     4.24    -3.457651     19.75907     70.68355        11     1.006     0.850   1.55   0
       189    463.3358    417.4347 300.2120683 +22.6267157     3607.685     70.03523      1.533     2.86    -3.438467     19.75907     389.7866        32     1.267     1.133  87.59   0
       190    855.0938    411.5268 300.3359628 +22.7424884     736.5653     70.15999      1.401     3.06    -3.585037     19.75907     88.26585        12     1.001     0.792 -86.19   0
       191    530.4244    404.1729 300.2372488 +22.6430322     416.5721     69.99954      1.836     3.42    -3.428169     19.75907     29.93677         5     0.749     0.453  70.61   0
       192    828.0520    399.2489 300.3315241 +22.7308562     284.5714      70.0709      1.185     4.07    -3.606363     19.75907     42.18304         6     0.918     0.517 -88.71   0
       193    351.0217    396.7378 300.1838584 +22.5870822     1463.714     70.01739      1.524     3.30     -3.36469     19.75907     147.6267        21     1.225     0.959  86.92   0
       194     69.4504    394.2696 300.0971627 +22.5018727       533.47     70.03523      1.420     3.18    -3.967667     19.75907     70.95316         9     0.950     0.649 -61.93   0
       195    320.1951    386.1477 300.1777127 +22.5747946     16895.42     70.03523      1.506     2.96    -3.265245     19.75907     1664.045        54     1.285     1.248  62.43   0
       196    854.5085    383.3667 300.3449257 +22.7342237     805.6443     69.99954      1.577     2.73    -3.595077     19.75907     74.17113        13     0.915     0.850  26.25   0
       197     16.6354    374.1140 300.0873071 +22.4802380     2954.431     70.01739      1.411     2.58     -3.89768     19.75907     358.5681        25     1.111     1.013  61.64   0
       198    769.8704    372.2425 300.3221679 +22.7056593     487.2209     69.99954      1.768     4.86    -3.653954     19.75907     39.78409         7     1.338     0.501 -47.75   0
       199    730.4592    365.5682 300.3120593 +22.6919282     1074.053     70.05307      1.569     3.60    -3.637208     19.75907     101.2491        18     1.168     0.965  68.91   0
       200    392.3214    350.4590 300.2117281 +22.5861914     1318.998      70.0709      1.754     3.41    -2.937401     19.75907      134.219        20     1.222     1.013  65.73   0
       201    830.9796    342.8742 300.3507424 +22.7155395     241.0443     70.03523      1.232     4.78    -3.637848     19.75907     40.82263         9     1.013     0.672  33.22   0
       202    468.4426    329.8370 300.2421006 +22.6031042     808.4085     70.10655      1.693     3.24     -3.31925     19.75907     77.30006        16     1.115     0.908  60.17   0
       203    712.8937    321.3731 300.3209379 +22.6739693     1284.369     69.96384      1.519     3.60    -3.664053     19.75907     111.2435        20     1.170     1.042  88.97   0
       204    974.0737    315.6179 300.4041926 +22.7505858     1836.024     70.03523      1.367     2.66    -3.503028     19.75907     220.1226        20     1.039     0.973  15.88   0
       205    421.6157    305.3571 300.2354810 +22.5820329     349.6916     70.05307      1.433     4.89    -2.980139     19.75907      47.9375         8     1.126     0.814 -68.16   0
       206     96.5598    299.7678 300.1362620 +22.4829058     897.8915     70.08873      1.831     4.86    -3.696399     19.75907     67.02917        17     1.357     0.939 -25.62   0
       207    975.0044    289.0263 300.4131153 +22.7432223     216.1143     69.99954      1.297     3.78    -3.418478     19.75907     24.96712         5     0.662     0.621  -0.13   0
       208    784.3371    282.8948 300.3556822 +22.6843297      365.052     70.12437      1.313     4.74    -3.604584     19.75907     42.76874         8     1.116     0.603  77.59   0
       209    882.6285    271.8276 300.3899020 +22.7106038     1139.788     69.99954      1.438     2.87    -3.479306     19.75907      129.194        17     1.025     0.952 -16.59   0
       210    301.3127    269.4199 300.2097364 +22.5356333     1112.116     69.96384      1.482     3.07    -2.940413     19.75907     127.0468        17     1.069     0.983 -84.61   0
       211    379.3628    264.4195 300.2356275 +22.5576092     740.1159     70.05307      1.817     3.95    -2.994469     19.75907     50.48545        13     1.027     0.890 -77.12   0
       212    780.8701    263.3147 300.3609576 +22.6776654     361.7784     70.14218      1.522     2.08    -3.599528     19.75907     56.76768         6     0.719     0.585 -58.81   0
       213    887.8864    261.1516 300.3950060 +22.7091112     226.0153     70.01739      1.107     4.57    -3.498798     19.75907     37.95571         5     1.244     0.476  24.61   0
       214    196.2334    256.9461 300.1811254 +22.5005298     379.1843     70.05307      1.411     2.88    -3.025776     19.75907     48.45548         7     0.743     0.636  84.84   0
       215    733.8572    253.3363 300.3495519 +22.6607093     894.6043     70.08873      1.495     3.10    -3.622278     19.75907     97.71852        15     1.038     0.895  88.72   0
       216    218.1327    249.6334 300.1903038 +22.5050017     218.2936     70.03523      1.048     3.37    -2.966642     19.75907     44.53653         5     0.983     0.335  86.73   0
       217   1005.4286    245.5671 300.4367083 +22.7398447     534.2193     70.05307      1.423     3.33    -3.452559     19.75907     67.26546        12     1.028     0.793  18.77   0
       218    737.8514    244.5528 300.3536467 +22.6593830     527.6724      70.0709      1.572     4.78    -3.610667     19.75907     59.66503        10     1.132     0.837 -82.78   0
       219    658.2403    244.0716 300.3290106 +22.6353837     705.7978     70.01739      1.544     3.59    -3.598116     19.75907     68.24184        14     1.087     0.865  33.37   0
       220    584.5254    236.2260 300.3086084 +22.6110332     601.3597     70.05307      1.476     4.57    -3.411703     19.75907     51.54087        12     1.054     0.827  47.53   0
       221    853.7174    235.3071 300.3927452 +22.6914467     858.3415      70.1778      1.496     2.87    -3.639452     19.75907      94.0351        14     0.995     0.852 -70.39   0
       222    865.8597    234.6687 300.3967364 +22.6949013     492.5535     70.05307      1.525     4.03    -3.647817     19.75907     50.26031        11     1.013     0.834   6.06   0
       223    982.4222    224.5967 300.4363403 +22.7269255     632.0784     69.99954      1.425     2.84    -3.446442     19.75907     81.57664        13     0.947     0.859 -27.19   0
       224    216.7520    218.4042 300.2000087 +22.4956258     446.3896     70.01739      1.475     2.80    -2.967235     19.75907     53.36698         8     0.899     0.592  73.43   0
       225     78.6993    213.2666 300.1587866 +22.4527317     1266.034     70.12437      1.427     2.76    -3.361611     19.75907     140.3941        17     1.067     0.866  58.82   0
       226    901.3330    209.4127 300.4159884 +22.6982705     476.3081     70.01739      1.450     3.62     -3.52679     19.75907     48.21169        12     1.075     0.785   2.48   0
       227     28.6382    209.9854 300.1443050 +22.4367679     323.5363     70.05307      1.543     3.86    -3.718345     19.75907     38.21971         6     0.817     0.659  64.28   0
       228    235.9993    206.4303 300.2098756 +22.4979634      3256.58     69.99954      1.487     3.00    -2.992744     19.75907     349.2076        29     1.178     1.113  89.45   0
       229     20.2273    200.6826 300.1447117 +22.4315752     687.8407     70.03523      1.218     2.66    -3.692189     19.75907     109.4769        13     0.992     0.854  76.16   0
       230    219.2161    197.1979 300.2076552 +22.4902792     373.3457     69.91025      1.506     4.99    -3.009982     19.75907     44.35886         8     1.107     0.638  79.94   0
       231    879.8783    187.6171 300.4163738 +22.6855790     2114.549     70.03523      1.488     2.73    -3.530334     19.75907     233.8176        23     1.104     1.074 -65.10   0
       232    983.3757    186.2696 300.4490748 +22.7161934     1598.413     70.03523      1.362     2.69    -3.325881     19.75907     175.4092        18     1.025     0.964  67.20   0
       233    429.7521    183.0342 300.2777091 +22.5493553     272.9557      70.0709      1.216     4.53    -3.128335     19.75907     48.93538         6     1.093     0.603  69.52   0
       234    353.6425    174.9856 300.2566499 +22.5242220     311.7172     70.05307      1.203     4.09    -3.176838     19.75907      43.3823         7     1.152     0.415  31.89   0
       235    119.5340    171.9245 300.1848832 +22.4531222     344.2805     70.10655      1.134     2.35    -3.153148     19.75907     64.61971         6     0.736     0.605  43.64   0
       236    480.9240    170.3071 300.2977574 +22.5610433      929.118      70.1778      1.492     3.17    -3.082059     19.75907     113.6244        18     1.191     0.979 -18.95   0
       237    254.8019    150.2211 300.2339554 +22.4874702     3416.012     69.96384      1.474     2.96    -3.079656     19.75907     358.1754        32     1.222     1.143 -78.47   0
       238    106.2511    149.5307 300.1880216 +22.4427113     441.3462     70.01739      1.281     3.32    -3.198425     19.75907     63.46525         8     0.920     0.733  20.47   0
       239    884.2386    147.5543 300.4307311 +22.6753701     225.0324     70.08873      1.353     3.45    -3.419925     19.75907      29.7555         5     0.793     0.433 -21.52   0
       240    500.9161    135.5314 300.3152593 +22.5570495      3655.69     70.14218      1.546     2.97    -3.066004     19.75907     367.8102        32     1.216     1.194 -51.11   0
       241    386.7390    135.5168 300.2797460 +22.5228144     444.2787     70.14218      1.546     4.18     -3.14601     19.75907     44.44478         8     0.822     0.792  63.25   0
       242    753.2844    124.9553 300.3972589 +22.6296439     494.8372     70.01739      1.530     4.40    -3.094011     19.75907       55.906         9     1.048     0.656  75.68   0
       243    845.9737    124.2249 300.4263740 +22.6572021     278.8566     69.99954      1.643     3.88    -3.316176     19.75907     25.23122         5     0.845     0.511 -54.62   0
       244    629.1409    115.4919 300.3616686 +22.5897255     3450.135     70.10655      1.531     3.04    -2.895467     19.75907     354.2819        29     1.249     1.137  80.85   0
       245    404.1367    114.5689 300.2919517 +22.5220156     783.0718     70.05307      1.475     3.53    -3.107732     19.75907     78.26017        16     1.082     0.953 -34.83   0
       246    670.5196    113.0569 300.3753420 +22.6014257     472.9322      70.0709      1.502     4.47    -2.724713     19.75907     49.36681        11     0.963     0.883  33.44   0
       247    153.0808    107.3370 300.2162551 +22.4446510     417.1817     70.14218      1.238     3.44    -3.115469     19.75907     53.54524         7     0.836     0.675 -72.52   0
       248    955.8302    105.9492 300.4665441 +22.6848521      247.905     70.05307      1.227     3.45     -3.23839     19.75907     43.27518         5     0.768     0.652  81.66   0
       249    724.6750    104.2892 300.3950511 +22.6151333     269.6085     70.19559      1.242     3.86    -2.915973     19.75907     45.46929         5     0.972     0.440   7.24   0
       250    673.2416    100.2537 300.3803423 +22.5985626     1653.577     70.03523      1.619     3.46    -2.652376     19.75907     150.8346        25     1.248     1.178   6.12   0
       251    688.2413     98.6825 300.3855229 +22.6026057     543.1584     69.99954      1.917     3.46    -2.719098     19.75907     46.46241         9     0.968     0.776  51.15   0
       252    759.7233     91.8622 300.4099987 +22.6220625     824.7637     70.08873      1.598     4.14    -2.963247     19.75907     72.33315        14     1.136     0.842  43.63   0
       253    698.0507     84.8180 300.3930744 +22.6015608     466.1658     70.03523      1.484     2.60     -2.71263     19.75907     51.45781         7     0.684     0.677  84.74   0
       254    503.6298     84.6446 300.3326088 +22.5432471      678.177      70.0709      1.693     3.57    -3.012319     19.75907     66.47441        13     1.115     0.777 -39.77   0
       255     76.3841     84.4795 300.1998434 +22.4150842     327.2588     70.05307      1.305     5.03     -3.08042     19.75907     42.87767         7     1.041     0.689  46.45   0
       256    407.0552     82.8925 300.3031330 +22.5137941     402.3358     70.08873      1.404     4.61    -2.912719     19.75907     49.62597         8     1.017     0.594  57.11   0
       257    178.8499     72.7670 300.2354729 +22.4424578     2223.281      70.0709      1.535     2.86    -3.066404     19.75907     252.7356        23     1.185     1.003 -87.99   0
       258    746.6640     73.2021 300.4119826 +22.6127873     329.6325     70.03523      1.416     4.52    -2.862262     19.75907     35.01986         7     1.012     0.575 -14.41   0
       259    294.6857     65.0501 300.2739773 +22.4749799     738.8809     70.01739      1.414     3.27    -2.710441     19.75907     92.08189        13     1.049     0.855 -61.75   0
       260    740.2012     64.8050 300.4126928 +22.6084378     516.7217     69.85661      1.609     5.74    -2.803003     19.75907     42.94884        13     1.122     0.998  -9.00   0
       261    777.9373     59.3167 300.4262277 +22.6181649     328.4222     70.12437      1.500     5.18    -2.937011     19.75907     39.21405         9     1.241     0.636 -89.23   0
       262    701.5930     60.2238 300.4021537 +22.5955544     301.9141     70.01739      1.245     4.11    -2.633664     19.75907     34.43255         6     0.725     0.664   5.87   0
       263    797.5818     56.2881 300.4333300 +22.6231789     1223.234      69.9817      1.458     2.85     -3.02113     19.75907        131.9        17     1.034     0.956  32.00   0
       264    181.0974     51.7573 300.2429840 +22.4371010     525.0287     70.03523      1.526     4.04    -3.023123     19.75907     59.06461        11     1.142     0.786 -66.30   0
       265    972.6773     49.1858 300.4902066 +22.6735756     459.7664     70.05307      1.339     4.11    -3.180164     19.75907     50.53405        10     1.019     0.777  67.75   0
       266    746.1475     49.1318 300.4196276 +22.6057145     571.4319     70.05307      1.361     3.13    -2.759464     19.75907     70.69322        10     0.940     0.710  59.65   0
       267    598.7269     33.5624 300.3787707 +22.5570718     479.3609      69.9817      1.539     4.02    -2.436892     19.75907     56.91243        11     1.243     0.744  68.20   0
       268    761.9893     28.5235 300.4312449 +22.6045366     363.8775     70.03523      1.485     3.76    -2.779994     19.75907      39.6413         6     0.891     0.546 -63.21   0
       269    570.4493     26.6847 300.3721987 +22.5466222     1112.436     70.01739      1.509     2.66    -2.343967     19.75907     113.5837        15     0.997     0.884  71.54   0
       270    293.5097     24.3861 300.2867970 +22.4629513     352.0374      69.9817      2.000     2.74    -2.279413     19.75907     42.27043         6     0.919     0.615  27.69   0
       271    527.5677     20.7727 300.3607697 +22.5320731     754.8405     70.03523      1.515     4.13    -2.492709     19.75907     77.80685        13     1.173     0.764  20.87   0
       272    172.4442   1021.4701 299.9252268 +22.7125595     585.0908     64.94454      4.309     4.42     9.343058     19.75907     38.15091         8     1.195     0.831  58.15  16
       273    133.0782   1020.5635 299.9132940 +22.7004690      1099.28     68.02631      5.219     7.99     10.93882     19.75907     36.08695        12     1.849     0.965 -48.43  26
