#   1 NUMBER                 Running object number                                     
#   2 X_IMAGE                Object position along x                                    [pixel]
#   3 Y_IMAGE                Object position along y                                    [pixel]
#   4 ALPHA_J2000            Right ascension of barycenter (J2000)                      [deg]
#   5 DELTA_J2000            Declination of barycenter (J2000)                          [deg]
#   6 FLUX_APER              Flux vector within fixed circular aperture(s)              [count]
#   7 FLUXERR_APER           RMS error vector for aperture flux(es)                     [count]
#   8 FLUX_RADIUS            Fraction-of-light radii                                    [pixel]
#   9 FWHM_IMAGE             FWHM assuming a gaussian core                              [pixel]
#  10 BACKGROUND             Background at centroid position                            [count]
#  11 THRESHOLD              Detection threshold above background                       [count]
#  12 FLUX_MAX               Peak flux above background                                 [count]
#  13 ISOAREA_IMAGE          Isophotal area above Analysis threshold                    [pixel**2]
#  14 A_IMAGE                Profile RMS along major axis                               [pixel]
#  15 B_IMAGE                Profile RMS along minor axis                               [pixel]
#  16 THETA_IMAGE            Position angle (CCW/x)                                     [deg]
#  17 FLAGS                  Extraction flags                                          
         1    741.0706      5.4667 300.4425875 +22.5806347     560.8651     70.36842      1.908     5.40    -1.922406     19.84296     44.53153        10     1.136     0.725 -15.28  16
         2    644.4203      4.9065 300.4126673 +22.5515262     1539.757     69.41294      1.887     4.46    -1.971865     19.84296     114.7269        28     1.401     1.297 -73.33  16
         3    731.4886   1009.5727 300.1131278 +22.8660899     515.3477     70.31468      1.984     4.60    -5.232641     19.84296     47.59125         8     1.151     0.522  53.61   0
         4     99.9871   1023.0497 299.9123296 +22.6803079     901.6393     58.10974      9.396    12.06     2.243624     19.84296     44.63096        27     2.902     1.395 -23.87  27
         5     96.1547   1020.8844 299.9118448 +22.6785361     1299.197     67.31182      7.946    10.56     1.979969     19.84296     39.99768        25     2.206     1.408 -49.76  27
         6     90.6935   1022.6568 299.9095713 +22.6774026     1060.167     60.09241     10.053    10.66      1.52512     19.84296      42.8578        25     1.900     1.666 -22.35  27
         7     86.7275   1014.4050 299.9110279 +22.6738475     2243.045     70.27884      9.161    25.40    0.4551771     19.84296     50.25978       136     6.283     2.852 -32.07  26
         8    766.3098   1003.8901 300.1258252 +22.8749098     524.8256     70.49364      1.316     2.74    -5.236837     19.84296     85.43709        11     0.927     0.776  77.07   0
         9    788.3915    997.6499 300.1347371 +22.8797461     6502.878      70.3326      1.267     2.19    -5.235995     19.84296     832.8559        37     1.142     1.067  68.43   0
        10    834.1954    997.2452 300.1491396 +22.8933737     231.8802      70.3326      1.224     3.37    -5.709352     19.84296     32.12618         5     0.935     0.351 -44.62   0
        11    797.0668    979.5630 300.1433325 +22.8771607     794.1359     70.31468      1.246     2.15    -5.222381     19.84296     127.9912        12     0.952     0.734 -56.62   0
        12    512.7944    978.1909 300.0552721 +22.7914457     184.4095     70.18913      1.241     3.68    -5.083078     19.84296     26.24369         5     1.161     0.336  78.32   0
        13    648.8896    976.1859 300.0982844 +22.8317244     327.9209     70.27883      1.412     3.67    -5.192224     19.84296     36.27134         5     1.247     0.311 -31.42   0
        14    834.9161    973.1596 300.1572112 +22.8866799     519.9187     70.29676      1.210     2.53    -5.549934     19.84296      65.8018         8     0.759     0.682  40.69   0
        15    883.4055    964.3585 300.1751890 +22.8987020     309.6156     70.35051      1.150     2.99    -5.808165     19.84296     41.65849         5     0.717     0.456  70.79   0
        16    734.6530    963.4733 300.1291322 +22.8538168     380.0394     70.35051      1.289     4.02    -5.232641     19.84296     41.90428         8     0.934     0.675 -41.72   0
        17    746.2302    960.4676 300.1337173 +22.8564287     364.2133     70.31468      1.043     3.11    -5.228734     19.84296     59.45393         8     0.910     0.618  55.88   0
        18    447.4594    960.0410 300.0408583 +22.7666262     2295.084      70.3326      1.353     2.45     -5.13055     19.84296     301.4975        22     1.040     1.000  38.71   0
        19    173.0335    945.9330 299.9601409 +22.6801643      372.934      70.3326      1.234     3.08    -3.498799     19.84296     66.73433         9     0.986     0.699   1.17   0
        20    149.9104    943.1317 299.9538696 +22.6724153     783.2159     70.47577      1.344     2.79    -3.639836     19.84296     116.3865        14     1.052     0.798  77.91   0
        21   1021.3682    931.4525 300.2289189 +22.9306384     1140.035      65.6823      1.099     2.08    -5.102061     19.84296     187.5121        14     0.870     0.796  87.55  16
        22    975.6346    929.9210 300.2151571 +22.9164834     1176.761     70.27883      1.232     2.28    -5.484376     19.84296     177.7742        15     0.933     0.865 -43.68   0
        23    759.0355    923.9725 300.1495936 +22.8498017     346.6996     70.35051      1.218     2.34    -5.193604     19.84296     60.54559         7     0.843     0.507 -47.59   0
        24    627.4414    918.1075 300.1105250 +22.8086305     2829.874      70.3326      1.402     2.58    -5.262523     19.84296     317.3493        28     1.127     1.080 -74.87   0
        25    429.5275    915.1877 300.0498895 +22.7483838     302.1892     70.35051      1.277     4.24    -5.199174     19.84296     42.65619         5     0.862     0.596  45.97   0
        26    177.5492    912.4041 299.9724635 +22.6719141     826.2477      70.3326      1.365     2.75    -4.632379     19.84296     104.1927        14     1.002     0.848 -50.12   0
        27    647.8685    910.5797 300.1193362 +22.8126017     360.2969     70.31468      1.336     3.43    -5.232798     19.84296     51.93796         9     0.860     0.769 -79.14   0
        28    197.4421    909.1061 299.9797184 +22.6769445      249.869     70.35051      1.150     2.96    -4.670852     19.84296     37.14151         6     0.774     0.496 -88.34   0
        29   1020.3845    897.8232 300.2395656 +22.9206899      537.013     68.84793      1.196     2.83    -4.835841     19.84296     72.92687        10     0.935     0.715  86.23  16
        30    803.3492    897.7758 300.1719305 +22.8555806     2328.541     70.35051      1.357     2.50    -4.985897     19.84296     266.1494        25     1.131     1.018  20.43   0
        31    211.8283    892.5279 299.9895872 +22.6765150     365.9997      70.3326      1.255     2.44    -4.698246     19.84296      44.6944         5     0.710     0.463  20.33   0
        32    520.3460    890.4427 300.0862022 +22.7685527     377.2307      70.3326      1.506     3.56    -5.138372     19.84296     36.61938         6     0.940     0.649  66.56   0
        33    166.9598    888.7882 299.9768637 +22.6619665     592.7366     70.31468      1.446     2.97    -4.654122     19.84296     62.37843        10     0.875     0.743  76.25   0
        34    316.6291    880.7189 300.0260065 +22.7046040      30874.7     70.35051      1.459     2.55    -4.966343     19.84296     3617.492        77     1.333     1.296  69.83   0
        35    574.2769    879.5472 300.1065338 +22.7816152     856.1893     70.36842      1.446     3.26    -5.203151     19.84296     98.03899        14     0.967     0.940  19.24   0
        36    987.1454    878.4481 300.2355107 +22.9051607     465.6714     70.36842      1.134     2.81    -4.755727     19.84296      64.3241         8     0.820     0.659  37.17   0
        37    603.4141    875.6537 300.1168710 +22.7892431     519.3732      70.3326      1.532     3.83    -5.311217     19.84296     51.14813        11     0.918     0.845  38.10   0
        38      2.5823    875.3752 299.9301799 +22.6087415     409.0425     61.19359      1.428     3.09    -5.472719     19.84296     47.73459         6     0.849     0.484   0.25  24
        39    614.3647    874.1350 300.1207744 +22.7920938     321.9474      70.3326      1.340     4.59    -5.318526     19.84296      41.1106         8     0.979     0.612 -23.61   0
        40    720.0319    870.3862 300.1548968 +22.8227255     239.5501      70.3326      1.209     3.10    -5.071809     19.84296     32.25287         5     0.861     0.485   3.23   0
        41    366.3158    857.9721 300.0488619 +22.7130023     17909.39      70.3326      1.486     2.74    -5.172289     19.84296     1828.117        57     1.316     1.259  64.19   0
        42    757.1735    860.1606 300.1697949 +22.8309348     451.7427     70.35051      1.555     3.16     -4.92803     19.84296     55.04048         9     0.941     0.662  20.70   0
        43    380.6019    858.5045 300.0531311 +22.7174441     1079.961     70.24297      1.405     2.76    -5.172876     19.84296     122.3787        16     1.027     0.905 -85.32   0
        44    889.1577    853.4167 300.2131151 +22.8685896     1588.282     70.35051      1.338     2.52    -4.713957     19.84296      199.984        17     1.024     0.892  44.45   0
        45    377.3034    852.0944 300.0541924 +22.7146161     415.5259     70.51152      1.715     4.88    -5.123391     19.84296     44.54496         7     1.030     0.656  81.76   0
        46    647.3389    849.6600 300.1390094 +22.7949681     562.3085     70.36842      1.586     4.70    -5.074825     19.84296     44.11151        11     1.067     0.747  65.89   0
        47    248.7917    849.7274 300.0150104 +22.6753498     485.5121     70.31468      1.403     3.41    -4.709336     19.84296     59.59824        10     0.975     0.792 -44.59   0
        48    494.0874    844.5817 300.0929648 +22.7475194     486.8428     70.27883      1.399     3.49    -4.980033     19.84296     50.13547        10     1.013     0.638  64.01   0
        49     53.7561    845.1977 299.9558941 +22.6154710     264.0637     70.31468      1.251     3.25    -4.956801     19.84296     45.36426         5     0.771     0.631  64.10   0
        50    895.0566    841.1550 300.2189463 +22.8668394     256.4671     70.35051      1.364     3.55    -4.676095     19.84296     34.85194         7     0.845     0.665  53.36   0
        51    440.5683    839.8632 300.0778513 +22.7301016     271.1277     70.35051      1.478     4.19    -4.991982     19.84296     42.89518         5     0.804     0.624  18.60   0
        52     82.0131    839.1000 299.9666544 +22.6222126      267.533     70.24297      1.295     3.04    -4.795855     19.84296     40.51703         5     0.613     0.609 -13.27   0
        53    539.5162    822.4778 300.1142972 +22.7548148     426.9966        70.44      1.890     4.77    -4.727796     19.84296     33.45308         9     0.932     0.793 -72.35   0
        54    561.0267    819.8536 300.1218458 +22.7605175     707.7644     70.35051      1.436     3.46     -4.74804     19.84296     63.08812        13     1.056     0.817 -80.40   0
        55    955.4702    818.6435 300.2451083 +22.8784943     2582.782     70.29676      1.397     2.66    -4.538113     19.84296     264.7914        22     1.073     0.995  29.56   0
        56    943.8398    810.0211 300.2442896 +22.8725315     856.6615     70.36842      1.362     2.68    -4.555076     19.84296     118.6517        14     1.052     0.789  35.12   0
        57    307.3111    804.9470 300.0477787 +22.6800852     505.6708     70.35051      1.662     6.19    -4.732211     19.84296     60.75798        10     1.486     0.724 -70.02   0
        58    770.4228    801.4510 300.1930370 +22.8180625     1405.391      70.3326      1.561     3.03    -4.552466     19.84296      126.219        19     1.157     1.000   4.92   0
        59    975.0197    799.9629 300.2572852 +22.8789930     970.3748     70.35051      1.454     2.51    -4.440304     19.84296     123.7205        14     0.989     0.827  61.17   0
        60    852.6031    787.6927 300.2231210 +22.8387621     378.8592     70.24297      1.628     5.86    -4.616521     19.84296     35.01515        10     1.143     0.884 -77.30   0
        61    155.9935    788.3691 300.0061483 +22.6298956     434.8215      70.3326      1.555     3.49    -4.572216     19.84296     48.45184         7     0.842     0.687 -73.00   0
        62    888.7453    778.4289 300.2374004 +22.8469414      84973.1      70.3326      1.455     2.66    -4.630631     19.84296     8396.413       115     1.358     1.335 -67.48   0
        63    741.6650    778.8822 300.1914258 +22.8029596     479.9086        70.44      1.682     4.81    -4.534903     19.84296     43.29685        11     1.289     0.676 -80.80   0
        64    921.3305    771.7053 300.2497459 +22.8547822     205.4812        70.44      1.157     3.49    -4.603086     19.84296     48.97768         5     0.755     0.466 -83.53   0
        65    575.1364    767.4411 300.1432987 +22.7497167     1008.692     70.31468      1.784     3.85    -4.421973     19.84296     87.42952        14     1.083     0.909  80.00   0
        66    756.2064    764.6509 300.2005876 +22.8032372     5292.398      70.3326      1.579     3.22    -4.542494     19.84296     419.7068        32     1.234     1.183  54.77   0
        67    257.9852    760.0725 300.0470517 +22.6524107     2826.827      70.3326      1.555     3.00    -4.623485     19.84296     251.0056        30     1.262     1.170  49.56   0
        68    339.9187    758.1215 300.0731577 +22.6764492     523.7808     70.45789      1.483     4.30    -4.703797     19.84296     62.04503         9     0.927     0.723 -71.78   0
        69    215.9861    755.8636 300.0353685 +22.6385938     283.0389     70.29676      1.369     4.53     -4.60885     19.84296     40.41015         7     0.964     0.707 -88.90   0
        70    548.1872    753.3647 300.1394927 +22.7375921     465.2042     70.31468      1.630     4.48    -4.330177     19.84296     41.31392         7     0.871     0.655  75.87   0
        71    539.8648    745.6326 300.1394191 +22.7328768     1935.453      70.3326      1.723     3.58    -4.296903     19.84296      142.647        26     1.239     1.172  64.76   0
        72    529.9875    739.5189 300.1383350 +22.7281591     843.5279     70.31468      1.648     4.15     -4.27011     19.84296     70.18497        16     1.087     1.061 -35.97   0
        73    922.9076    736.7922 300.2616013 +22.8452314     304.6368     70.24297      1.488     3.91    -4.609171     19.84296     31.56957         6     0.767     0.572  39.60   0
        74    193.5594    735.7980 300.0349294 +22.6261079     291.8812      70.3326      1.205     3.40    -4.570142     19.84296     54.00006         7     1.042     0.679  52.85   0
        75    208.1764    734.1362 300.0400123 +22.6300204     464.5828     70.31468      1.641     6.44    -4.553816     19.84296     33.52178        10     1.525     0.763 -63.26   0
        76    976.5624    730.3357 300.2804303 +22.8594635     311.9497     70.31468      1.175     3.48    -4.427791     19.84296     28.52861         5     1.069     0.327  68.53   0
        77    454.7547    729.1115 300.1183139 +22.7025975     1075.372      70.3326      1.734     4.17    -4.337464     19.84296     81.86527        20     1.240     1.122 -63.99   0
        78    108.9513    724.3651 300.0123642 +22.5974242     11315.83     70.36842      1.506     2.80    -4.433842     19.84296     1132.929        48     1.304     1.215  83.68   0
        79     29.5362    726.0077 299.9871663 +22.5740442     361.1693     70.31468      1.673     6.02    -3.839424     19.84296     36.64786        11     1.407     0.724  59.18   0
        80    539.5735    724.5183 300.1461999 +22.7267322     604.1248     70.31468      1.692     4.19    -4.105917     19.84296     56.73705        12     1.203     0.684  34.07   0
        81    957.7101    710.2215 300.2810984 +22.8480360     664.9338      70.2609      1.778     5.02     -4.44776     19.84296     52.63713        11     1.145     0.759 -56.56   0
        82     54.8567    708.6633 300.0006725 +22.5766785     898.0581     70.38632      1.710     5.07    -4.025287     19.84296     60.79473        19     1.512     0.919 -83.79   0
        83    503.5729    705.4294 300.1412089 +22.7104537     290.8165      70.3326      1.580     3.97    -3.979727     19.84296     25.28761         5     1.068     0.421 -74.70   0
        84    897.9153    702.9754 300.2648162 +22.8280287      429.653     70.29676      1.638     3.98    -4.519728     19.84296     40.97372         7     0.856     0.668  24.31   0
        85    459.8700    697.5512 300.1301752 +22.6950798     436.5198      70.3326      1.741     5.55    -4.135032     19.84296     43.32186         8     1.082     0.802 -54.73   0
        86    655.0431    694.6658 300.1918581 +22.7528083     292.0596     70.31468      1.417     4.26    -4.158087     19.84296     31.07057         7     0.784     0.660   1.88   0
        87    504.0050    693.3184 300.1452841 +22.7071090     489.5713      70.2609      1.656     5.55    -3.875857     19.84296       39.314        11     1.057     0.821  83.35   0
        88    937.7600    688.3558 300.2819941 +22.8357764     1908.292     70.40422      1.538     3.23    -4.423255     19.84296     164.0534        22     1.150     1.048  48.49   0
        89    469.8964    688.6984 300.1361749 +22.6955490      1115.22     70.51152      1.776     4.39    -4.025252     19.84296     88.33836        22     1.326     1.130  66.82   0
        90     31.6437    682.5326 300.0019658 +22.5622181     2740.733     70.31468      1.457     2.62    -3.861401     19.84296     329.0544        25     1.228     0.979  73.84   0
        91    332.9851    675.6105 300.0978510 +22.6507069     5233.161     70.24297      1.677     3.35    -4.474478     19.84296     435.9151        41     1.371     1.301  57.72   0
        92    977.1784    677.3671 300.2978595 +22.8444371     292.8107      70.3326      1.971     4.37    -4.383578     19.84296     25.23754         5     1.160     0.468  57.12   0
        93    455.4464    672.4962 300.1369510 +22.6865651     5204.455     70.35051      1.719     3.36    -4.018259     19.84296     445.9717        39     1.375     1.279  59.88   0
        94    866.9520    666.0054 300.2671954 +22.8081304      1161.26     70.31468      1.706     3.63    -4.349171     19.84296     95.53471        19     1.159     1.075  -7.61   0
        95    951.5386    663.4531 300.2943926 +22.8327555     7221.595     70.38632      1.577     3.02    -4.324875     19.84296     626.4692        44     1.294     1.253  40.46   0
        96    515.9759    662.1104 300.1591629 +22.7017473     6615.011     70.27883      1.731     3.41    -3.598785     19.84296     495.8173        44     1.412     1.340  82.68   0
        97    243.6380    657.5610 300.0759480 +22.6187121     681.7963     70.40422      1.643     4.29     -4.03692     19.84296     66.96591        14     1.140     1.044  55.45   0
        98    490.0612    655.5724 300.1532263 +22.6920963     317.8337      70.3326      1.227     3.43    -3.722163     19.84296     38.46333         5     0.793     0.430 -21.56   0
        99    447.7280    650.3479 300.1417555 +22.6778954     2597.457      70.3326      1.757     3.61    -3.969489     19.84296     191.6067        32     1.364     1.273  48.28   0
       100    790.4662    649.8362 300.2486228 +22.7805551     501.3018      70.3326      1.552     3.60    -4.110052     19.84296     51.47274         9     0.967     0.757  36.89   0
       101    425.8510    648.6239 300.1355110 +22.6708363     698.5909     70.35051      1.815     4.67    -4.122108     19.84296      53.3331        14     1.130     1.009  13.91   0
       102    180.1392    648.1505 300.0592762 +22.5969514     283.7532     70.38632      1.351     5.33     -4.08261     19.84296     45.97293         9     1.024     0.784 -45.12   0
       103    867.1544    645.6285 300.2738881 +22.8023401     800.8824     70.36842      1.550     3.84    -4.237294     19.84296     68.78249        19     1.147     1.106  -8.53   0
       104    564.2656    637.8054 300.1820981 +22.7092605     116973.5      70.3326      1.774     3.62    -3.551414     19.84296     9151.094       159     1.620     1.588 -76.58   0
       105    747.8073    643.2264 300.2374839 +22.7658657      407.792      70.3326      1.863     4.69    -4.090189     19.84296     40.76884         9     1.152     0.842  77.85   0
       106    250.4364    637.9662 300.0844352 +22.6151340     1885.113     70.40422      1.619     3.32    -4.024162     19.84296     198.1032        24     1.259     1.104  14.15   0
       107    454.8228    618.3260 300.1543792 +22.6708375     1433.861     70.36842      1.838     4.37    -3.776779     19.84296     104.9608        24     1.432     1.124  84.03   0
       108    903.9832    617.9823 300.2943609 +22.8054418     170.7044     70.31468      1.422     3.63     -4.00827     19.84296     32.09753         5     0.876     0.828  44.99   0
       109    851.7040    604.1342 300.2825715 +22.7857931      869.759        70.44      1.666     3.95    -3.977108     19.84296     71.77158        19     1.249     1.003 -75.18   0
       110    722.9679    602.0130 300.2431536 +22.7465858     1354.532     70.31468      1.680     3.92    -3.871982     19.84296     96.14862        23     1.231     1.146 -74.30   0
       111    510.6583    597.6389 300.1784804 +22.6816532     408.5933     70.35051      1.731     4.86    -3.480474     19.84296     41.69809         8     1.112     0.753 -73.14   0
       112    980.2417    595.6860 300.3253880 +22.8218951     653.4124     70.31468      1.466     3.50    -4.096531     19.84296     59.59242        14     1.024     0.904   1.28   0
       113    852.0582    594.2822 300.2858864 +22.7830702     1267.887     70.40422      1.833     5.03    -3.920302     19.84296     93.82587        24     1.515     1.130  64.69   0
       114    965.7924    594.5892 300.3212394 +22.8172495     586.0417     70.20708      1.854     5.08    -4.018824     19.84296     44.35909         9     1.015     0.718  53.06   0
       115    889.9615    589.1041 300.2993838 +22.7929452     2506.005     70.31468      1.617     3.51    -3.868282     19.84296     186.9936        31     1.307     1.257  57.27   0
       116    122.1768    580.0172 300.0634285 +22.5600157     499.3337      70.3326      1.589     3.45    -3.787752     19.84296     67.19443        10     1.046     0.847  52.35   0
       117    982.1246    579.8765 300.3311174 +22.8179181     482.0079     70.42211      1.688     5.04    -3.988808     19.84296     38.25005        10     0.968     0.743   4.06   0
       118    663.9500    559.7108 300.2385323 +22.7167443     350.0298      70.3326      1.665     4.73    -3.624671     19.84296     30.86173         7     1.150     0.553 -63.19   0
       119    724.4710    552.2980 300.2597908 +22.7327635     591.4407     70.47577      1.885     4.60    -3.719922     19.84296     47.45323        10     1.220     0.707 -71.42   0
       120    978.5245    551.9471 300.3390784 +22.8088161     331.3994     70.35051      1.225     5.21    -3.775241     19.84296     40.97818         8     1.381     0.554 -51.47   0
       121    881.6671    548.1902 300.3101051 +22.7787084     605.6982      70.3326      1.798     4.76    -3.643294     19.84296     45.61904        13     1.184     0.816  53.93   0
       122    610.3318    542.8414 300.2273241 +22.6958226     1787.988     70.31468      1.827     4.00    -3.413523     19.84296     130.5241        26     1.334     1.192  76.10   0
       123    970.7646    541.5840 300.3400289 +22.8035136     230.5886      70.3326      1.319     3.45    -3.681321     19.84296     27.82092         5     0.745     0.461  17.40   0
       124   1021.3845    521.0374 300.3624956 +22.8127789     828.1592     65.62473      1.790     4.35    -3.522218     19.84296     58.77713        14     1.153     0.901  66.49  16
       125    893.0088    521.1969 300.3224180 +22.7743545     287.1844     70.15322      1.634     5.41    -3.457235     19.84296     35.31421         6     1.286     0.642 -14.83   0
       126    979.8154    519.9971 300.3498707 +22.8000242     560.0716     70.18913      1.358     4.77    -3.483522     19.84296      54.1062        12     1.111     0.836 -15.90   0
       127    720.8734    516.7240 300.2702381 +22.7214707     592.5027     70.40422      1.662     4.85    -3.397202     19.84296     52.22859        12     1.190     0.814  19.85   0
       128    225.3954    515.0673 300.1166195 +22.5723718     316.5907     70.31468      1.297     4.40    -3.290591     19.84296     41.13234         6     0.895     0.615  53.00   0
       129    287.2510    510.7269 300.1372575 +22.5896888     1989.098     70.35051      1.761     3.69    -3.295184     19.84296     167.2657        25     1.325     1.128  61.73   0
       130   1019.7668    508.8518 300.3659534 +22.8087930     2505.149     70.11729      1.623     3.33    -3.379202     19.84296     212.4875        29     1.366     1.196 -17.78  16
       131    234.4389    505.6040 300.1225069 +22.5723714     4127.632     70.35051      1.749     3.48    -3.244565     19.84296     362.3777        36     1.409     1.231  83.11   0
       132    375.1404    499.7754 300.1681459 +22.6129170     2644.471      70.3326      1.845     3.79    -3.240764     19.84296     213.6496        30     1.389     1.251  82.35   0
       133    999.9313    499.7517 300.3627264 +22.8002351     994.9679      70.3326      1.578     3.72    -3.280638     19.84296     77.14017        16     1.096     0.996  40.58   0
       134    619.2226    496.2759 300.2452328 +22.6851214     10497.34     70.31468      1.841     3.90    -3.242999     19.84296     681.6879        57     1.502     1.456  58.32   0
       135    637.2349    496.5055 300.2507661 +22.6905883     375.4243      70.3326      1.880     4.90    -3.259611     19.84296     30.85071         5     1.148     0.591 -65.32   0
       136    952.9097    479.0482 300.3547958 +22.7801973     387.3421      70.3326      1.556     3.98    -3.140646     19.84296     44.12854         5     0.831     0.544  67.05   0
       137    174.1208    476.7852 300.1131308 +22.5460036      1172.42     70.35051      1.761     3.66    -3.107461     19.84296     89.42596        19     1.193     1.028 -79.33   0
       138    559.8913    465.6811 300.2367099 +22.6585467     3741.889     70.45789      1.935     3.92    -3.198596     19.84296     245.8303        38     1.432     1.387  66.17   0
       139    973.4083    465.8033 300.3654931 +22.7825339     619.7582     70.15322      1.565     4.04     -3.10836     19.84296      51.0849        14     1.065     0.915 -89.69   0
       140    275.0760    465.9885 300.1480165 +22.5732012     276.3813     70.35051      1.480     5.47    -3.085632     19.84296      54.7526         7     1.176     0.719 -66.53   0
       141    764.0944    454.6983 300.3038666 +22.7166156     663.3046     70.51152      1.756     4.79    -2.923832     19.84296     50.99677        13     1.046     0.936  28.76   0
       142    466.4578    452.0604 300.2120622 +22.6266163     3524.167     70.40422      1.908     4.16    -3.151007     19.84296     225.2195        39     1.481     1.382 -77.17   0
       143    858.3414    446.2560 300.3359774 +22.7424379     835.1489     70.40422      1.842     5.51     -3.04896     19.84296     59.14808        15     1.152     0.926  85.13   0
       144    956.7197    446.5854 300.3665370 +22.7720118     257.6958     70.31468      1.420     3.31     -3.11445     19.84296     36.09568         5     0.758     0.418  24.33   0
       145    354.1221    431.3878 300.1838398 +22.5869882     1509.698      70.3326      1.984     4.20    -3.034937     19.84296     107.0593        23     1.347     1.152 -57.28   0
       146     72.9149    428.9216 300.0972476 +22.5019016     671.5336        70.44      1.689     4.29     -3.50496     19.84296     60.29206        15     1.297     0.927 -41.10   0
       147    323.4915    420.8646 300.1777353 +22.5747799      16433.4        70.44      1.869     3.78    -3.015445     19.84296      1193.19        64     1.521     1.482  86.22   0
       148    858.0745    418.1796 300.3450203 +22.7342922     693.3943      70.3326      1.630     4.56    -2.965802     19.84296     54.12057        14     1.156     0.951  32.43   0
       149     19.8005    408.8607 300.0872721 +22.4802063     2721.101     70.29676      1.659     3.01    -3.453228     19.84296     263.9489        32     1.317     1.221 -80.61   0
       150    773.2258    407.1109 300.3221790 +22.7056844       325.52     70.27883      1.312     5.26    -2.862226     19.84296     31.49538         7     1.353     0.577  16.55   0
       151    733.7280    400.3228 300.3120810 +22.6918964      1184.88        70.44      1.938     5.27    -2.881481     19.84296     75.01918        23     1.376     1.194  86.10   0
       152    395.7719    385.5413 300.2116923 +22.5863237     1216.538      70.3326      2.038     5.14     -3.01882     19.84296     80.34255        26     1.572     1.202  89.53   0
       153    471.6696    364.6599 300.2420881 +22.6030911     583.7527     70.36842      1.744     5.22    -3.026274     19.84296     55.38237        14     1.198     0.989 -47.15   0
       154    982.3607    359.7758 300.4027460 +22.7547475     119.5484     70.36842      1.117     3.53    -3.130331     19.84296     32.14271         5     0.795     0.452 -75.55   0
       155    716.2218    356.3969 300.3209025 +22.6740327      1379.21     70.27883      1.939     4.43    -2.952738     19.84296      95.1377        26     1.414     1.211  38.19   0
       156    977.4495    350.3215 300.4042867 +22.7505591     1799.783      70.3326      1.673     3.63    -3.135517     19.84296     134.9233        24     1.262     1.118 -76.77   0
       157     99.6160    334.8521 300.1361073 +22.4829334     698.8082      70.3326      1.624     3.95    -3.230423     19.84296     71.79142        14     1.108     0.901 -86.36   0
       158    130.1132    334.7697 300.1456081 +22.4920607     316.1294      70.3326      1.631     4.02    -3.118631     19.84296     39.63692         6     1.105     0.419  30.66   0
       159    992.6354    330.1658 300.4155713 +22.7493148     213.9391     70.40422      1.254     3.53    -3.188024     19.84296     32.80909         5     0.832     0.433 -72.71   0
       160    183.5773    326.5352 300.1648950 +22.5057390     309.9063     70.31468      1.642     5.25    -2.941266     19.84296     28.06013         5     1.020     0.764   3.54   0
       161    885.8387    306.4606 300.3899768 +22.7105107     1022.985      70.3326      1.716     4.00    -2.898809     19.84296     79.17258        19     1.172     1.118  30.55   0
       162    304.4561    304.3632 300.2096703 +22.5356365     1329.767      70.3326      2.073     4.58    -2.667178     19.84296     83.42386        27     1.419     1.286  -4.60   0
       163    383.3190    299.6628 300.2357208 +22.5579385     589.8983        70.44      1.841     5.40    -2.749194     19.84296     45.80906        10     1.299     0.632 -32.60   0
       164    199.2946    291.9707 300.1810072 +22.5005364     487.4512      70.2609      1.690     5.01     -2.76338     19.84296     37.89801         8     1.132     0.629 -10.19   0
       165    736.7091    288.1301 300.3494629 +22.6605617     915.2164     70.49364      1.926     5.43    -3.078324     19.84296     66.13479        18     1.283     1.136  31.05   0
       166    220.3403    285.4835 300.1896550 +22.5049879     247.2339        70.44      1.569     4.29    -2.610644     19.84296     30.67503         5     0.969     0.540  39.98   0
       167   1008.4478    280.3409 300.4366894 +22.7397286     517.3183     70.38632      1.611     5.08    -3.350976     19.84296     48.87796        10     1.031     0.707   1.61   0
       168    740.8456    279.5734 300.3535310 +22.6593429     450.2698     70.35051      1.693     5.00    -3.050886     19.84296      37.4719         6     1.063     0.665 -89.23   0
       169    661.9219    278.7769 300.3292088 +22.6354627     644.0026     70.31468      1.739     5.40    -3.125632     19.84296     51.26019        14     1.142     0.923  21.63   0
       170    586.2552    270.5418 300.3083251 +22.6104187     574.4988     70.38632      2.452     5.53    -2.771557     19.84296     50.00113         6     1.388     0.622  79.08   2
       171    856.8860    270.2444 300.3927175 +22.6914294     840.6912     70.31468      1.675     4.67    -2.709458     19.84296     57.57833        19     1.223     1.129  54.68   0
       172    869.1389    269.2917 300.3968458 +22.6948262     355.4057     70.42211      1.531     5.69    -2.708489     19.84296     33.44041         9     1.152     0.791  80.18   0
       173    985.6794    259.7830 300.4362668 +22.7270000       596.32      70.3326      1.715     3.64    -3.215297     19.84296     61.78415        11     1.105     0.775  -6.40   0
       174    220.3898    252.7884 300.2002893 +22.4956199     351.5354     70.22503      1.644     4.11    -2.595077     19.84296     49.09187         6     1.108     0.435  77.51   0
       175     81.6327    247.9935 300.1587336 +22.4526192      1089.99      70.3326      1.650     4.13    -2.854943     19.84296     81.55348        21     1.260     1.124  84.92   0
       176    904.5013    244.8405 300.4158103 +22.6983914     311.4181     70.31468      1.669     4.18    -2.637565     19.84296     30.08358         6     1.013     0.492 -84.38   0
       177    239.2528    241.2425 300.2099018 +22.4979639     3173.116      70.3326      1.837     3.86    -2.538418     19.84296     221.7155        36     1.421     1.284  83.99   0
       178     23.6517    235.7288 300.1447091 +22.4317041     754.7497      70.3326      1.657     3.40     -2.86524     19.84296     65.24067        12     1.004     0.845 -50.58   0
       179    222.8828    232.0235 300.2078075 +22.4904081     323.4089     70.29676      1.602     3.04    -2.581641     19.84296     30.53869         5     0.877     0.751  89.14   0
       180    883.1962    222.2381 300.4165099 +22.6855134      2074.75     70.36842      1.834     4.00    -2.508562     19.84296     146.7347        30     1.417     1.297  70.85   0
       181    986.6920    221.0450 300.4491642 +22.7161668     1647.016     70.31468      1.718     3.68    -3.158007     19.84296     116.5373        21     1.197     1.075 -63.79   0
       182     20.6039    207.2168 300.1530208 +22.4226100     239.1407      70.2609      2.083     5.20    -2.562616     19.84296     27.36467         5     1.274     0.599 -63.04   0
       183    123.6166    206.7860 300.1851567 +22.4533904     258.7592     70.27883      1.411     4.82    -2.663988     19.84296     34.30923         6     0.928     0.710 -88.66   0
       184    484.0420    205.0759 300.2977743 +22.5609787     983.3267     70.31468      1.828     4.35    -2.542165     19.84296     69.59826        21     1.211     1.198 -45.54   0
       185    258.1560    185.1504 300.2339915 +22.4875326     3284.391     70.36842      1.813     3.56    -2.382562     19.84296     244.4298        38     1.462     1.360 -48.92   0
       186    109.7218    184.9248 300.1879380 +22.4429490     396.2542        70.44      1.512     4.07    -2.637741     19.84296     48.48558        10     1.189     0.709 -13.12   0
       187    504.1009    170.1515 300.3153557 +22.5569606     3562.238     70.36842      2.005     4.15    -2.574029     19.84296     244.0816        38     1.497     1.381  85.06   0
       188    756.5964    160.6339 300.3970630 +22.6298852      580.666      70.3326      1.951     3.48    -2.469932     19.84296     41.78486         5     0.760     0.461  73.87   0
       189    632.3536    150.1872 300.3617594 +22.5896602     3554.185     70.35051      1.933     4.19     -2.44345     19.84296     227.5031        39     1.477     1.392  31.17   0
       190    407.3875    149.3001 300.2920352 +22.5219826     778.1942     70.24297      2.051     4.80    -2.393757     19.84296      58.8066        15     1.156     1.027  83.68   0
       191    674.0880    148.1548 300.3754151 +22.6015807     578.6507     70.31468      1.826     4.59    -2.436544     19.84296     45.48487         9     1.159     0.573 -28.29   2
       192    689.2352    143.6140 300.3816065 +22.6048141      386.278      70.3326      1.940     7.43    -2.419492     19.84296     28.48981         8     1.575     0.981   7.14   0
       193    156.1050    142.3337 300.2161754 +22.4446378     362.0086     70.45789      1.534     3.62    -2.596882     19.84296     34.47598         5     0.880     0.469  -4.08   0
       194    958.9811    140.6362 300.4666324 +22.6847505     333.4192      70.3326      1.862     6.26    -2.423295     19.84296     28.56916         7     1.366     0.805  35.39   0
       195    676.7559    135.0872 300.3804881 +22.5986251     1555.519     70.31468      1.883     4.17    -2.392898     19.84296     97.30866        28     1.414     1.218 -37.62   0
       196    762.9416    126.7274 300.4100473 +22.6220412     809.0055     70.36842      1.742     4.06    -2.371312     19.84296     76.98699        17     1.301     0.911  23.96   0
       197    506.4597    120.1731 300.3323145 +22.5433118     589.2277      70.3326      1.724     6.19    -2.520266     19.84296     58.79111        11     1.511     0.712 -46.68   0
       198    700.8030    120.5735 300.3926888 +22.6016585     288.6664     70.29676      1.556     4.27    -2.343671     19.84296     25.47917         5     0.901     0.578 -47.70   0
       199     80.2436    119.6095 300.1999836 +22.4153629     408.1057     70.35051      1.755     4.09    -2.330248     19.84296     35.58728         6     0.716     0.669  50.85   0
       200    411.2872    118.3671 300.3032895 +22.5142680     421.8015     70.29676      1.602     5.38    -2.057017     19.84296     35.72458         9     1.156     0.708 -54.55   0
       201    181.9642    107.5753 300.2354930 +22.4424157     2378.416     70.35051      1.915     3.93    -2.604597     19.84296     164.7815        34     1.439     1.338  40.54   0
       202    750.0547    108.0288 300.4121024 +22.6128068     320.8205      70.3326      1.427     5.82    -2.307281     19.84296      34.5575         9     1.077     0.887  -4.60   0
       203    298.0148     99.9481 300.2740412 +22.4750225     645.6087      70.3326      1.670     4.24    -1.957937     19.84296     65.21515        16     1.256     0.911 -77.98   0
       204    743.3785     99.8471 300.4126783 +22.6084555     500.7623     70.36842      1.639     5.59    -2.279749     19.84296     47.74831        10     1.126     0.782 -68.78   0
       205    800.9645     91.2602 300.4334066 +22.6232351     1176.531     70.35051      1.823     4.25    -2.241301     19.84296     98.25684        25     1.344     1.244  15.20   0
       206    184.8239     86.8056 300.2431225 +22.4373110     607.1795     70.31468      1.677     4.55    -2.527149     19.84296     44.97802        13     1.186     0.841 -82.07   0
       207    749.4665     83.9047 300.4197493 +22.6056967     556.1775     70.45789      1.866     6.22    -2.214228     19.84296     33.83584        13     1.211     0.898  83.37   0
       208    975.8480     83.9706 300.4902860 +22.6735062     378.1473     70.35051      1.438     4.03    -2.230696     19.84296     37.46992         8     1.005     0.749 -35.75   0
       209    602.2451     68.5660 300.3788788 +22.5571866     417.7791     70.36842      1.735     5.73    -2.195915     19.84296     35.61756        10     1.206     0.767 -57.81   0
       210    211.5243     66.6922 300.2579478 +22.4395426     304.1394     70.49364      1.345     3.49    -2.325705     19.84296     37.01525         5     0.748     0.471  73.39   0
       211    764.8734     63.7918 300.4310767 +22.6045299     389.9946     70.31468      1.573     4.74    -2.076941     19.84296     39.71346         9     0.975     0.654 -20.95   0
       212    573.5471     61.6463 300.3721905 +22.5466001     1043.545     70.36842      1.878     4.86    -2.214222     19.84296     72.29369        19     1.373     1.063  25.72   0
       213    297.1535     59.3911 300.2869355 +22.4631183     349.6499     70.35051      1.773     5.19    -1.939874     19.84296     29.89849         6     1.131     0.673  76.56   0
       214     11.7037     58.0576 300.1986725 +22.3771404     456.6977     70.40422      1.940     4.24    -2.151905     19.84296     31.91744         7     0.767     0.667 -82.68   0
       215    530.5634     55.7842 300.3607137 +22.5320368     782.0224      70.3326      1.851     4.94    -2.180487     19.84296     51.06802        17     1.222     1.006  13.00   0
       216    635.8292     52.2660 300.3946249 +22.5625638     580.2911     70.35051      1.556     5.85    -2.124917     19.84296     59.00139        11     1.229     0.867  40.27   0
       217    456.7060     45.8589 300.3409514 +22.5070535     1173.398     70.40422      1.909     4.78    -1.879807     19.84296     74.50082        26     1.405     1.261  76.88   0
       218    104.4181     44.0945 300.2319996 +22.4009388     800.7618      70.2609      1.656     4.67    -2.225402     19.84296     66.95751        16     1.307     0.906 -67.50   0
       219    164.9656     25.8137 300.2567431 +22.4138464     755.0491     70.31468      1.852     4.21    -2.136321     19.84296     70.15186        14     1.147     0.981  73.28   0
       220    942.4766   1020.7399 300.1752316 +22.9326006     1256.838     67.85249      1.156     2.22    -6.247341     19.84296     183.4335        15     0.907     0.857 -63.74  16
