#   1 NUMBER                 Running object number                                     
#   2 X_IMAGE                Object position along x                                    [pixel]
#   3 Y_IMAGE                Object position along y                                    [pixel]
#   4 ALPHA_J2000            Right ascension of barycenter (J2000)                      [deg]
#   5 DELTA_J2000            Declination of barycenter (J2000)                          [deg]
#   6 FLUX_APER              Flux vector within fixed circular aperture(s)              [count]
#   7 FLUXERR_APER           RMS error vector for aperture flux(es)                     [count]
#   8 FLUX_RADIUS            Fraction-of-light radii                                    [pixel]
#   9 FWHM_IMAGE             FWHM assuming a gaussian core                              [pixel]
#  10 BACKGROUND             Background at centroid position                            [count]
#  11 THRESHOLD              Detection threshold above background                       [count]
#  12 FLUX_MAX               Peak flux above background                                 [count]
#  13 ISOAREA_IMAGE          Isophotal area above Analysis threshold                    [pixel**2]
#  14 A_IMAGE                Profile RMS along major axis                               [pixel]
#  15 B_IMAGE                Profile RMS along minor axis                               [pixel]
#  16 THETA_IMAGE            Position angle (CCW/x)                                     [deg]
#  17 FLAGS                  Extraction flags                                          
         1    567.2184     14.5756 300.3721928 +22.5466464     1058.883     70.19453      1.382     2.68    -1.312945     19.80401     139.7971        16     0.988     0.916  58.66   0
         2    289.9369     12.1534 300.2867226 +22.4628582      487.475     70.21241      1.726     4.49    -2.321373     19.80401     41.28838         9     1.007     0.712 -19.44   0
         3      5.0380     10.4857 300.1987463 +22.3769575     412.5031     69.63807      1.256     3.58    -1.752409     19.80401     48.84816         9     0.904     0.688 -69.04  16
         4    524.5239      8.4442 300.3608931 +22.5320935     694.0283     70.17665      1.341     3.25    -1.526024     19.80401     86.10249        13     1.031     0.811  -7.80   0
         5    629.9713      4.8880 300.3948697 +22.5626611      776.913      69.2948      1.372     2.93    -1.278953     19.80401     88.78606        14     1.045     0.806   5.71  16
         6    225.3796      3.7471 300.2693810 +22.4410922     337.7006     65.89708      1.472     3.52   -0.8893602     19.80401     44.72886         5     0.767     0.467 -77.34  16
         7    126.7949   1022.9276 299.9075779 +22.7037753     464.6904     58.57704      2.209     3.47     14.94197     19.80401     33.93129         5     1.641     0.212 -27.48  24
         8    241.8129   1021.0173 299.9439335 +22.7377850     3154.884     66.67337      9.530    32.25      2.70503     19.80401     83.59207       198     7.456     3.871  46.62  26
         9    108.7357    997.3912 299.9102837 +22.6910352     1466.753     70.17665     19.577    30.20     10.04577     19.80401     50.04887       138     7.525     3.366 -19.39  19
        10     74.3877    982.7962 299.9043686 +22.6765341     2000.706     70.05135     18.814    32.93     3.622185     19.80401     48.70121       190    10.009     3.007 -31.77  19
        11     86.2990    977.7667 299.9097049 +22.6786728     2036.215     70.17665     14.890    20.16     4.783607     19.80401     58.84818        84     4.192     2.693  59.34   3
        12     86.0874    964.2612 299.9140359 +22.6747411      1981.25     70.28387     10.306    22.75     2.521223     19.80401     54.26932       115     5.971     2.408 -16.38   3
        13     84.9710   1009.4064 299.8989912 +22.6873353      3347.63     70.19453     18.845    64.37     9.563557     19.80401     73.33169      1048    13.226     8.692  52.33  27
        14     65.8266   1015.5873 299.8910338 +22.6833524     2813.595     70.19453     11.002    25.04     5.979396     19.80401     58.50021       176     4.794     3.632 -66.71  27
        15    565.2334   1000.9938 300.0510314 +22.8291730     914.3806     70.19453      1.051     1.65    -5.150697     19.80401      210.982        10     0.742     0.673   6.60   0
        16    459.0991    997.5581 300.0191285 +22.7963226     621.3064     70.17665      1.089     1.73    -5.302752     19.80401     122.6277        10     0.907     0.674  24.34   0
        17    389.6959    995.6444 299.9981664 +22.7749331     3790.673     70.21241      1.068     1.83    -5.329242     19.80401     683.8475        21     0.878     0.873 -16.79   0
        18     96.5985    984.0467 299.9108589 +22.6835662     1334.467     70.19453      6.037     5.05     7.586207     19.80401     63.81625        16     1.277     1.082 -46.22   3
        19     99.0512    980.0513 299.9129215 +22.6831588     973.0819     70.23029      4.154     3.95      6.82976     19.80401     30.86444         5     1.595     0.280  42.90   3
        20    233.9188   1023.3831 299.9407101 +22.7360913     1388.486     56.21549      6.199    13.78     4.089767     19.80401     63.10239        49     4.552     1.160  12.15  27
        21    935.9335    974.0855 300.1752509 +22.9326966     1243.203     70.28387      1.025     1.57    -5.160221     19.80401     327.6339        14     0.849     0.701 -89.38   0
        22    586.0544    971.5338 300.0671037 +22.8269768     249.2956     70.24815      1.204     3.56    -5.088252     19.80401     40.30727         8     0.876     0.669 -52.14   0
        23    724.8672    962.8200 300.1131573 +22.8661399     511.7139     70.15877      1.445     4.85    -4.936008     19.80401     61.73531         8     1.265     0.527  64.63   0
        24    656.7344   1010.3236 300.0764744 +22.8593149     4035.687     70.28387      1.110     1.92    -5.039283     19.80401     707.8174        21     0.932     0.856  80.15   0
        25    537.1567    958.0717 300.0562696 +22.8084386     165.5411     70.17665      1.088     2.33    -5.172174     19.80401     50.60643         5     0.744     0.488 -29.26   0
        26    759.4045    957.2203 300.1257371 +22.8748974     589.6032     70.15877      0.966     1.76    -4.931199     19.80401     128.7106         8     0.685     0.617 -49.53   0
        27    781.7726    950.9594 300.1347428 +22.8798131     6735.554     70.23029      1.058     1.65    -4.966555     19.80401     1530.161        26     0.884     0.868 -42.88   0
        28    827.5145    950.9031 300.1490114 +22.8935208     268.2562     70.35526      0.926     1.87    -5.009145     19.80401     63.96066         6     0.699     0.500  89.42   0
        29    972.8717    950.6174 300.1944072 +22.9370416     332.6538     70.19453      0.958     1.94    -5.187352     19.80401      56.4818         5     0.656     0.471  15.18   0
        30    170.9041   1020.2806 299.9221414 +22.7162706     832.1866     69.02259      4.875     6.32     12.91825     19.80401     32.73696         7     1.587     0.707 -28.04  26
        31    790.3069    933.0025 300.1432474 +22.8772223     726.5931     70.10508      1.019     1.79    -4.965664     19.80401     176.1083         9     0.722     0.650  34.72   0
        32    642.3508    929.8876 300.0981857 +22.8319316      260.866     70.19453      1.005     3.44    -5.039283     19.80401     52.64202         5     0.907     0.426 -74.41   0
        33    828.4074    926.5057 300.1572324 +22.8867891     624.8821     70.08717      1.125     2.45    -4.987619     19.80401     79.13591         9     0.906     0.602 -41.67   0
        34    876.9086    917.8817 300.1751529 +22.8988641      303.545     70.31958      1.111     2.62    -4.959021     19.80401     80.49301         8     0.870     0.604 -65.24   0
        35    728.0627    916.9034 300.1291009 +22.8539283      423.879     70.28387      1.149     3.30    -4.792284     19.80401     74.70636         8     0.922     0.832 -87.63   0
        36    440.8465    913.2843 300.0408870 +22.7666851     2489.978     70.17665      1.137     1.81    -5.055874     19.80401     485.4286        20     0.904     0.863  80.56   0
        37    102.4430    901.6989 299.9394795 +22.6617344     231.6015     70.19453      0.994     3.39    -3.574403     19.80401     35.92989         5     0.732     0.454 -69.51   0
        38     83.0371    901.0034 299.9336791 +22.6557052     233.7207     70.23029      1.082     3.73    -3.851095     19.80401     31.39928         5     0.679     0.588  -0.06   0
        39    166.1140    899.1057 299.9601009 +22.6801183     661.8346      70.3731      1.500     2.51    -3.364136     19.80401     95.02621        11     0.881     0.789  63.81   0
        40    143.0752    896.1712 299.9538990 +22.6723570     1011.467     70.21241      1.167     2.07    -3.492078     19.80401     166.5046        13     0.965     0.774   0.71   0
        41   1014.7636    884.8308 300.2288851 +22.9307228     1301.689     70.21241      1.048     1.66     -4.96468     19.80401     294.0893        14     0.835     0.756 -89.73   0
        42     18.1849    885.9702 299.9184346 +22.6319145     137.7597     70.19453      1.046     3.72    -4.788749     19.80401     34.63015         5     0.799     0.498  25.25   0
        43    969.1273    883.3868 300.2151260 +22.9166233     1261.207     70.21241      1.013     1.62    -4.929493     19.80401     279.8558        13     0.802     0.731  77.52   0
        44    674.4532    883.0784 300.1234170 +22.8281397     287.4981     70.23029      1.268     3.32    -4.872157     19.80401      43.1743         5     0.757     0.450  69.54   0
        45    175.3658    877.6534 299.9699567 +22.6767507     217.7211     70.21241      1.070     3.56    -3.800194     19.80401     54.76019         6     0.985     0.447  34.32   0
        46    752.6293    877.4200 300.1496039 +22.8499724     343.4152     70.19453      0.922     2.38    -4.690685     19.80401      57.4698         6     0.749     0.524  42.05   0
        47    620.7578    871.3946 300.1105030 +22.8086755     2916.977     70.21241      1.112     1.81    -4.832049     19.80401     530.4107        23     1.017     0.899  27.42   0
        48    110.5085    872.2643 299.9515637 +22.6557249     261.7442     70.30173      1.197     4.06    -4.334571     19.80401      34.8668         7     0.974     0.484  81.59   0
        49    423.0925    868.3658 300.0499846 +22.7484776     300.5496     70.14088      0.942     2.00    -4.641462     19.80401     77.57412         6     0.714     0.503  46.31   0
        50    170.8846    865.2604 299.9725975 +22.6718537     777.2599     70.30173      1.093     1.99    -4.021069     19.80401     156.6433        11     0.817     0.747  71.58   0
        51    641.3910    863.9205 300.1193586 +22.8127235     454.3416     70.14088      1.028     1.98    -4.806503     19.80401     79.67266         7     0.668     0.638 -39.38   0
        52    439.6749    863.3467 300.0567756 +22.7520167     274.9554     70.21241      1.387     3.96    -4.622578     19.80401     33.18367         6     0.945     0.475  -2.44   0
        53    189.8858    862.6115 299.9793629 +22.6768017     158.2523     70.14088      1.109     3.69    -4.042458     19.80401     44.70116         7     0.916     0.665  10.34   0
        54    796.7619    851.0256 300.1719413 +22.8556390     2394.727     70.21241      1.119     1.94     -4.47877     19.80401     460.3751        18     0.923     0.801  70.02   0
        55   1013.6764    851.1984 300.2394926 +22.9207422     668.9588     70.10508      1.044     1.80    -4.854474     19.80401     138.8719         9     0.762     0.633  58.66   0
        56    205.2656    845.4308 299.9897322 +22.6764975     253.7905     70.19453      0.968     2.27    -4.233504     19.80401      53.3834         6     0.661     0.614 -57.19   0
        57    514.0496    843.6173 300.0863334 +22.7686845     360.9821     70.21241      1.368     3.11     -4.51889     19.80401     54.69178         6     0.887     0.545 -60.33   0
        58    160.0849    841.6913 299.9769118 +22.6618565     519.3824     70.35526      1.113     2.14    -4.276439     19.80401     105.2533         9     0.836     0.620  47.91   0
        59    309.8826    833.8784 300.0260055 +22.7046019     31657.17     70.30173      1.196     1.92     -4.24976     19.80401     5905.938        62     1.118     1.029  60.34   0
        60    567.6820    832.7411 300.1065619 +22.7816614     833.9999     70.26601      1.073     1.82    -4.514998     19.80401      181.379        10     0.780     0.689 -57.25   0
        61    980.6978    831.6113 300.2355841 +22.9052310     477.7348     70.08717      1.048     2.15    -4.702884     19.80401     95.61341        10     0.830     0.699 -84.23   0
        62    238.0474    831.8139 300.0043497 +22.6824398     184.4243     70.19453      1.062     2.78    -4.329571     19.80401     53.52096         7     0.713     0.681 -73.96   0
        63    596.7351    828.8048 300.1168852 +22.7892510     465.4093     70.17665      1.097     2.05    -4.610256     19.80401     87.16679         8     0.703     0.667 -73.69   0
        64    607.4311    827.0875 300.1207733 +22.7919680     295.2084     70.17665      1.102     2.30    -4.645399     19.80401     64.18803         7     0.774     0.575 -59.89   0
        65    927.3272    823.7247 300.2215125 +22.8869634     193.5248     70.26601      0.951     2.08    -4.318087     19.80401     52.37634         5     0.693     0.439  -8.69   0
        66    712.7829    823.5537 300.1547240 +22.8225639     219.9718     70.23029      1.087     2.32     -4.46922     19.80401     57.23907         5     0.684     0.482  14.65   0
        67    750.7282    813.6650 300.1697594 +22.8311100     472.4086     70.23029      1.013     1.91    -4.239366     19.80401     79.21319         7     0.727     0.562 -30.75   0
        68    373.8796    811.6765 300.0531267 +22.7174510      1270.04     70.30173      1.292     2.12    -4.230613     19.80401     182.9517        15     1.015     0.784  84.25   0
        69    359.5977    811.0590 300.0488866 +22.7129864     18129.88     70.15877      1.193     1.95    -4.237327     19.80401     3105.392        45     1.064     1.005  74.80   0
        70    882.4870    806.5975 300.2131098 +22.8686006     1680.944     70.12298      1.037     1.93    -4.091272     19.80401     267.7708        15     0.860     0.784 -40.97   0
        71    640.5312    802.8273 300.1389711 +22.7949407     625.7214     70.17665      1.036     1.98    -4.555925     19.80401     97.90537         6     0.708     0.499  89.64   0
        72    476.8954    802.9152 300.0880177 +22.7458610      344.598      70.3731      1.191     2.78    -4.121113     19.80401     48.35224         7     0.872     0.501  44.64   0
        73    242.1382    802.8271 300.0150520 +22.6753602     582.7262     70.19453      1.290     2.50     -4.54177     19.80401     73.43219         8     0.817     0.604  47.04   0
        74    487.6609    797.7968 300.0930321 +22.7476242     407.6627     70.17665      1.065     2.19    -4.094333     19.80401     86.92869         7     0.752     0.594 -77.10   0
        75     46.5044    798.2867 299.9557573 +22.6153040      277.329      70.3731      1.263     2.89    -4.639553     19.80401     51.11878         5     0.720     0.468  71.20   0
        76    888.7869    794.2518 300.2190902 +22.8669463      241.429     70.23029      1.032     1.97    -4.026508     19.80401      57.5641         6     0.680     0.549 -49.64   0
        77    389.3988    794.1304 300.0636611 +22.7170791     83.86189     70.14088      0.845     3.13    -4.123688     19.80401      34.3404         5     0.741     0.441  69.08   0
        78     75.1924    792.3167 299.9666078 +22.6222107      323.528     70.12298      1.275     2.89    -4.594944     19.80401     66.11926         7     0.838     0.724 -68.62   0
        79    433.5862    792.1424 300.0780505 +22.7297727     215.3853     70.15877      1.212     3.41     -4.07606     19.80401     29.24906         5     0.779     0.431 -68.46   0
        80    866.2668    789.6312 300.2135753 +22.8588666     220.8549     70.19453      1.016     3.35    -4.026051     19.80401     50.08619         5     0.816     0.483 -47.47   0
        81    239.6679    787.2799 300.0193422 +22.6701622     396.6256     70.30173      1.132     2.31    -4.624691     19.80401     67.97771         8     0.828     0.610 -71.55   0
        82    562.8027    777.4872 300.1230209 +22.7643491     208.2269     70.12298      0.927     1.67    -4.162458     19.80401     63.13587         5     0.641     0.486  16.37   0
        83    532.5320    775.7606 300.1141625 +22.7547703     332.1589     70.15877      1.123     3.56    -4.063251     19.80401      58.4106         8     0.971     0.612  53.33   0
        84    948.9122    771.9911 300.2450739 +22.8785850     2705.469     70.12298      1.122     1.77    -4.119752     19.80401     590.1497        20     0.914     0.856 -68.33   0
        85    554.3907    773.1323 300.1218198 +22.7605757     786.8165     70.19453      1.170     2.29    -4.109495     19.80401     117.3783        11     0.887     0.694   7.58   0
        86    636.3207    768.1363 300.1489466 +22.7837252     148.9435     70.28387      1.097     2.34    -4.358935     19.80401     40.58713         5     0.738     0.421  70.65   0
        87    937.4396    763.3328 300.2443143 +22.8726595     903.0423     70.15877      1.009     1.74    -4.030282     19.80401     187.1036        11     0.737     0.708  -4.84   0
        88    300.2146    757.6505 300.0477994 +22.6798472     531.2289     70.19453      1.214     2.59    -4.465158     19.80401     87.83088        11     0.923     0.737  73.57   0
        89    763.6655    754.7459 300.1929582 +22.8180832     1432.485     70.23029      1.167     1.98    -4.287502     19.80401     235.5856        16     0.898     0.855 -59.15   0
        90    968.4099    753.5301 300.2571583 +22.8791306     1086.921     70.17665      1.007     4.25    -4.096559     19.80401     190.9524        11     0.769     0.668 -44.21   0
        91    149.3783    741.7238 300.0061067 +22.6299928      371.971     70.17665      1.198     3.17    -4.671181     19.80401     59.02702         8     0.910     0.635  19.32   0
        92    845.7971    740.4086 300.2232100 +22.8385997     316.4106     70.01551      1.008     3.12    -4.012203     19.80401     56.61763         5     0.742     0.437 -22.10   0
        93    882.1889    731.6244 300.2374081 +22.8469905     85637.15     70.19453      1.141     1.92    -4.002985     19.80401     15100.68       108     1.192     1.107  73.65   0
        94    734.5122    731.8914 300.1913121 +22.8027804     517.5643     70.35526      1.344     3.03    -4.579152     19.80401     62.29609         9     0.873     0.714 -67.17   0
        95    568.2938    720.4846 300.1432720 +22.7496448     992.3716      70.3731      1.301     2.45    -4.010026     19.80401     143.8788        17     1.069     0.901   0.38   0
        96    749.6732    717.8199 300.2006112 +22.8032892     5525.439     70.19453      1.172     2.07    -4.377494     19.80401     906.4119        29     1.028     0.946  80.99   0
        97    251.2613    713.2330 300.0470302 +22.6524167     2892.824     70.21241      1.215     2.26    -4.533405     19.80401     411.6879        20     0.993     0.894 -87.48   0
        98    333.3482    711.3615 300.0731555 +22.6765217     672.0848     70.19453      1.203     2.59    -4.189461     19.80401     92.17004        11     0.921     0.728  70.24   0
        99    541.4023    706.5206 300.1394447 +22.7375705     404.2957     70.10508      1.125     2.65    -3.905587     19.80401      57.7225         6     0.803     0.490  88.98   0
       100    533.1536    698.7877 300.1393928 +22.7328772     1864.395     70.19453      1.262     2.31    -3.874749     19.80401      257.083        21     1.035     0.929  59.05   0
       101    523.3929    692.5875 300.1383719 +22.7281699     733.8359     70.08717      1.076     2.12    -3.855103     19.80401     109.3042        10     0.816     0.686  41.23   0
       102    916.9161    689.8293 300.2618258 +22.8454032     330.8334     70.19453      1.224     3.77    -4.004202     19.80401     53.43231         6     0.770     0.549  64.01   0
       103    186.6338    688.7731 300.0349014 +22.6260018      449.382     70.21241      1.264     2.09    -4.335059     19.80401     74.46111         6     0.650     0.630 -25.46   0
       104    970.0261    683.5005 300.2804406 +22.8595071     318.3153     70.14088      1.074     2.53    -3.983826     19.80401     69.56908         6     0.739     0.640  25.34   0
       105    226.9828    683.7862 300.0490609 +22.6366859     372.1853     70.14088      1.267     2.38    -4.288234     19.80401     53.30559         6     0.713     0.543 -35.92   0
       106    448.0928    682.2601 300.1183033 +22.7026131     908.1774     70.26601      1.138     2.30    -3.842651     19.80401     137.3417        11     0.855     0.714 -89.93   0
       107    102.2336    677.4355 300.0123692 +22.5974101     11278.38     70.24815      1.216     2.22    -4.143052     19.80401     1566.189        42     1.134     0.993  73.87   0
       108   1023.6183    679.0599 300.2985954 +22.8742958     362.4336     54.81384      0.897     2.03     -3.95298     19.80401     96.67945         6     0.724     0.485  87.81  24
       109     22.9680    679.0521 299.9872285 +22.5740697     362.9545     70.21241      1.107     2.28    -3.980949     19.80401     70.51855         8     0.777     0.634  57.91   0
       110    533.1833    677.4575 300.1463386 +22.7267669     621.5715     70.17665      1.293     2.76    -3.801187     19.80401     83.64552        11     0.912     0.789  86.81   0
       111    951.0759    663.3997 300.2810695 +22.8480545      656.497     70.06927      1.112     2.05    -3.975216     19.80401     109.0739        10     0.792     0.730  26.35   0
       112     48.1546    661.4398 300.0007756 +22.5765862      833.882     70.26601      1.530     4.48    -4.046012     19.80401     99.03569        15     1.404     0.699  86.77   0
       113    817.9904    661.8976 300.2400804 +22.8077242     301.1018     70.10508      0.985     2.31     -3.98864     19.80401     51.93201         7     0.824     0.518 -47.72   0
       114    891.3831    656.3351 300.2647599 +22.8281316     378.2883     70.17665      1.037     2.07    -3.914597     19.80401     58.08907         5     0.656     0.475  76.57   0
       115    453.2531    650.1964 300.1303345 +22.6949642     455.8828     70.17665      1.441     4.35    -3.728957     19.80401     50.30627        10     1.105     0.794 -35.10   0
       116    618.7711    647.1337 300.1828373 +22.7437415      328.268     70.19453      1.119     3.27    -3.907952     19.80401     50.88274         7     0.966     0.536 -16.68   0
       117    497.4745    646.3419 300.1453452 +22.7071266     598.7117     70.24815      1.325     2.72    -3.697213     19.80401     67.33188        10     0.826     0.795 -89.55   0
       118    462.8929    641.6447 300.1361137 +22.6954034     952.2794     70.19453      1.325     4.65    -3.687421     19.80401     141.4369        15     1.226     0.806  67.43   0
       119    931.1161    641.5704 300.2819456 +22.8358029     1940.592     70.19453      1.118     1.87    -3.932343     19.80401     345.0011        16     0.880     0.805  10.45   0
       120     25.0141    635.6821 300.0019645 +22.5622551     2927.685     70.17665      1.230     2.26    -4.059958     19.80401     426.9019        22     1.012     0.920  66.58   0
       121    326.3633    628.6174 300.0978892 +22.6506970     5211.736     70.19453      1.264     2.35    -3.980298     19.80401     717.3751        30     1.105     1.001 -86.21   0
       122    448.8296    625.5590 300.1369688 +22.6865693     5190.312     70.21241      1.330     2.46    -3.626101     19.80401     685.9836        28     1.090     1.012  78.87   0
       123    860.3458    619.2047 300.2671601 +22.8081656     1074.437     70.17665      1.256     2.54    -3.614249     19.80401     160.3784        14     0.986     0.812 -89.15   0
       124    945.0055    616.7001 300.2943619 +22.8328241     7203.378     70.08717      1.167     1.94    -3.867014     19.80401     1276.391        31     1.006     0.952  59.95   0
       125    509.3609    615.1781 300.1591756 +22.7017518     6832.407     70.23029      1.310     2.39    -3.571443     19.80401       881.71        35     1.167     1.026  72.89   0
       126    678.7590    610.9211 300.2132877 +22.7513405     373.4858     70.17665      1.389     2.76     -4.00612     19.80401     44.43961         7     0.696     0.688 -74.11   0
       127    236.9432    610.5727 300.0759599 +22.6186840     903.5308     70.19453      1.358     2.22    -4.033646     19.80401     142.1895        14     1.031     0.799  57.70   0
       128    483.6811    607.4667 300.1536926 +22.6918352     333.5257     70.30173      1.424     4.48    -3.511984     19.80401     40.71405         6     1.320     0.433  82.07   0
       129    784.2259    603.3492 300.2485976 +22.7807921     420.9989     70.21241      1.268     3.36    -3.957529     19.80401     66.22153         9     0.986     0.701  24.88   0
       130    441.0768    603.3121 300.1417895 +22.6778611     2509.264     70.31958      1.326     2.48    -3.552888     19.80401     316.8785        19     0.996     0.945 -89.76   0
       131    419.2711    601.8092 300.1354955 +22.6708874     646.8196     70.17665      1.271     2.82    -3.580462     19.80401     86.31898        13     0.987     0.815  88.19   0
       132    173.8051    601.0429 300.0594383 +22.5969991     462.3375     70.21241      1.273     2.46    -4.062181     19.80401      67.9406         8     0.875     0.600 -28.71   0
       133    860.6921    598.6625 300.2739466 +22.8023710     798.6119     70.30173      1.277     2.54     -3.53406     19.80401     118.0052        12     0.961     0.753 -73.38   0
       134    107.5611    598.6816 300.0396271 +22.5764352     149.3467     70.15877      1.291     4.08    -4.126126     19.80401     31.11883         5     0.970     0.490  84.55   0
       135    741.3964    595.7463 300.2377280 +22.7657676     541.6737     70.17665      1.392     2.98     -3.88836     19.80401     65.58752        12     0.945     0.898  30.60   0
       136    557.6304    590.8668 300.1820996 +22.7092556     118931.7     70.19453      1.355     2.39     -3.56284     19.80401     17023.17       140     1.324     1.310 -44.21   0
       137    243.8941    590.9934 300.0844846 +22.6151558     2058.739     70.08717      1.337     2.32    -3.890323     19.80401     316.2069        20     1.061     0.903  82.49   0
       138    809.2740    586.6680 300.2618241 +22.7835125     380.2495     70.26601      1.269     3.40    -3.803839     19.80401      41.0439         5     0.761     0.438 -16.04   0
       139    448.3520    571.4111 300.1544222 +22.6708917     1715.447     70.21241      1.479     2.78    -3.492989     19.80401     181.8909        24     1.419     0.955 -71.55   0
       140    765.3306    559.5715 300.2569423 +22.7625582     248.8013     70.19453      1.077     3.04    -3.601777     19.80401      50.3751         5     0.758     0.433  22.68   0
       141    845.2212    557.1196 300.2826298 +22.7858041     1056.142     70.15877      1.287     2.46    -3.564119     19.80401     143.1148        13     0.928     0.798 -69.41   0
       142    716.3999    554.8746 300.2432284 +22.7465392     1489.921     70.06927      1.283     2.34    -3.531504     19.80401     193.1304        18     1.052     0.879  68.21   0
       143    621.1362    551.6736 300.2146063 +22.7170542     175.8297     70.23029      1.137     2.61    -3.399653     19.80401     39.28268         6     0.720     0.614  63.35   0
       144    503.7573    550.8113 300.1783548 +22.6816017     383.6597     70.19453      1.337     3.22     -3.43019     19.80401     61.34533        11     1.024     0.744  55.20   0
       145    973.7729    548.7560 300.3254179 +22.8219309     716.8152     70.21241      1.174     2.41    -3.618396     19.80401     111.6669        10     0.884     0.637  57.58   0
       146    845.4330    547.4246 300.2858471 +22.7830835      1260.17     70.17665      1.357     2.65     -3.54604     19.80401     155.0165        19     1.313     0.849  69.59   0
       147    959.5449    547.6218 300.3213506 +22.8173413     455.3805     70.21241      1.156     2.99     -3.62849     19.80401     64.66284         7     0.896     0.514 -60.30   0
       148    599.1549    545.8294 300.2096631 +22.7087847     322.0136     70.23029      1.416     4.82    -3.358581     19.80401     36.32948         7     1.039     0.731  29.06   0
       149    883.6237    542.2975 300.2994152 +22.7930582     2417.788     70.12298      1.172     2.24    -3.567938     19.80401     309.8917        19     0.945     0.876  58.54   0
       150    975.2062    532.7152 300.3310785 +22.8177527     357.8766     70.12298      0.963     1.81    -3.593189     19.80401     88.55756         7     0.739     0.535  28.78   0
       151    115.7363    532.9144 300.0635413 +22.5600340     507.2672     70.28387      1.233     2.76     -3.64727     19.80401     79.55369         9     0.939     0.624  65.76   0
       152    657.0092    513.0569 300.2383250 +22.7167265     463.0311     70.17665      1.469     2.99    -3.275815     19.80401     41.30397         7     0.825     0.566  42.67   0
       153    717.7544    505.1619 300.2598067 +22.7326727     461.5821     70.24815      1.245     3.21     -3.29155     19.80401     72.36873         9     0.988     0.619 -83.68   0
       154    971.5777    505.1782 300.3388966 +22.8087548     275.7222     70.19453      1.115     2.07    -3.571452     19.80401     60.37523         5     0.684     0.455 -67.94   0
       155    874.9683    500.9189 300.3101655 +22.7785798     641.0106     70.19453      1.408     3.88    -3.466461     19.80401     80.33608        12     1.164     0.731 -80.50   0
       156    839.6176    497.8068 300.3001603 +22.7670908     260.3012     70.15877      1.215     3.46    -3.445222     19.80401        24.28         5     0.770     0.449  72.76   0
       157    858.9927    497.5823 300.3062710 +22.7728334     325.5741     70.15877      1.224     2.43    -3.445222     19.80401      53.6991         6     0.769     0.488   6.78   0
       158    603.5507    495.6661 300.2273334 +22.6957043     1850.134     70.17665      1.396     2.77    -3.166786     19.80401     237.0085        18     1.032     0.948  63.33   0
       159    443.8947    483.1065 300.1817327 +22.6442170     265.9662     70.35526      1.308     3.77    -3.316563     19.80401     36.65386         6     0.768     0.560 -54.45   0
       160   1014.8738    474.5978 300.3623343 +22.8129416     774.7492     70.10508      1.194     2.05    -3.590174     19.80401     140.2218        11     0.849     0.691  72.52   0
       161    973.2026    473.4019 300.3497290 +22.8001127     546.0666     69.97965      1.174     3.02    -3.515459     19.80401     90.83258        10     0.986     0.650  85.28   0
       162    886.7855    474.3719 300.3224748 +22.7744962     190.2392     70.21241      1.156     3.21    -3.406605     19.80401     43.61534         7     0.845     0.589 -77.17   0
       163    713.9565    469.5715 300.2701886 +22.7213151     517.2183     70.23029      1.291     2.89    -3.093037     19.80401     74.53673        10     0.879     0.754 -88.95   0
       164    510.5640    470.3167 300.2066302 +22.6605427     221.3806     70.17665      1.224     3.44    -3.128022     19.80401     32.59276         5     0.754     0.452 -70.34   0
       165    218.3451    468.1540 300.1164633 +22.5722583     381.3626     70.23029      1.305     2.58    -3.183264     19.80401     54.46846         6     0.722     0.598 -43.96   0
       166    280.5558    463.7742 300.1372217 +22.5896689     2133.418     70.21241      1.348     2.48    -3.245261     19.80401     312.1172        24     1.134     0.984 -86.50   0
       167   1013.4713    461.8483 300.3660396 +22.8088581     2380.072     70.17665      1.151     2.11    -3.561242     19.80401     394.8846        17     0.957     0.800 -86.36   0
       168    227.8218    458.6758 300.1224876 +22.5723834     4148.517     70.17665      1.333     2.39    -3.184781     19.80401     605.1746        31     1.154     1.033 -74.83   0
       169    368.5384    452.8042 300.1681403 +22.6129173     2749.723     70.19453      1.436     2.48    -3.297699     19.80401     388.5669        23     1.112     0.980  72.79   0
       170    993.5083    452.8766 300.3627295 +22.8002994     1039.579     70.33743      1.146     2.36    -3.486284     19.80401      158.928        13     0.970     0.779 -82.03   0
       171    612.7435    449.3530 300.2452427 +22.6851656     10728.73     70.23029      1.424     2.66    -2.789644     19.80401     1295.499        42     1.186     1.143  43.65   0
       172    630.6410    449.6858 300.2507064 +22.6906273      514.446     70.17665      1.925     6.05    -2.820786     19.80401     35.72316         8     1.332     0.774 -34.28   0
       173    946.1512    431.7204 300.3548376 +22.7800323     381.4138     70.19453      1.295     2.36    -3.207922     19.80401     74.79747         7     0.792     0.590 -72.99   0
       174    167.5325    429.7274 300.1131572 +22.5459886     1125.178     70.24815      1.317     2.69    -3.186882     19.80401     144.6025        14     0.973     0.842  77.15   0
       175    553.3452    418.8320 300.2366692 +22.6585936     3826.008     70.21241      1.437     2.66    -2.732144     19.80401     474.4033        28     1.159     1.081 -39.75   0
       176    268.1839    418.7622 300.1479982 +22.5730439     517.1749     70.19453      1.559     3.57    -3.209583     19.80401     52.40332        10     1.018     0.671  86.30   0
       177    966.9850    418.7803 300.3655367 +22.7825563     661.0506     70.17665      1.168     2.14    -3.234892     19.80401     120.2137        10     0.875     0.689  53.84   0
       178    125.9221    412.1694 300.1059332 +22.5284658     387.7445     70.17665      1.554     3.44    -3.193644     19.80401      49.7588         8     0.990     0.762 -46.10   0
       179    757.4422    407.6809 300.3038397 +22.7165767     685.9984     70.15877      1.381     2.70    -2.666681     19.80401     91.51727        11     0.894     0.785  11.67   0
       180    666.7502    408.2408 300.2754127 +22.6895528     207.1896     70.21241      1.399     5.25    -2.558508     19.80401     37.21251         5     1.036     0.751  15.85   0
       181    460.0068    405.1145 300.2120817 +22.6266664      3492.79     70.12298      1.411     2.84    -2.811438     19.80401      397.614        25     1.141     1.027  87.13   0
       182    851.7580    399.1517 300.3359958 +22.7423919     708.9376     70.21241      1.301     2.95    -2.994408     19.80401     100.5256        12     0.989     0.783  62.51   0
       183    949.7527    399.3466 300.3664771 +22.7718096     289.7903     70.23029      1.103     2.61    -3.061679     19.80401     60.87338         7     0.741     0.632  -9.37   0
       184    444.7535    393.6242 300.2110687 +22.6187940     367.2836     70.21241      1.221     2.64    -2.817374     19.80401     39.10056         5     0.693     0.474  11.39   0
       185    824.6867    387.1544 300.3314570 +22.7308333    -201.8983     70.17665      1.298     2.22    -2.866807     19.80401      53.5832         6     0.702     0.599  36.90   0
       186    347.5092    384.5443 300.1837736 +22.5870222     1488.086     70.24815      1.415     2.68    -2.970884     19.80401     183.9851        18     1.063     0.959 -86.95   0
       187     65.8977    382.0186 300.0970818 +22.5018049     481.4893     70.12298      1.288     2.69    -3.044868     19.80401     78.60089        10     0.854     0.770 -43.65   0
       188    316.9320    373.8839 300.1777285 +22.5747912     17209.07     70.30173      1.430     2.72    -2.909358     19.80401     2082.059        56     1.288     1.174  77.11   0
       189    851.6150    371.0447 300.3450805 +22.7342745     733.2242     70.21241      1.228     2.79    -2.799172     19.80401      102.976        14     0.963     0.875 -28.13   0
       190     13.3877    361.8906 300.0873123 +22.4802732     2944.712     70.14088      1.339     2.40    -2.466297     19.80401     363.7298        27     1.093     1.066  66.12   0
       191    415.1788    359.1898 300.2130525 +22.6000412     285.1047     70.17665      1.281     3.45    -2.656647     19.80401     31.32014         5     1.008     0.341 -44.12   0
       192    727.2527    353.5811 300.3120075 +22.6919902     1051.184     70.17665      1.369     2.92    -2.339604     19.80401     125.0721        14     0.968     0.872   5.97   0
       193    942.4578    346.0630 300.3815090 +22.7543132     357.6974     70.24815      1.272     2.42    -2.754643     19.80401     53.63816         6     0.751     0.491  81.71   0
       194    389.1506    338.1138 300.2118012 +22.5861862     1257.257     70.19453      1.632     3.77    -2.554527     19.80401     116.4275        23     1.370     0.986  79.70   0
       195    601.7191    337.0302 300.2782938 +22.6496101     158.8894     70.19453      1.173     3.77    -2.262437     19.80401     35.74492         5     0.820     0.497 -29.72   0
       196    828.1296    330.7795 300.3508386 +22.7156695     354.6319     70.19453      1.352     4.13    -2.655661     19.80401     42.99243         8     0.870     0.842  76.78   0
       197    709.8650    328.9966 300.3145756 +22.6797178     263.1835     70.21241      1.203     2.92    -2.434502     19.80401     41.99987         5     0.790     0.489 -29.45   0
       198    464.7484    317.6118 300.2419736 +22.6029704     730.7856     70.21241      1.471     3.60    -2.351107     19.80401     86.52308        12     0.987     0.872   4.03   0
       199    709.6815    309.3170 300.3209085 +22.6740102      1302.61     70.31958      1.405     2.75    -2.517175     19.80401     144.8186        16     1.028     0.890  88.81   0
       200    970.8240    303.3751 300.4042148 +22.7505422     1828.223     70.15877      1.236     2.17    -2.598588     19.80401      291.654        20     1.021     0.922  40.72   0
       201    123.9173    287.7447 300.1457131 +22.4921734     348.7811     70.24815      1.197     3.19    -2.594186     19.80401     51.88562         6     0.775     0.568 -80.83   0
       202     93.0063    287.5424 300.1361770 +22.4828411     897.9402     70.15877      1.577     3.17    -2.507586     19.80401     101.5501        17     1.210     0.932  -7.80   0
       203    986.6819    283.6768 300.4155551 +22.7496302     323.8028     70.30173      1.289     3.37     -2.46298     19.80401     42.64045         5     0.916     0.432  77.50   0
       204    176.6311    279.4453 300.1647847 +22.5056066     396.9995     70.24815      1.590     4.46    -2.632753     19.80401     36.36869         7     1.087     0.521 -42.71   0
       205    781.2698    270.7409 300.3557322 +22.6843797     269.9532     70.21241      1.227     3.46    -2.624951     19.80401     49.88778         7     0.852     0.765  40.31   0
       206    879.4987    259.6956 300.3899268 +22.7106338      1170.54      70.3731      1.339     2.53    -2.407521     19.80401     150.8408        19     1.165     0.958  34.66   0
       207    297.9886    257.1912 300.2097270 +22.5356206     1267.017     70.08717      1.437     2.92    -2.236316     19.80401     137.3891        22     1.163     1.067  45.14   0
       208    376.2256    252.2898 300.2356450 +22.5576750     585.2018     70.12298      1.485     3.01    -2.211178     19.80401     73.66354        10     0.934     0.747 -49.31   0
       209    128.2760    252.2943 300.1585747 +22.4833104     222.8644     70.33743      1.723     3.83    -2.471268     19.80401     41.46721         5     0.947     0.445  -6.72   0
       210    778.1644    251.5700 300.3609882 +22.6779412     233.7297     70.21241      1.168     3.02    -2.629686     19.80401     52.46491         7     0.926     0.483   7.99   0
       211    311.1185    243.6593 300.2182014 +22.5356741     111.0561     70.28387      1.163     5.17    -2.195527     19.80401     27.44599         5     1.247     0.606 -29.52   0
       212    192.8592    244.1996 300.1812681 +22.5003610     599.4861     70.15877      1.626     3.20     -2.38889     19.80401     71.31947        10     0.957     0.756  -5.00   0
       213    730.5995    241.3334 300.3494944 +22.6607488     58.21785     70.15877     -0.275     2.76     -2.63466     19.80401     120.5136        16     1.084     0.913 -40.77   0
       214    795.6035    240.9646 300.3698640 +22.6801187     426.1216     70.19453      1.737     2.17    -2.630473     19.80401     53.85874         5     0.770     0.469  29.40   0
       215    214.6102    237.9296 300.1900625 +22.5050859     323.1548     70.17665      1.176     3.08    -2.289154     19.80401     45.71684         6     0.764     0.653  68.32   0
       216   1001.9136    233.2164 300.4366862 +22.7396867     383.9973     70.15877      1.237     2.91    -2.478467     19.80401     62.45139         9     0.880     0.670  66.60   0
       217    734.8343    232.7124 300.3536118 +22.6595408     459.0098     70.17665      1.474     3.67    -2.643263     19.80401     46.62671        11     1.015     0.753  83.26   0
       218    654.9442    231.9676 300.3289738 +22.6353881     703.3617     70.21241      1.504     4.34    -2.525443     19.80401     73.32932        13     1.089     0.922 -25.27   0
       219    850.5737    223.3085 300.3927238 +22.6915123     801.8222     70.14088      1.209     2.64     -2.41556     19.80401     103.6426        12     0.878     0.843  74.86   0
       220    581.4119    223.5604 300.3088103 +22.6109363     489.2347     70.19453      1.331     3.60    -2.285748     19.80401     57.30853         9     1.009     0.617  84.70   0
       221    862.2190    222.3843 300.3966529 +22.6947350     480.4969     70.17665      1.455     3.32    -2.368261     19.80401      67.2732         8     0.928     0.629  62.04   0
       222   1023.1759    213.0172 300.4498735 +22.7402466     931.2387     57.34278      1.194     2.18    -2.419706     19.80401     152.3812        10     0.818     0.682  84.51  24
       223    979.0352    212.3711 300.4363183 +22.7268431      568.965     70.21241      1.171     2.66    -2.357326     19.80401     88.60954        11     0.897     0.819   3.56   0
       224      2.9712    209.8150 300.1334452 +22.4335298     289.3735     62.79589      1.405     3.15    -2.140828     19.80401     39.63302         5     0.788     0.498 -57.77  16
       225    213.5055    205.6387 300.2001991 +22.4954875     370.1924     70.17665      1.229     3.79    -2.167631     19.80401     47.65644         9     0.907     0.766  33.53   0
       226     75.3249    200.8704 300.1588164 +22.4526712     1321.842     70.26601      1.359     2.71    -2.265152     19.80401     170.0722        20     1.096     0.959 -80.17   0
       227    898.0472    197.5389 300.4158838 +22.6983253     367.6203     70.23029      1.288     3.69    -2.248552     19.80401     49.66157         8     0.881     0.657 -43.55   0
       228     25.0715    198.0158 300.1441364 +22.4367758     245.4612     70.19453      1.239     3.81    -2.188692     19.80401     42.98546         5     0.793     0.524 -64.49   0
       229    232.7672    194.1853 300.2099023 +22.4979771     3311.197     70.17665      1.436     2.67    -2.126847     19.80401     385.5517        28     1.237     1.024 -85.83   0
       230     16.9127    188.6277 300.1446494 +22.4316347     729.3966     70.19453      1.392     2.90    -2.184123     19.80401     107.3765        14     1.068     0.802  79.09   0
       231    216.0752    185.3124 300.2075939 +22.4904245     437.5464     70.31958      1.529     2.87    -2.135197     19.80401     44.73309         7     0.738     0.635   9.87   0
       232    876.7361    175.2780 300.4164658 +22.6855441      2020.42     70.28387      1.354     2.45    -2.185571     19.80401     255.2144        21     1.092     0.987  69.25   0
       233    980.2799    174.0305 300.4491498 +22.7161935     1589.604     70.19453      1.310     2.41    -2.104419     19.80401     236.4048        19     0.990     0.957  16.61   0
       234    426.2605    170.8773 300.2776293 +22.5493016     284.3783     70.24815      1.331     4.21     -2.01673     19.80401        43.62         8     1.072     0.586 -69.14   0
       235    178.9055    171.7074 300.2004579 +22.4753723     313.5657     70.35526      1.660     4.03    -2.139168     19.80401     39.30252         6     1.146     0.405  32.69   0
       236    349.9783    163.1014 300.2564277 +22.5242003     243.6289     70.12298      1.225     4.39    -1.997326     19.80401     42.45615         6     1.394     0.393 -44.94   2
       237    354.0000    160.9051 300.2583909 +22.5247754     258.1143     70.06927      1.282     3.98    -1.990468     19.80401     29.39412         5     1.084     0.417 -89.05   2
       238    116.3973    159.9825 300.1848417 +22.4532594     351.3551     70.10508      1.279     4.43    -2.156268     19.80401     54.26928         9     1.102     0.722 -63.12   0
       239    477.6233    158.1209 300.2977476 +22.5610343     917.7546     70.15877      1.545     3.41    -1.990487     19.80401     90.83064        17     1.145     0.945  81.83   0
       240    251.6088    138.0432 300.2339752 +22.4875122     3623.797     70.21241      1.484     2.64    -2.091394     19.80401     433.1477        28     1.176     1.073  68.04   0
       241    102.8927    137.4595 300.1879541 +22.4427454     398.5715     70.26601      1.296     2.55    -2.146678     19.80401     44.37825         6     0.756     0.496   5.02   0
       242    497.6430    123.1502 300.3153230 +22.5569905     3646.897     70.23029      1.488     2.89    -1.934001     19.80401     395.4745        30     1.222     1.131 -88.15   0
       243    382.6337    123.0661 300.2795724 +22.5224945     346.6118     70.19453      1.402     4.98    -2.007802     19.80401     52.31674         7     1.289     0.573  -6.26   0
       244    750.2515    112.8125 300.3973228 +22.6297062     575.1887     70.23029      1.693     3.56    -1.807827     19.80401     62.70038        12     1.056     0.821 -19.70   0
       245    625.8976    103.2564 300.3616964 +22.5897072     3489.339     70.28387      1.460     2.91    -1.625898     19.80401     401.5917        30     1.195     1.102  73.67   0
       246    400.9768    102.1099 300.2920760 +22.5219750     779.7609     70.12298      1.459     3.55     -2.00754     19.80401     90.38715        14     1.060     0.906 -54.63   0
       247    667.0272    100.5696 300.3753744 +22.6012574     437.8479     70.19453      1.362     3.47    -1.486128     19.80401     67.72253        11     0.990     0.825  47.30   0
       248    683.2468     96.6482 300.3816974 +22.6049895     280.9059     70.21241      1.038     2.55    -1.446127     19.80401     48.86206         5     0.717     0.449 -16.80   0
       249    149.9005     94.3198 300.2165522 +22.4444626     369.4166     70.31958      1.317     3.94      -2.1099     19.80401     48.94167         8     0.820     0.690  39.77   0
       250    670.2015     88.2096 300.3803724 +22.5986566      1507.36     70.01551      1.415     2.98    -1.437821     19.80401     144.6392        19     1.097     0.954  64.29   0
       251    685.1786     86.3240 300.3856481 +22.6026014      509.582     70.19453      1.913     5.80    -1.436416     19.80401     36.54856        11     1.305     0.725  -8.64   0
       252    756.6090     79.4683 300.4101203 +22.6220271     942.7886     70.17665      1.464     3.20    -1.568632     19.80401     113.9397        15     1.053     0.931 -56.07   0
       253    694.6014     73.0336 300.3928938 +22.6016047     437.1021     70.15877      1.500     3.92     -1.43085     19.80401     48.70794         6     0.863     0.597   1.98   0
       254    500.1241     72.2938 300.3325926 +22.5431258     504.7491     70.33743      1.381     2.41    -1.888418     19.80401     77.93628        10     0.886     0.698 -86.32   0
       255     73.4084     72.7149 300.1997980 +22.4153219     283.0767     70.14088      1.267     2.72    -2.043002     19.80401     50.85135         5     0.716     0.448 -68.71   0
       256    404.0396     70.4542 300.3032969 +22.5138018     504.6949     70.19453      1.684     2.86    -2.017458     19.80401     63.19152         6     0.917     0.486 -77.00   0
       257    175.5569     60.5589 300.2354743 +22.4424652     2209.221     70.28387      1.418     2.59    -2.084407     19.80401     276.1683        22     1.108     0.979  77.74   0
       258    736.8680     52.8462 300.4126061 +22.6084628     511.1789     70.17665      1.303     3.11    -1.441755     19.80401     73.81557        12     1.039     0.768 -89.40   0
       259    291.2914     52.4149 300.2740871 +22.4748254     798.6437     70.12298      1.787     3.92    -2.232733     19.80401     92.78279        14     1.118     0.967  58.30   0
       260    774.5060     47.7999 300.4259677 +22.6182847     415.9102     70.06927      1.597     4.76    -1.525319     19.80401     32.82271         6     1.410     0.455 -64.48   0
       261    794.5468     44.0456 300.4334292 +22.6232072     1295.161     70.23029      1.402     2.65    -1.548571     19.80401     158.9175        18     1.020     0.963  18.77   0
       262    500.2713     42.5779 300.3422765 +22.5346334     379.5043     70.21241      1.314     3.42    -1.858476     19.80401     37.90403         5     0.780     0.433 -21.47   0
       263    178.1401     39.6618 300.2430541 +22.4372407     702.3086     70.23029      1.547     3.33    -2.044143     19.80401     72.13265        11     0.924     0.857 -82.68   0
       264    743.1967     36.8551 300.4197639 +22.6057619     400.1302     70.14088      1.498     4.84    -1.432733     19.80401     49.04769         9     1.058     0.882  77.12   0
       265    969.3956     37.1295 300.4901704 +22.6735704      443.843     70.14088      1.425     2.71    -2.169497     19.80401     57.47351         8     0.775     0.695  -2.99   0
       266    595.7030     21.0587 300.3789572 +22.5570427     537.7525     70.26601      1.458     3.86    -1.326061     19.80401     62.50404        11     0.960     0.810  60.10   0
       267    204.6021     18.9522 300.2579932 +22.4392289     234.6884     70.17665      1.196     2.22    -1.483951     19.80401     44.64989         6     0.769     0.486 -84.23   0
       268    758.4871     16.3986 300.4311613 +22.6044609     465.1204     70.12298      1.469     4.00    -1.394559     19.80401     47.73609        11     0.946     0.833 -69.39   0
       269    160.7949   1019.4812 299.9192613 +22.7130042      627.241     70.12298      3.398     4.62     14.16157     19.80401     34.22213         5     1.174     0.517 -62.03  16
       270    137.7929   1013.7491 299.9139826 +22.7044512     788.2191     70.19453      3.718     3.61     13.23937     19.80401     34.32354         5     1.132     0.331  19.87   3
       271    134.1731   1014.6445 299.9125667 +22.7036200     1114.817     70.21241      5.128     9.46     13.43011     19.80401     39.30212        17     3.095     0.807 -74.66  19
       272    131.7036   1008.4241 299.9138251 +22.7010964     1208.726     70.10508      8.776     9.24     12.11371     19.80401     39.51648        17     2.155     1.106  -2.35   3
       273    149.1158   1012.9316 299.9177660 +22.7076192     1423.021     70.30173      8.109    10.53     13.04464     19.80401     45.54109        26     2.465     1.254  25.90  19
