#   1 NUMBER                 Running object number                                     
#   2 X_IMAGE                Object position along x                                    [pixel]
#   3 Y_IMAGE                Object position along y                                    [pixel]
#   4 ALPHA_J2000            Right ascension of barycenter (J2000)                      [deg]
#   5 DELTA_J2000            Declination of barycenter (J2000)                          [deg]
#   6 FLUX_APER              Flux vector within fixed circular aperture(s)              [count]
#   7 FLUXERR_APER           RMS error vector for aperture flux(es)                     [count]
#   8 FLUX_RADIUS            Fraction-of-light radii                                    [pixel]
#   9 FWHM_IMAGE             FWHM assuming a gaussian core                              [pixel]
#  10 BACKGROUND             Background at centroid position                            [count]
#  11 THRESHOLD              Detection threshold above background                       [count]
#  12 FLUX_MAX               Peak flux above background                                 [count]
#  13 ISOAREA_IMAGE          Isophotal area above Analysis threshold                    [pixel**2]
#  14 A_IMAGE                Profile RMS along major axis                               [pixel]
#  15 B_IMAGE                Profile RMS along minor axis                               [pixel]
#  16 THETA_IMAGE            Position angle (CCW/x)                                     [deg]
#  17 FLAGS                  Extraction flags                                          
         1    596.4066      9.1702 300.3788595 +22.5570942     498.2119     69.98658      1.259     3.35    -1.824254     19.74534     72.09949        10     1.026     0.687 -75.46   0
         2    205.4594      6.7672 300.2580192 +22.4392484     400.2636     70.02222      1.611     3.84    -2.884064     19.74534       47.799         6     0.880     0.516  46.06   0
         3    759.6058      4.0021 300.4313663 +22.6044875     361.1723     66.51337      1.244     2.89    -1.436037     19.74534     53.30511         7     0.756     0.597 -63.04  16
         4    567.9868      2.3762 300.3722149 +22.5466282     1051.665     59.83848      1.377     2.81    -2.132645     19.74534     116.7219        16     1.016     0.910 -31.02  24
         5     86.1632    994.2000 299.9000598 +22.6866295     3016.178     69.96875     23.260    63.77     11.98421     19.74534     76.26728      1006    14.075     8.017  61.80  19
         6    207.6889   1020.7365 299.9291733 +22.7307435     1928.113     67.55562     14.564    28.91     10.28662     19.74534     63.11645       126     7.003     3.312   1.80  27
         7    197.6501   1023.1025 299.9252832 +22.7284053     966.9234     57.58603      9.890    11.47     12.98877     19.74534     48.03691        26     3.317     1.104  -3.26  27
         8    224.9665   1022.3933 299.9340031 +22.7364086     2443.518     61.03578      6.728    21.12     6.355896     19.74534     73.11406       120     4.757     2.605  -3.29  27
         9    244.3387   1017.6935 299.9415547 +22.7408817     5874.577     70.07565      8.461    34.71     2.882909     19.74534     136.7599       425     9.701     4.580  61.15  27
        10    169.7692   1010.8105 299.9206230 +22.7165077     894.4468     69.98658      4.849     6.84     17.16508     19.74534     36.94501        11     1.857     0.707 -61.80   3
        11    173.3017   1020.7184 299.9184938 +22.7204073     1837.972     67.66634      7.613    15.05     18.60778     19.74534     42.59335        57     2.578     2.441 -80.17  26
        12    169.7187   1014.7590 299.9193214 +22.7176236     798.3134     69.95092      3.074     3.68     18.02746     19.74534     44.83374         5     1.031     0.378  56.71   3
        13    117.6092   1021.8611 299.9008194 +22.7040012     918.1962     63.30345      7.042     8.42     22.83349     19.74534     41.90268        11     1.980     1.000 -42.12  26
        14     82.9176    960.9298 299.9098850 +22.6761245     1906.404     70.09345     27.866    52.43     3.516698     19.74534     91.82818       486     9.862     7.735 -47.67   3
        15     71.4092   1011.5604 299.8898240 +22.6871684     2144.994     69.98658     23.146    42.12     10.73593     19.74534     62.97128       372     9.330     5.277 -21.79  19
        16      4.6214    998.7782 299.8732470 +22.6634372     726.0689     68.50922      3.480     4.30    -12.52551     19.74534     32.01014         5     1.098     0.504 -30.79  16
        17    132.9297    996.1698 299.9139453 +22.7012454     758.9449     69.98658      5.544     4.70     15.71971     19.74534     44.61018         7     1.349     0.734  52.90   0
        18    103.7472    993.5015 299.9057490 +22.6917130     1015.096     70.07565      5.274     4.45     15.22959     19.74534     43.44292         5     1.292     0.439 -43.55   3
        19    248.7621    992.5079 299.9511316 +22.7349943     272.1611     69.98658      0.947     1.99    0.3151495     19.74534     64.14277         5     0.673     0.448  26.18   0
        20    566.0320    988.9228 300.0509821 +22.8292380     804.2907     69.96875      1.054     1.93    -5.279768     19.74534     179.5121        10     0.830     0.648  61.92   0
        21     67.4169   1003.6088 299.8911736 +22.6836914      2548.84     69.93308     14.328    18.66      7.96175     19.74534      62.7444        95     3.464     2.792  65.58  19
        22    459.7497    985.3998 300.0190561 +22.7963199     626.9976     69.93308      1.054     1.95    -5.159308     19.74534     129.3512        11     0.822     0.726 -70.50   0
        23    390.4901    983.4732 299.9981395 +22.7749711      3754.05     70.14684      1.061     1.93    -5.082467     19.74534      558.817        23     0.949     0.867  82.13   0
        24    116.1072    984.3362 299.9125729 +22.6928013      1324.65     70.09346      8.691    11.01     12.48009     19.74534     45.28784        22     2.133     1.583  -6.97   3
        25    234.4981   1012.2546 299.9402675 +22.7363672     3329.906     70.07565      9.340    17.20     3.901627     19.74534      81.3703       101     4.014     2.525  -1.77  19
        26    111.1324    978.3908 299.9129635 +22.6896035      878.879     69.98658      4.182     4.60     10.76841     19.74534     32.15514         5     1.168     0.514 -55.31   1
        27    151.8187   1000.9614 299.9182533 +22.7082932     1019.544      70.0044      4.648     6.85      16.8723     19.74534     40.64592        11     1.554     0.846  24.65   2
        28    657.4702    998.1228 300.0764523 +22.8593225     4036.974     70.09346      1.132     1.88    -5.349852     19.74534      708.921        26     0.997     0.900  44.98   0
        29    936.7039    961.8309 300.1752731 +22.9326928     1188.303     69.93308      1.053     1.75    -5.220462     19.74534     263.1751        13     0.841     0.729  -3.80   0
        30    586.7756    959.3326 300.0670750 +22.8269797     227.3251     69.96875      1.185     3.54    -5.295133     19.74534     42.13713         5     0.848     0.458 -47.70   0
        31    725.7484    951.0753 300.1130374 +22.8663189     510.9706      70.0044      1.612     5.49    -5.038759     19.74534     60.98667        13     1.416     0.713  57.57   0
        32    645.0422    947.5878 300.0890393 +22.8410994     113.7056     69.96875      0.854     3.21    -5.323368     19.74534     34.77738         5     0.757     0.591 -83.55   0
        33    760.2961    945.0097 300.1257741 +22.8749451     538.9413     69.91524      0.969     1.73    -4.965179     19.74534     142.4144         7     0.684     0.580  86.67   0
        34    782.5540    938.7896 300.1347337 +22.8798387     6853.918      70.0044      1.033     1.79    -4.949852     19.74534      1218.87        30     1.002     0.880  56.12   0
        35    828.1533    938.8157 300.1489334 +22.8935265     177.3663      70.0044      1.059     3.19    -4.984886     19.74534     56.01741         5     0.769     0.530  36.38   0
        36     93.7500    930.3803 299.9231957 +22.6706278     510.7638     69.96875      1.562     4.76    -3.445623     19.74534     50.77833        10     1.216     0.597  70.98   0
        37    834.2284    926.4747 300.1548449 +22.8918079     252.4567      70.0044      1.058     1.83     -4.97423     19.74534     63.45198         5     0.665     0.486 -14.62   0
        38    790.8989    920.8857 300.1431632 +22.8772056     847.3823     70.14684      1.121     1.98     -4.89325     19.74534     172.6006        11     0.827     0.707 -22.85   0
        39    829.1991    914.2948 300.1572433 +22.8868043     517.2409     69.87954      1.095     2.15    -4.896016     19.74534     87.25143        10     0.830     0.687  57.02   0
        40    877.5524    905.6692 300.1751211 +22.8988333     385.9684     69.96875      0.957     2.52    -4.940864     19.74534      52.0183         5     0.680     0.474  72.08   0
        41    728.8641    904.5088 300.1291697 +22.8538952     532.4305     70.09346      1.047     1.83    -4.883028     19.74534      102.774         7     0.738     0.566 -79.98   0
        42    740.4141    901.6598 300.1336949 +22.8565432     275.1738     69.95092      0.973     2.20    -4.805413     19.74534     55.90994         5     0.665     0.471 -72.27   0
        43    441.5327    901.0457 300.0408543 +22.7666673     2306.132     69.96875      1.108     1.89    -4.914355     19.74534     445.4727        17     0.938     0.814  38.51   0
        44    103.4046    889.6887 299.9394408 +22.6618704     342.0508     69.89739      1.350     3.40    -4.045968     19.74534     38.41272         5     0.761     0.438 -69.22   0
        45    166.7735    886.7466 299.9600854 +22.6800624     351.7516      70.0044      1.099     2.05    -3.072092     19.74534     86.05987         8     0.786     0.620  -5.33   0
        46    144.0846    883.9629 299.9539420 +22.6724497      1049.63     69.96875      1.244     1.96    -3.442032     19.74534     180.4306        13     0.893     0.783  73.68   0
        47     75.5452    885.0520 299.9322967 +22.6521728      285.394     70.02222      1.199     2.35    -4.324025     19.74534     47.76833         6     0.751     0.496  85.80   0
        48   1015.4908    872.5936 300.2288959 +22.9307061     1189.229     69.89739      1.029     1.91     -4.62576     19.74534     216.7113        13     0.844     0.753 -36.26   0
        49    969.8113    871.1329 300.2151264 +22.9165896      1183.82     69.98658      1.082     1.71    -4.704121     19.74534     281.1332        11     0.786     0.682 -71.03   0
        50    675.4818    871.2055 300.1233853 +22.8283240     288.3782     69.91524      1.221     2.08     -5.20571     19.74534      47.5791         5     0.696     0.477 -72.78   0
        51    176.1537    865.3477 299.9699651 +22.6767477     304.5216     70.02222      1.109     3.30    -4.531641     19.74534     53.56516         6     0.916     0.546  69.42   0
        52    753.4945    864.8596 300.1497494 +22.8499090      383.448     70.05785      1.138     2.59    -4.572595     19.74534     63.96531         8     0.871     0.616  74.64   0
        53    621.5379    859.1627 300.1105084 +22.8086829     2705.955      70.0044      1.113     1.95    -5.160706     19.74534      459.874        20     0.911     0.857  65.81   0
        54    110.9484    859.6406 299.9515642 +22.6555272      310.116      70.0044      1.138     3.29    -4.502803     19.74534     50.78716         5     0.799     0.392  23.39   0
        55    423.2701    856.3370 300.0497262 +22.7483659     378.2596     70.02222      1.234     3.30    -4.673521     19.74534     78.13135        10     0.990     0.861  13.23   0
        56    171.7290    853.1667 299.9725547 +22.6719280     811.3391     69.98658      1.164     2.10    -4.545707     19.74534     151.0132        10     0.849     0.720  54.52   0
        57    641.9014    851.4871 300.1193471 +22.8125915     541.1993     70.14684      1.350     2.53    -5.089209     19.74534     74.26688         9     0.813     0.727 -31.69   0
        58    191.2000    850.2053 299.9795689 +22.6769271     400.6252     69.80809      1.457     2.93    -4.585042     19.74534     46.40803         8     0.901     0.714 -24.31   0
        59    797.4607    838.8214 300.1719225 +22.8556259      2465.63     69.95092      1.060     1.97    -4.553919     19.74534     421.8633        19     0.911     0.815  69.85   0
        60   1014.4574    838.7759 300.2395817 +22.9206872     727.1746     69.98658      1.036     1.52     -4.56212     19.74534     143.6179        13     0.922     0.700 -72.06   0
        61    205.9580    833.3004 299.9896567 +22.6765142     272.2479     69.96875      1.218     4.74    -4.623337     19.74534     45.10458         8     1.161     0.556 -44.75   0
        62    514.8013    831.3051 300.0863516 +22.7686612     396.4727     69.89739      1.163     2.44    -4.769361     19.74534     63.24904         7     0.724     0.629   4.26   0
        63    160.8256    829.4075 299.9768990 +22.6618444     464.5639     69.96875      1.051     2.57    -4.581416     19.74534     84.49235         7     0.791     0.606 -72.08   0
        64    310.6524    821.6098 300.0260049 +22.7045999     31146.97     69.98658      1.153     2.02    -4.706466     19.74534     4824.524        65     1.132     1.082  79.92   0
        65    576.2479    824.5027 300.1076899 +22.7851502     206.6844     70.02222      0.938     2.59    -4.866129     19.74534     45.22573         5     0.715     0.428  26.89   0
        66    645.0233    823.2751 300.1295012 +22.8054347     230.0179     70.02222      1.449     4.25    -4.838967     19.74534     32.17661         5     1.035     0.496 -38.03   0
        67    568.5203    820.4919 300.1065898 +22.7816808     905.7252     70.09346      1.065     2.11    -4.825392     19.74534     136.7189        14     0.926     0.749  45.25   0
        68    981.2422    819.4258 300.2355214 +22.9051729     464.1563     70.02222      1.031     1.98    -4.601018     19.74534     101.7672         7     0.739     0.576  70.83   0
        69    238.8934    819.8000 300.0042862 +22.6825349     409.0272     69.86169      1.144     3.57     -4.66585     19.74534     50.89473         5     0.782     0.511 -64.08   0
        70    597.2968    816.4836 300.1168522 +22.7891661     465.5063     70.14684      1.088     2.28    -4.780853     19.74534     81.29286         7     0.773     0.560  83.36   0
        71    928.2186    811.6699 300.2215129 +22.8870476     260.1688      70.0044      1.086     3.74    -4.618883     19.74534     41.91843         5     0.946     0.425 -13.80   0
        72    713.7233    810.7050 300.1549867 +22.8224390      210.355     70.09346      1.100     3.52    -4.621715     19.74534      50.4983         6     0.905     0.589  60.53   0
        73    360.3526    798.8269 300.0488730 +22.7129887     18341.86      70.0044      1.182     2.06    -4.644356     19.74534     2807.758        52     1.135     1.027  83.74   0
        74    751.5213    801.4523 300.1697718 +22.8311222     418.3827      70.0044      1.045     2.44     -4.54991     19.74534     64.35517         6     0.795     0.461 -72.81   0
        75    374.6402    799.3851 300.0531348 +22.7174377     1150.512      70.0044      1.189     2.20    -4.651295     19.74534     176.4567        15     0.966     0.810  71.98   0
        76    883.3170    794.3845 300.2131409 +22.8686212      1652.62     69.95092      1.058     1.92    -4.554262     19.74534     258.5048        13     0.773     0.758  73.62   0
        77    371.7114    793.1429 300.0542551 +22.7147687     496.5406     70.04004      1.185     2.85    -4.637412     19.74534     54.28556         6     0.856     0.600  21.42   0
        78    477.4269    790.6272 300.0879592 +22.7457778     436.2263     69.95092      1.611     4.45    -4.492027     19.74534     46.99018         8     1.246     0.631 -52.28   0
        79    641.1719    790.4258 300.1389920 +22.7948547     434.1954     69.96875      1.128     2.47    -4.607688     19.74534     73.21693         9     0.851     0.648 -72.00   0
        80    242.8937    790.5432 300.0150496 +22.6753496     505.2742     70.04004      1.154     2.50    -4.611238     19.74534      74.3775        10     0.896     0.697  44.10   0
        81    488.4454    785.5851 300.0930283 +22.7476384     390.8175      70.0044      1.021     2.16    -4.474674     19.74534     79.36568         5     0.642     0.484 -74.56   0
        82     47.2799    786.3290 299.9556449 +22.6153963     342.4152     70.09346      1.341     3.25     -4.55095     19.74534     49.11008         6     0.722     0.642 -36.60   0
        83    889.6205    782.3158 300.2190331 +22.8670469     160.0487     69.93308      0.885     2.01     -4.55197     19.74534     74.26429         5     0.672     0.465  -1.90   0
        84    346.2490    781.5364 300.0501132 +22.7037972     160.1755     70.02222      1.040     4.67    -4.619414     19.74534     34.93443         6     0.916     0.676 -81.41   0
        85    434.1046    780.0557 300.0779206 +22.7297436      259.363     70.04004      1.012     2.61    -4.575186     19.74534     44.75713         5     0.763     0.494 -27.02   0
        86     75.7612    780.0021 299.9665491 +22.6221379     280.8073      70.0044      1.045     3.46     -4.55095     19.74534     44.83936         7     0.734     0.665 -69.55   0
        87    240.1850    775.1212 300.0192255 +22.6701153     274.5394      70.0044      1.110     3.16    -4.499836     19.74534     42.87874         7     0.833     0.639  30.21   0
        88    563.8619    764.9286 300.1232202 +22.7643440      296.633     70.02222      1.152     2.49    -4.457121     19.74534     53.46373         6     0.753     0.532  51.11   0
        89    533.4420    763.0734 300.1143557 +22.7546841     408.2785     69.96875      1.328     1.77    -4.422222     19.74534     70.36324         6     0.702     0.497 -89.67   0
        90    949.6560    759.7471 300.2450930 +22.8785682     2639.126     70.02222      1.060     1.78    -4.513717     19.74534     525.7106        18     0.925     0.774  50.94   0
        91    555.2565    760.7825 300.1218906 +22.7605725     771.1747     69.95092      1.196     2.33    -4.427955     19.74534     118.8375        10     0.812     0.720  50.96   0
        92    475.0891    760.7684 300.0969470 +22.7365121     180.1491     69.95092      1.224     5.32    -4.383467     19.74534      36.6318         8     0.958     0.835 -65.01   0
        93    938.2034    751.2097 300.2443001 +22.8726833     981.1492     69.80809      1.050     1.75     -4.52211     19.74534     208.8762        10     0.766     0.671 -43.34   0
        94    301.2137    745.3425 300.0478854 +22.6799000     541.9872     69.95092      1.197     2.52    -4.624584     19.74534      78.4246         9     0.832     0.691  69.00   0
        95    764.6066    742.5161 300.1930252 +22.8181324     1466.247     69.91524      1.079     2.10    -4.455856     19.74534     209.7808        19     1.029     1.005 -30.62   0
        96    969.4089    741.2201 300.2572802 +22.8791703     921.3801     69.96875      1.014     1.96    -4.428198     19.74534      186.603        11     0.791     0.715  65.82   0
        97    149.7916    729.0665 300.0061170 +22.6297718     333.6027     69.98658      1.165     2.07    -4.554805     19.74534      74.4029         7     0.688     0.643 -89.71   0
        98    882.9355    719.3741 300.2374283 +22.8469725     85963.81     69.96875      1.133     1.84    -4.425893     19.74534     15775.33       110     1.203     1.114  82.59   0
        99    735.5551    719.5183 300.1914568 +22.8028187     434.1702     69.96875      1.127     2.70    -4.356085     19.74534     67.11446         6     0.846     0.438 -71.01   0
       100    915.7014    711.9601 300.2500542 +22.8546674     315.7474     69.98658      1.035     2.25    -4.388035     19.74534     50.79275         7     0.686     0.657  41.54   0
       101    569.2279    708.3986 300.1432811 +22.7497355     954.2267     69.95092      1.174     2.14    -4.126688     19.74534     146.0612        13     0.850     0.824  23.02   0
       102    750.4507    705.5415 300.2006437 +22.8032743     5286.365     70.04004      1.121     2.06    -4.279735     19.74534     738.6194        27     1.005     0.914  84.94   0
       103    252.0827    700.9782 300.0470428 +22.6524307     2766.178     69.95092      1.222     2.05    -4.212966     19.74534     466.9823        22     0.992     0.898  59.47   0
       104    334.0750    699.0681 300.0731556 +22.6764947     716.0916     70.05785      1.255     2.44    -4.301669     19.74534     105.6433        10     0.854     0.708  86.11   0
       105    541.9314    694.4771 300.1393131 +22.7375518     386.6868     70.09346      1.203     3.16    -4.005867     19.74534     60.61567         8     0.809     0.736   6.41   0
       106    533.9463    686.6624 300.1393697 +22.7329140     1951.018     70.04004      1.312     2.35    -3.978113     19.74534     257.4688        20     1.020     0.929 -75.65   0
       107    524.1998    680.3221 300.1383985 +22.7281708     822.1315     69.86169      1.237     2.71    -3.958856     19.74534     110.9405        12     0.929     0.766  58.73   0
       108    917.7418    677.9695 300.2617471 +22.8455188     246.3531      70.0044      1.103     2.39    -4.199677     19.74534     43.80571         7     0.718     0.636 -89.56   0
       109    187.4476    676.3839 300.0349530 +22.6259752     433.6785     70.02222      1.457     2.83    -4.124779     19.74534     51.26771         8     0.792     0.738  74.02   0
       110    202.0263    675.3258 300.0398278 +22.6300486     342.0902     69.98658      1.246     2.82     -4.11616     19.74534     52.54844         5     0.751     0.417  19.97   0
       111    227.5019    671.7755 300.0489001 +22.6366784     373.2434     69.91524      1.167     3.38    -4.109058     19.74534     59.43134         6     0.716     0.630  62.61   0
       112    548.3865    670.6406 300.1490751 +22.7326492     268.4857      70.0044      1.149     3.25    -3.864199     19.74534     46.25258         5     0.731     0.470 -77.03   0
       113    449.0087    670.1367 300.1183141 +22.7026883     1055.207     69.95092      1.328     2.54    -4.011762     19.74534     135.5607        12     0.885     0.783  68.94   0
       114    103.0206    665.1660 300.0123696 +22.5974109     11828.58      70.0044      1.263     2.13    -4.141355     19.74534     1852.172        42     1.156     1.016  73.39   0
       115     24.1116    666.8472 299.9873145 +22.5741976     486.3575     69.96875      1.615     3.57    -4.321808     19.74534     52.21339         8     0.905     0.702  15.64   0
       116    533.8902    665.2168 300.1463272 +22.7267440     493.0658     69.91524      1.264     3.08     -3.85063     19.74534     71.00319        11     0.913     0.842  -2.03   0
       117    951.7846    651.3665 300.2810135 +22.8480836     506.5304     69.96875      1.029     2.34    -4.122254     19.74534     95.92597         8     0.792     0.620 -66.15   0
       118     49.1053    649.3268 300.0007737 +22.5766814     1043.589     70.12904      1.674     4.67    -4.219958     19.74534     94.76089        17     1.425     0.774 -79.90   0
       119    818.7744    649.5200 300.2401530 +22.8076794     176.5644     69.96875      0.991     2.21    -3.998303     19.74534     47.06786         5     0.689     0.456  23.23   0
       120    115.0128    649.4006 300.0212217 +22.5964922     261.2579     69.80809      1.180     2.79     -4.08859     19.74534     44.74431         6     0.767     0.490  -0.81   0
       121    892.3168    643.8119 300.2649306 +22.8280882     446.9196     69.95092      1.160     2.72    -4.020194     19.74534      82.5384         8     0.912     0.678 -61.25   0
       122    887.5857    643.7738 300.2634682 +22.8266590     215.8299      70.0044      1.175     3.40    -4.010378     19.74534     35.32556         5     0.771     0.433  68.42   0
       123    454.0900    638.1329 300.1303028 +22.6950316     368.4867     70.12904      1.194     2.35    -3.874778     19.74534     61.73719         8     0.754     0.670 -30.32   0
       124    602.1221    637.3661 300.1766237 +22.7392200     236.4433     69.96875      1.277     3.45    -3.835867     19.74534     32.80549         5     0.763     0.450  16.21   0
       125    648.9674    635.0551 300.1919610 +22.7526071     294.5988      70.0044      1.125     3.15    -3.940858     19.74534     51.80285         7     0.847     0.547  41.73   0
       126    619.3605    634.9211 300.1827859 +22.7436888     409.7104     69.96875      1.388     3.43    -3.873185     19.74534     53.91352         8     0.914     0.618  75.63   0
       127    498.2928    633.9105 300.1454298 +22.7070820     519.5348     70.14684      1.254     3.17    -3.783695     19.74534     66.05861        10     1.037     0.660 -82.79   0
       128    931.8581    629.3988 300.2819448 +22.8358018     1914.601     69.93308      1.145     1.91    -4.079466     19.74534     327.9537        18     0.931     0.860  58.72   0
       129    463.5256    629.6727 300.1359896 +22.6954354      1016.37     70.04004      1.291     2.55    -3.831935     19.74534     151.5977        13     0.891     0.828  70.18   0
       130    136.1441    627.0784 300.0350450 +22.5964370     1087.962     70.02222      0.515    -2.69    -4.024051     19.74534     753.2997         7     0.424     0.393 -12.20   0
       131     25.8293    623.4125 300.0019713 +22.5622642      2947.12     69.98658      1.228     2.18     -4.22105     19.74534     417.7143        25     1.021     0.960  88.15   0
       132    971.3679    619.2300 300.2975710 +22.8447232     167.0835     69.98658      1.062     3.44    -4.061529     19.74534     30.77782         5     0.787     0.435  71.48   0
       133    327.1587    616.4211 300.0978820 +22.6507154     5359.427     70.02222      1.286     2.40    -4.018602     19.74534     663.3757        29     1.069     1.024  65.08   0
       134    899.9048    615.8491 300.2763894 +22.8223325     1216.922     70.04004      0.493    -3.26     -3.91224     19.74534     823.1733         5     0.385     0.332  43.29   0
       135    449.6171    613.3813 300.1369596 +22.6865884      5140.67     69.96875      1.265     2.32    -3.772835     19.74534     678.2039        29     1.053     1.017  86.23   0
       136    945.7867    604.5006 300.2943841 +22.8328255     7266.776     69.89739      1.154     2.00    -4.015658     19.74534     1112.307        32     1.046     0.930  77.58   0
       137    861.1240    607.1644 300.2671252 +22.8082135      1182.45     69.95092      1.280     2.06    -3.694552     19.74534     188.3498        13     0.872     0.754  -1.29   0
       138    510.1499    602.9476 300.1591876 +22.7017546     6756.251     70.02222      1.316     2.43    -3.546968     19.74534     880.6429        34     1.115     1.042  70.98   0
       139    237.6644    598.5360 300.0758738 +22.6187269     914.4029     70.02222      1.455     2.53    -3.996464     19.74534     128.0436        14     1.028     0.823 -68.81   0
       140    679.5010    598.6737 300.2132997 +22.7513211     364.3437     70.12904      1.358     4.21    -3.790948     19.74534     42.01656         6     1.044     0.484  34.70   0
       141    441.8113    591.1846 300.1417480 +22.6778779     2592.704     69.93308      1.393     2.37    -3.654256     19.74534     332.4089        24     1.066     0.996  61.40   0
       142    784.8499    591.1521 300.2485622 +22.7807495     317.4652     70.02222      1.205     2.17    -3.692288     19.74534     68.72021         6     0.752     0.606 -78.57   0
       143    420.0861    589.5386 300.1355245 +22.6708877     821.2611     70.07565      1.342     2.43    -3.745017     19.74534     119.1145        15     0.959     0.871 -20.97   0
       144    174.2845    588.7490 300.0593578 +22.5968964     530.1207     69.96875      1.437     3.72    -3.908286     19.74534     69.56253         9     1.154     0.580  87.44   0
       145    861.6031    586.2601 300.2740715 +22.8023539     931.0176     69.96875      1.355     2.88    -3.654475     19.74534     116.5015        15     1.075     0.832 -42.35   0
       146    108.1848    586.5863 300.0395235 +22.5764338     196.0595     69.93308      1.046     2.19    -3.877237     19.74534     39.55448         5     0.698     0.448 -22.41   0
       147    742.0598    583.4324 300.2377409 +22.7657038     403.3394     70.02222      1.161     3.14    -3.750302     19.74534     64.73243         7     0.892     0.602  55.95   0
       148    558.4199    578.6791 300.1821014 +22.7092691     119482.4     69.98658      1.312     2.36    -3.261712     19.74534     15677.25       144     1.336     1.300 -71.29   0
       149    244.5580    578.7808 300.0844391 +22.6151302     2141.753      70.0044      1.319     2.38    -3.876219     19.74534     279.1834        18     1.004     0.887  69.92   0
       150    946.5020    579.3051 300.3027994 +22.8258029     242.5709     70.16462      1.098     3.42    -3.860118     19.74534     39.55281         5     0.799     0.423 -66.84   0
       151    828.6555    572.7921 300.2681818 +22.7886097     184.9266     69.98658      1.067     4.23    -3.567679     19.74534     37.84629         5     1.121     0.466 -84.73   0
       152    449.0751    559.2266 300.1543974 +22.6708874     1706.009     69.96875      1.445     2.40    -3.388419     19.74534     222.7582        21     1.248     0.883  85.78   0
       153    293.4205    561.7528 300.1051648 +22.6249100     170.2204     70.02222      1.055     3.45    -3.783915     19.74534     38.33207         5     0.772     0.446 -70.40   0
       154    860.4933    554.8615 300.2839338 +22.7930037     363.2719     70.07565      1.440     3.64    -3.590179     19.74534     43.40939         6     0.961     0.495  84.93   0
       155    766.0903    547.4700 300.2569188 +22.7625824     253.7582     70.14684      1.222     2.60    -3.515108     19.74534     41.62522         6     0.766     0.497   4.64   0
       156    846.0424    544.9354 300.2826567 +22.7858214      995.595     69.96875      1.245     2.04    -3.501466     19.74534     164.2596        12     0.961     0.732 -62.93   0
       157    717.1720    542.6561 300.2432445 +22.7465343     1439.518     69.98658      1.263     2.36    -3.482606     19.74534     211.5311        18     0.984     0.914  73.76   0
       158     76.9655    542.9834 300.0439993 +22.5545600     362.2084     69.98658      1.334     2.60    -3.659158     19.74534     50.27097         5     0.935     0.351  57.51   0
       159    961.5046    539.6821 300.3203590 +22.8189168     338.7808     70.14684      1.401     2.95    -3.706191     19.74534      42.5065         5     0.717     0.480  74.69   0
       160    622.4218    539.9185 300.2146268 +22.7173380     242.9825     69.95092      1.526     3.93    -3.068867     19.74534     32.25991         5     0.897     0.493 -87.22   0
       161    504.5582    538.9437 300.1782549 +22.6817099     382.6211     69.95092      1.318     2.07    -2.914462     19.74534     66.11446         6     0.735     0.496 -87.09   0
       162    974.3636    536.5269 300.3253946 +22.8218637     851.1013     69.93308      1.165     2.14    -3.747612     19.74534     122.6516        13     0.894     0.746  60.94   0
       163    846.2535    535.0146 300.2859475 +22.7830354     1400.333      70.0044      1.597     4.88    -3.481256     19.74534     149.1982        22     1.672     0.829  79.56   0
       164    959.7444    535.5648 300.3211486 +22.8172065     348.9709      70.0044      0.927     3.16    -3.697641     19.74534     77.61262         6     0.943     0.393  20.63   0
       165    599.7976    533.7045 300.2096027 +22.7087697     412.6058     69.89739      1.372     2.77    -3.033496     19.74534     45.25532         6     0.740     0.555  49.28   0
       166    884.3615    530.1464 300.2994079 +22.7930589     2492.095     69.98658      1.214     2.13     -3.58301     19.74534     364.1749        22     0.985     0.942  30.45   0
       167    976.0109    520.8336 300.3310096 +22.8178487     473.3049     69.96875      1.288     2.55    -3.751532     19.74534     72.52301         8     0.834     0.631 -86.56   0
       168    116.7076    521.0378 300.0634776 +22.5601972     563.4437     69.98658      1.231     2.95    -3.668342     19.74534     84.15845        11     0.966     0.741  65.22   0
       169    108.9683    510.4651 300.0645094 +22.5548423     419.4872     69.98658      1.656     3.32    -3.654839     19.74534     49.86869         7     0.939     0.612 -23.58   0
       170    657.9762    500.7233 300.2384377 +22.7167465     281.7297      70.0044      1.097     3.14    -2.962071     19.74534     53.82361         7     0.708     0.693   8.96   0
       171    972.6339    492.9730 300.3390121 +22.8088323     397.3244      70.0044      1.195     2.48    -3.733832     19.74534     59.39536         7     0.776     0.608 -67.12   0
       172    718.6368    492.8874 300.2598774 +22.7326829     415.2088     69.96875      1.196     3.52    -3.041085     19.74534     56.67438         8     0.901     0.628  72.57   0
       173    875.7933    488.8815 300.3101495 +22.7786378      627.928     69.91524      1.213     2.55     -3.55248     19.74534     91.05051         9     0.856     0.643 -71.02   0
       174    860.3241    485.4699 300.3064366 +22.7730219     380.2131     70.05785      1.327     2.55     -3.50495     19.74534     63.07251         8     0.929     0.573  45.63   0
       175    604.3300    483.5248 300.2273230 +22.6957236     1858.355     70.05785      1.305     2.42    -2.926901     19.74534     236.6018        23     1.109     0.975  82.25   0
       176    443.9381    470.4486 300.1816534 +22.6438697     178.4519     70.04004      1.171     3.77    -3.022676     19.74534     37.64925         6     0.824     0.495   4.24   0
       177   1015.5262    462.3694 300.3623350 +22.8128895     741.9902      70.0044      1.276     2.63    -3.942294     19.74534     107.7259        14     0.959     0.855  -9.08   0
       178    973.8341    460.8357 300.3498308 +22.7999580     579.7684     70.05785      1.288     3.38    -3.685641     19.74534     94.47098        10     1.115     0.637 -80.91   0
       179    887.4971    462.1251 300.3224933 +22.7744589     337.5397     70.14684      1.408     3.19    -3.415791     19.74534       49.255         6     0.729     0.624 -51.66   0
       180    715.2674    457.4557 300.2703423 +22.7214980     520.2285     70.02222      1.327     2.57    -2.930571     19.74534      85.7284        11     0.921     0.753 -23.51   0
       181    510.8550    458.1479 300.2064729 +22.6604084     317.2022     70.02222      1.370     2.58      -2.9811     19.74534     41.23196         5     0.752     0.495  44.77   0
       182    218.8116    455.8639 300.1163850 +22.5721470     350.9725     69.93308      1.405     4.38    -3.206579     19.74534     50.70236         6     0.822     0.664  67.25   0
       183    281.4143    451.5637 300.1372429 +22.5896968     2208.662     69.98658      1.387     2.47    -3.129669     19.74534     282.6047        22     1.130     0.932  67.73   0
       184   1014.3040    449.7291 300.3660614 +22.8088909     2589.515     70.09346      1.159     2.04     -3.94738     19.74534     404.9932        21     1.005     0.849  83.53   0
       185    228.6632    446.4315 300.1225118 +22.5723972     4433.432      70.0044      1.324     2.32    -3.089173     19.74534     571.8586        28     1.151     1.031  51.23   0
       186    369.3167    440.5754 300.1681475 +22.6129139     2752.346     69.95092      1.350     2.46    -2.962098     19.74534     360.6862        27     1.111     1.042 -44.62   0
       187    994.3051    440.6046 300.3627891 +22.8002776     1025.022     69.89739      1.218     2.28     -3.79816     19.74534     168.1492        15     0.930     0.919  40.45   0
       188    613.4858    437.1819 300.2452329 +22.6851633     10679.38     69.93308      1.376     2.51    -2.920654     19.74534     1234.807        42     1.183     1.125  71.30   0
       189    631.4792    436.7004 300.2509918 +22.6904196     649.4603     70.11125      2.309     7.07    -2.919127     19.74534     40.45796        15     1.713     0.818 -29.06   0
       190    946.8790    419.6393 300.3548120 +22.7800446        412.5     69.96875      1.297     3.25    -3.309675     19.74534     55.21652         7     0.793     0.643  58.36   0
       191    168.1600    417.4253 300.1131318 +22.5459217     1314.734     70.02222      1.534     3.27    -3.628234     19.74534     123.8213        20     1.186     1.030  61.11   0
       192    554.1130    406.6307 300.2366752 +22.6585902     3759.122     69.96875      1.368     2.57    -2.974075     19.74534     444.4172        29     1.121     1.076 -63.84   0
       193    967.9432    406.6644 300.3655959 +22.7826268     713.8205     70.04004      1.211     2.34      -3.5162     19.74534     111.4526        12     0.976     0.715 -58.04   0
       194    269.1062    406.0355 300.1482079 +22.5729413     333.7403     69.96875      1.404     3.02    -2.862385     19.74534     45.28336         5     0.635     0.580 -86.75   0
       195    126.6302    398.8741 300.1062540 +22.5281383     219.5153      70.0044      1.237     2.20    -3.508735     19.74534     43.98704         5     0.711     0.438  68.68   0
       196    758.3615    395.6440 300.3038505 +22.7166617     760.7971     70.07565      1.526     3.33    -2.977915     19.74534     73.44111        13     1.012     0.860 -58.07   0
       197    460.7891    392.8978 300.2120929 +22.6266641     3588.747     69.87954      1.407     2.67    -3.023697     19.74534     451.2876        30     1.183     1.054 -84.87   0
       198    852.6855    387.0916 300.3360220 +22.7424707     878.7667     70.14684      1.372     2.39    -3.094007     19.74534     119.2717        13     0.879     0.859  83.62   0
       199    950.1548    387.0652 300.3664164 +22.7716656     312.2108     69.98658      1.199     3.51    -3.337943     19.74534      46.7738         8     0.834     0.656  46.18   0
       200    445.5624    381.7593 300.2109735 +22.6189005     274.2603     70.05785      1.470     3.47    -3.023657     19.74534     31.88076         5     1.075     0.324 -68.47   0
       201    528.1016    379.9936 300.2372321 +22.6431434     346.7745     69.87954      2.308     5.14    -2.993751     19.74534     32.93363         6     1.064     0.702  25.45   0
       202    825.3787    374.5699 300.3315792 +22.7306909     307.0085     69.98658      1.095     3.45    -3.079942     19.74534     51.54601         6     0.939     0.483  56.09   0
       203    348.2584    372.2414 300.1837974 +22.5869865     1313.553     69.98658      1.323     2.51    -2.879005     19.74534     173.2535        20     1.065     0.991  81.52   0
       204     66.7299    369.5519 300.0971700 +22.5017523     552.5394     69.96875      1.173     2.68    -3.190416     19.74534     89.51784        11     0.961     0.739  83.50   0
       205    317.7506    361.6542 300.1777489 +22.5747976     17279.08     70.02222      1.406     2.48    -2.769916     19.74534     2345.773        55     1.263     1.185  83.37   0
       206    852.1674    358.9429 300.3450044 +22.7342278     752.3943      70.0044      1.387     2.78     -3.10384     19.74534     104.4252        12     0.952     0.792  75.87   0
       207     14.1116    349.5178 300.0873345 +22.4802151     2789.243     70.09346      1.327     2.40    -2.956164     19.74534     359.4712        26     1.114     1.014  69.39   0
       208    767.6180    347.7082 300.3223059 +22.7056655     429.2371     69.91524      1.589     3.70    -3.049145     19.74534     45.68624         6     0.924     0.665 -73.57   0
       209    416.0193    346.9140 300.2131004 +22.6000385     325.0698     69.91524      1.115     3.74    -3.016239     19.74534     48.72511         5     0.691     0.582  89.31   0
       210    191.8506    347.6367 300.1431628 +22.5330082     252.5639     69.98658      1.041     2.19    -2.981561     19.74534     47.01569         5     0.717     0.432  21.66   0
       211    727.8699    341.2127 300.3120324 +22.6918880     1193.689     69.98658      1.430     2.79    -2.998535     19.74534     130.6773        18     1.077     0.908  53.57   0
       212    389.8143    326.0309 300.2117310 +22.5861855     1180.209     69.98658      1.537     3.53    -2.859004     19.74534     122.4497        18     1.214     0.920  59.98   0
       213    829.1920    318.5159 300.3509743 +22.7157280     361.1091     69.91524      1.227     3.22    -3.109979     19.74534     49.44763         7     0.930     0.484  -8.97   0
       214    711.7831    316.0996 300.3151775 +22.6798531     202.3064     69.89739      1.441     3.91    -3.020453     19.74534     30.95551         6     0.766     0.571 -46.97   0
       215    465.6606    305.3738 300.2420357 +22.6029975     628.3285     69.98658      1.370     2.87     -2.99567     19.74534      88.0546        14     0.991     0.892 -88.12   0
       216    976.7043    300.9771 300.4026578 +22.7548759     376.0833     69.89739      1.453     2.45    -3.228944     19.74534     46.60011         5     0.842     0.456  88.65   0
       217    710.4881    297.0853 300.3209489 +22.6740026     1247.778     70.11125      1.382     3.01    -3.047752     19.74534     131.5316        18     1.034     0.980  32.01   0
       218    971.6965    291.2176 300.4042655 +22.7505707     1788.447     69.89739      1.214     2.34    -3.146336     19.74534     235.7977        20     1.096     0.923 -84.32   0
       219    419.1064    281.4938 300.2353055 +22.5821831     367.8434     70.14684      1.326     2.54    -2.902485     19.74534     56.13127         5     0.746     0.447 -22.00   0
       220     93.7254    275.1695 300.1362048 +22.4827774     886.4824      70.0044      1.696     3.36    -2.900248     19.74534     86.83697        14     1.122     0.870 -49.71   0
       221    124.3718    275.2303 300.1457062 +22.4919891     378.7282     69.98658      1.344     4.79    -2.934039     19.74534     45.39228         8     1.122     0.653  24.46   0
       222    987.3588    271.6840 300.4154929 +22.7496464     225.8156     69.95092      1.244     3.01    -3.152856     19.74534     41.97264         6     0.830     0.507  41.92   0
       223    880.0817    247.4686 300.3899067 +22.7105556     1308.253     70.09346      1.329     2.40    -3.103533     19.74534     165.6488        17     1.015     0.870  79.56   0
       224    298.8127    245.0061 300.2097383 +22.5356373     1335.061     69.86169      1.417     2.72    -2.388102     19.74534     176.6166        20     1.112     1.004  62.20   0
       225    376.6652    240.0478 300.2355594 +22.5575585     604.6896     70.02222      1.516     3.26    -2.390718     19.74534     62.94995        12     0.991     0.843 -55.86   0
       226    778.7565    239.2767 300.3609876 +22.6778483     353.4129     69.96875      1.415     3.35     -3.13421     19.74534     38.02623         8     0.909     0.616  83.10   0
       227    193.3824    232.4877 300.1810272 +22.5004248     404.5216     69.93308      1.294     4.02    -2.570842     19.74534     54.28158         7     0.943     0.528 -60.15   0
       228    731.3306    228.9214 300.3495735 +22.6606639     1035.319     70.09346      1.470     3.01    -3.080269     19.74534     108.1994        17     1.180     0.918  67.22   0
       229    796.0620    228.4296 300.3699015 +22.6799155     398.1327      70.0044      1.356     3.89    -3.142459     19.74534     52.07056         6     0.826     0.654  31.14   0
       230    215.0557    225.3100 300.1900935 +22.5048652     383.5191     70.04004      1.268     3.89    -2.486313     19.74534     43.93507         6     0.929     0.466  38.32   0
       231   1002.9047    221.1573 300.4367463 +22.7397758     402.9365      70.0044      1.119     2.89    -3.162591     19.74534     71.21544         8     0.852     0.653 -79.33   0
       232    735.3065    220.0672 300.3536865 +22.6593109     505.8982     70.12904      1.405     3.19    -3.073329     19.74534     49.98067        10     0.889     0.746   2.23   0
       233    655.9918    219.5023 300.3291651 +22.6353837     772.7751     69.86169      1.337     3.19    -2.545492     19.74534     96.67987        13     1.051     0.814  87.69   0
       234    851.3152    211.1180 300.3927412 +22.6914913     851.0696     70.11125      1.281     2.51    -3.097211     19.74534     117.8659        10     0.831     0.763  59.99   0
       235    582.0540    211.5658 300.3087192 +22.6109467     541.0037      70.0044      1.466     3.75     -2.45426     19.74534     59.21642        10     1.020     0.710  48.57   0
       236    863.6108    210.2945 300.3968410 +22.6949374     472.3785     69.93308      1.229     3.63    -3.088264     19.74534      58.5627         8     0.889     0.650   6.52   0
       237    909.8326    209.1583 300.4116189 +22.7084544     185.1375     70.04004      1.221     2.92    -3.086463     19.74534     38.02149         5     0.726     0.682  53.56   0
       238   1023.7111    200.8425 300.4498307 +22.7401648     634.0037     54.19296      0.960     2.03    -3.153358     19.74534     157.3684         7     0.803     0.453 -89.34  24
       239    980.0658    200.4561 300.4363435 +22.7269851     703.7803     70.04004      1.120     1.96    -3.116625     19.74534     114.6177        10     0.848     0.639 -66.91   0
       240      3.3398    197.6205 300.1333046 +22.4334108     227.7189     64.10641      0.937     3.09    -2.489197     19.74534     37.22038         5     0.731     0.448 -18.92  16
       241    214.3212    194.0008 300.2000278 +22.4956584     446.0842     69.87954      1.646     4.79    -2.493257     19.74534     45.65483         8     1.126     0.639  38.42   0
       242    206.0827    193.7834 300.1975377 +22.4931253     2150.871     69.95092      0.609     1.17    -2.506084     19.74534     1216.322         6     0.525     0.388 -82.40   0
       243     76.0534    188.6715 300.1587931 +22.4526572     1246.743     69.98658      1.337     2.60    -2.545522     19.74534     159.4523        20     1.074     0.961 -73.83   0
       244    899.1323    185.3535 300.4160101 +22.6984068      425.227     69.96875      1.209     2.48    -3.057483     19.74534     53.61752         9     0.832     0.675 -61.78   0
       245    233.4645    181.8543 300.2099206 +22.4979127     3258.093     70.02222      1.409     2.58    -2.479326     19.74534     431.4174        30     1.209     1.030  86.94   0
       246     17.6083    176.4069 300.1446204 +22.4316052     575.5684     69.84383      1.281     2.77    -2.510738     19.74534     90.20135        13     0.964     0.839  89.13   0
       247    216.9721    172.8124 300.2077285 +22.4903715     263.9725     69.98658      1.189     2.68    -2.493509     19.74534     59.79556         6     0.824     0.541 -89.22   0
       248    877.4055    163.1741 300.4164358 +22.6855241     2047.321     69.96875      1.331     2.43    -3.030918     19.74534     235.7033        21     1.048     0.995 -62.55   0
       249    980.9929    161.9453 300.4491328 +22.7161899     1725.484     69.98658      1.278     2.17    -3.068868     19.74534     282.5748        20     1.010     0.940  54.36   0
       250    427.1069    158.5354 300.2777085 +22.5492743     357.0886     70.09346      1.440     3.60    -2.456039     19.74534      45.1382         7     0.858     0.746  59.56   0
       251    351.3513    150.8874 300.2566254 +22.5243688     357.3902     69.98658      1.399     3.16    -2.437133     19.74534     40.75954         6     0.799     0.620 -57.56   0
       252    116.9262    147.5224 300.1848448 +22.4531084     336.2121     70.09346      1.328     5.19    -2.519273     19.74534     36.03266         9     1.183     0.644  32.37   0
       253    478.2964    145.9168 300.2977312 +22.5609932     1012.374     70.14684      1.473     2.89      -2.3578     19.74534     125.7242        19     1.138     0.997 -59.22   0
       254    252.3953    125.8002 300.2339959 +22.4874974     3362.431     69.80809      1.417     2.63    -2.507666     19.74534     403.0572        28     1.142     1.041  79.88   0
       255    758.8481    125.8525 300.3915998 +22.6392876      250.167     70.02222      1.458     3.91    -2.601019     19.74534     25.35399         6     0.766     0.572  51.92   0
       256    103.2214    125.1268 300.1878539 +22.4425703     488.9336     69.98658      1.599     3.92    -2.520222     19.74534     51.11205        10     1.135     0.801  78.26   0
       257    224.2342    120.5891 300.2269324 +22.4775575     161.7773     69.96875      1.193     3.74    -2.513037     19.74534     26.78588         5     0.983     0.409  83.03   0
       258    498.4358    111.0861 300.3153009 +22.5570239     3585.218     69.96875      1.426     2.80    -2.418068     19.74534     398.2687        26     1.121     1.073  58.12   0
       259    384.3978    111.1335 300.2798039 +22.5228589     239.2766     69.98658      1.275     3.35    -2.472927     19.74534     44.35834         5     0.763     0.426  67.61   0
       260    750.8885    100.4560 300.3973606 +22.6296039     458.0521     70.02222      1.779     2.79    -2.408703     19.74534     48.85778         6     0.737     0.600  46.15   0
       261    549.8752     93.7901 300.3369234 +22.5674692     84.41071     69.98658      1.051     4.43    -2.411523     19.74534     35.68377         5     0.778     0.719 -59.41   0
       262    626.7226     91.0519 300.3617373 +22.5897068     3573.833     69.98658      1.375     2.59    -2.245571     19.74534     434.0768        28     1.131     1.071  58.71   0
       263    401.6529     90.2981 300.2919315 +22.5220469     799.0163     70.07565      1.369     2.86     -2.47075     19.74534     83.87654        12     0.951     0.802   5.84   0
       264    668.2320     88.8530 300.3753776 +22.6015101     461.7096      70.0044      1.273     2.76    -2.139617     19.74534     55.12187         7     0.708     0.669 -80.06   0
       265    683.7347     84.3071 300.3816809 +22.6048476     359.4553     70.09346      1.301     4.12    -2.109787     19.74534     58.58992         7     1.115     0.801 -51.89   0
       266    150.6661     82.5118 300.2164216 +22.4445667     302.3081     70.09346      1.157     3.28    -2.574176     19.74534     48.53306         6     0.867     0.472  89.58   0
       267    953.5732     82.0526 300.4665076 +22.6850071     327.7193      70.0044      1.138     2.32    -2.593121     19.74534     56.03308         5     0.711     0.437 -65.64   0
       268    722.5845     79.9440 300.3951980 +22.6152305     183.1869     69.96875      1.119     4.18    -2.132883     19.74534     33.28513         5     0.785     0.633   8.84   0
       269    670.8863     75.9249 300.3803986 +22.5985898     1611.181     70.11125      1.332     2.72    -2.043358     19.74534     211.8455        18     1.017     0.946 -59.26   0
       270    686.1241     74.9461 300.3854621 +22.6028729     486.8652     70.02222      1.987     6.50    -2.047894     19.74534     38.09521        11     1.427     0.832  47.93   0
       271    757.4659     67.3931 300.4101370 +22.6220701     866.9136     69.98658      1.348     2.80     -2.11555     19.74534      114.344        16     1.083     0.860  65.67   0
       272    694.8873     60.6832 300.3928188 +22.6013985     345.4681     70.09346      1.354     4.56    -1.954873     19.74534     44.90166         8     0.985     0.600  -7.99   0
       273     74.3657     60.1250 300.1999775 +22.4152596     388.0643     69.98658      1.534     3.40    -2.669009     19.74534      49.1653         7     0.970     0.477 -85.52   0
       274    501.0265     59.7696 300.3327560 +22.5430579      505.275     69.98658      1.406     3.53    -2.420257     19.74534     88.91444        11     1.118     0.711  77.91   0
       275    404.9937     58.0750 300.3034244 +22.5137927      583.993     69.91524      1.442     3.87    -2.434438     19.74534     55.68768         9     1.141     0.529  34.64   0
       276    176.2928     48.3546 300.2354657 +22.4424448     2191.009      70.0044      1.353     2.65      -2.7055     19.74534     233.4642        21     1.048     0.973  27.18   0
       277    744.2184     48.4529 300.4121539 +22.6126581     245.1302     69.96875      1.233     4.14    -1.892237     19.74534     43.30094         6     0.713     0.685 -62.91   0
       278    737.7916     40.5977 300.4126998 +22.6084752     507.6285     69.80809      1.169     2.69    -1.822471     19.74534     67.56567         7     0.784     0.627  69.82   0
       279    292.3473     40.4196 300.2741165 +22.4749586     711.1872     69.96875      1.318     2.89    -2.711334     19.74534      76.8806        12     1.001     0.762 -85.63   0
       280    775.6089     35.6153 300.4260987 +22.6183683     379.5486     69.89739      1.554     4.48    -1.792057     19.74534     44.50756         7     1.050     0.612  69.91   0
       281    698.7902     35.4295 300.4022266 +22.5953087     338.9518     69.98658      1.309     3.41    -1.762884     19.74534     35.77521         5     0.752     0.448 -20.37   0
       282    795.2819     31.8846 300.4334391 +22.6231870     1220.378     70.11125      1.299     2.43    -1.739168     19.74534     164.5638        15     0.992     0.846 -69.11   0
       283    500.9674     30.0195 300.3423879 +22.5344927     311.1261     69.98658      1.328     3.70    -2.420257     19.74534     32.72267         5     0.637     0.617  88.59   0
       284    178.7920     27.1738 300.2431124 +22.4371129     637.6333     69.98658      1.452     2.50    -2.785078     19.74534     74.25809        11     0.832     0.806 -47.28   0
       285    969.9649     24.7001 300.4902250 +22.6734198     450.8703     69.96875      1.205     2.43    -2.451028     19.74534     76.34358         7     0.773     0.665 -69.69   0
       286    743.7386     24.2490 300.4198556 +22.6055566     365.7969     70.04004      1.224     2.74    -1.670966     19.74534     57.24079         9     0.883     0.649  19.80   0
       287    501.5481     16.4778 300.3469609 +22.5307759     208.7227     69.98658      1.370     3.97    -2.420257     19.74534     30.30659         5     1.033     0.437  75.29   0
       288      3.3432   1019.6965 299.8660380 +22.6690432     825.5068     64.06747      9.110    11.40    -15.71732     19.74534     40.34605        16     2.620     1.382 -61.67  25
       289    503.6208   1020.6147 300.0212374 +22.8195872     194.3233     67.79527      1.034     3.44    -5.194003     19.74534     48.44898         5     0.759     0.451  73.02  16
       290    932.0446   1014.3134 300.1567275 +22.9463555     345.8288     69.96875      1.015     1.91    -5.194142     19.74534     94.60806         7     0.661     0.623  14.28   0
