#   1 NUMBER                 Running object number                                     
#   2 X_IMAGE                Object position along x                                    [pixel]
#   3 Y_IMAGE                Object position along y                                    [pixel]
#   4 ALPHA_J2000            Right ascension of barycenter (J2000)                      [deg]
#   5 DELTA_J2000            Declination of barycenter (J2000)                          [deg]
#   6 FLUX_APER              Flux vector within fixed circular aperture(s)              [count]
#   7 FLUXERR_APER           RMS error vector for aperture flux(es)                     [count]
#   8 FLUX_RADIUS            Fraction-of-light radii                                    [pixel]
#   9 FWHM_IMAGE             FWHM assuming a gaussian core                              [pixel]
#  10 BACKGROUND             Background at centroid position                            [count]
#  11 THRESHOLD              Detection threshold above background                       [count]
#  12 FLUX_MAX               Peak flux above background                                 [count]
#  13 ISOAREA_IMAGE          Isophotal area above Analysis threshold                    [pixel**2]
#  14 A_IMAGE                Profile RMS along major axis                               [pixel]
#  15 B_IMAGE                Profile RMS along minor axis                               [pixel]
#  16 THETA_IMAGE            Position angle (CCW/x)                                     [deg]
#  17 FLAGS                  Extraction flags                                          
         1    163.5165      9.1661 300.2567104 +22.4137873      678.264     70.17506      1.562     3.31    -1.222182     19.80861     77.30498        12     1.067     0.806  17.51   0
         2     82.0324   1022.6089 299.9021280 +22.6799187     1563.269     60.17646     11.828    17.15     4.741003     19.80861     56.27608        55     6.378     1.281  -2.37  27
         3    120.8198   1022.4962 299.9142081 +22.6915424     729.4427     60.67516      6.842     8.36     7.014638     19.80861     33.02033        14     1.488     1.313  81.94  25
         4    113.0136   1023.3414 299.9115089 +22.6894387      530.096     56.42916      5.250     6.13     7.132056     19.80861     35.73966         7     1.494     0.708  -5.07  27
         5    107.6917   1021.8256 299.9103500 +22.6874053     777.1873      63.7037      7.033     7.98     7.014638     19.80861     34.18856        12     2.022     0.879 -36.97  27
         6    102.6140   1014.7324 299.9110827 +22.6838480     1264.313     70.21083      9.986    11.84     6.192717     19.80861     65.27102        32     2.870     1.545 -11.14  19
         7     72.9682   1017.8079 299.9008770 +22.6758198     1554.825     70.21083      7.268    16.45     2.908561     19.80861     46.03795        45     3.362     2.238  44.69  19
         8     81.8821    999.6575 299.9095537 +22.6733006     1752.423     70.26447      8.256    16.75     2.584574     19.80861     51.26982        65     4.523     1.725 -68.20  19
         9     87.5942    997.9317 299.9118890 +22.6745229     1526.799     70.17506      8.824    16.00     3.116884     19.80861     49.10269        54     3.882     1.833 -77.94  19
        10     91.8305    994.9767 299.9141663 +22.6749496     1741.544     70.21083      9.337    14.85     3.268176     19.80861     50.77982        46     3.194     1.921  -4.47   3
        11     87.9683   1009.1352 299.9083577 +22.6778439     2183.615     70.21083     14.234    28.99     4.252322     19.80861     55.36543       194     7.822     2.983 -24.99  19
        12    427.6027   1012.7953 300.0126952 +22.7809220     309.7208     70.03177      1.184     3.59    -5.655674     19.80861     53.64459         7     0.853     0.666  40.74   0
        13    941.0716   1004.4662 300.1752498 +22.9326521     1182.869     70.24659      1.012     1.80    -5.588553     19.80861     230.5221        11     0.768     0.683  80.43   0
        14    591.1078   1001.9417 300.0670891 +22.8269045     209.5012     70.26447      0.925     3.34    -5.554713     19.80861     48.08095         5     0.638     0.590   6.11   0
        15    730.2056    993.5829 300.1131073 +22.8662590     357.9841     70.17506      1.419     4.82       -4.428     19.80861     63.05263         9     1.528     0.431  60.82   0
        16     91.0332   1021.4888 299.9052872 +22.6823028     2045.228     65.04949     10.521    17.69     5.959727     19.80861     59.42558        81     3.474     2.504 -19.33  27
        17    542.5125    988.7499 300.0562642 +22.8085333     301.8381     70.21083      1.377     4.57    -5.385798     19.80861     47.09518         7     1.034     0.574  18.15   0
        18    764.7705    987.5765 300.1258260 +22.8749094     604.0258     70.21083      1.020     2.20    -4.513234     19.80861     113.8545         9     0.823     0.671  31.32   0
        19    786.9466    981.4163 300.1347379 +22.8797970     6657.235     70.19295      1.059     1.75    -4.577984     19.80861     1336.082        27     0.912     0.889 -54.56   0
        20    977.8591    980.9924 300.1943589 +22.9369516     297.2308     70.17506      0.973     1.83    -5.348567     19.80861     88.85333         6     0.716     0.468 -60.94   0
        21    832.8386    981.0393 300.1491548 +22.8934591     331.5748     70.28233      1.166     3.75    -4.871177     19.80861      58.7172         8     0.943     0.645 -34.57   0
        22     98.4709    973.2654 299.9232960 +22.6707266     301.5211     70.24659      1.067     1.94     1.261191     19.80861     71.74831         5     0.647     0.488  75.74   0
        23    795.4855    963.6298 300.1431881 +22.8772571     959.9911     70.21083      1.062     2.33    -4.618811     19.80861     164.8697        10     0.841     0.630  82.22   0
        24    978.8423    962.3311 300.2007413 +22.9318913     255.3685     70.19295      1.239     3.60    -5.150318     19.80861     48.37585         5     0.943     0.456  60.76   0
        25    647.7827    960.4987 300.0982197 +22.8320334     190.8977     70.12136      1.024     3.43    -4.720302     19.80861     43.62946         5     0.769     0.442 -21.79   0
        26    833.5422    956.9258 300.1572246 +22.8867525     427.1028     70.26447      1.069     1.85     -4.78999     19.80861     75.68868         6     0.702     0.498  89.03   0
        27    882.0408    947.9146 300.1752675 +22.8987172     244.1119     70.19295      1.005     2.57    -4.896449     19.80861     51.39523         5     0.609     0.595  12.88   0
        28    733.4595    947.4133 300.1291517 +22.8539933     326.6372     70.19295      0.970     3.05     -4.55679     19.80861     66.53416         7     0.860     0.615  13.00   0
        29    744.8216    944.3022 300.1337024 +22.8565105     315.0323     70.13926      1.167     3.07    -4.574738     19.80861     52.82595         6     0.871     0.561 -65.49   0
        30    446.0700    943.8420 300.0408861 +22.7667035     2373.405     70.17506      1.189     2.12    -4.757365     19.80861     414.5203        19     0.916     0.877  54.28   0
        31    488.7996    931.3402 300.0582447 +22.7759486     190.8767     70.17506      1.224     5.36    -4.591856     19.80861     34.46815         6     1.693     0.479  53.46   0
        32    171.5171    929.6218 299.9601864 +22.6801709     488.6756     70.17506      1.051     2.74    -3.801228     19.80861     76.79227         7     0.816     0.604  15.33   0
        33    148.4127    926.7089 299.9539585 +22.6723955     901.9821     70.15717      1.131     2.11    -3.912736     19.80861     157.2977        14     0.898     0.810  11.60   0
        34     23.4814    917.0270 299.9183202 +22.6320858     183.0819     70.21083      0.922     4.17    -4.722224     19.80861     42.31622         6     0.994     0.500 -89.56   0
        35   1020.0082    915.2058 300.2289152 +22.9307123     1128.428     69.40141      1.027     1.65    -4.773289     19.80861     281.0806        10     0.753     0.662  86.02  16
        36    974.2819    913.6942 300.2151528 +22.9165651     1294.399      70.3716      1.038     1.88    -4.750224     19.80861     243.2976        13     0.864     0.766  82.78   0
        37    757.8813    907.9052 300.1496166 +22.8499883     432.1598      70.3716      1.110     2.50    -4.641001     19.80861     79.63618         6     0.726     0.548 -49.09   0
        38    180.1115    908.2230 299.9698202 +22.6766218     150.6897     70.13926      1.148     3.58    -3.968982     19.80861     53.54398         6     0.926     0.478 -35.81   0
        39    625.9772    901.8524 300.1105227 +22.8086700     2593.312     70.22871      1.226     2.22    -4.538008     19.80861     434.5722        21     1.004     0.875  28.65   0
        40    115.9449    902.7419 299.9516757 +22.6557753     342.6138     70.26447      1.113     2.23    -4.003522     19.80861     61.17426         7     0.725     0.623  18.38   0
        41    428.2891    898.9296 300.0499748 +22.7484899     338.2314      70.3716      1.002     2.19    -4.526453     19.80861     71.37907         8     0.801     0.624   0.78   0
        42    176.3394    896.0599 299.9726068 +22.6720037     772.4607     70.24659      1.128     2.24    -4.010615     19.80861     138.1516        11     0.812     0.766 -85.97   0
        43    646.7608    894.3735 300.1194255 +22.8127624     388.9732     70.22871      1.173     2.66     -4.56154     19.80861     80.41689         7     0.825     0.565 -87.94   0
        44    562.6354    885.4336 300.0961553 +22.7849502     276.4166     70.26447      1.394     3.72    -4.450865     19.80861     41.42986         5     1.019     0.391 -72.61   0
        45    802.0245    881.5141 300.1719538 +22.8556607     2427.361     70.15717      1.132     1.90    -4.670729     19.80861     415.0329        17     0.912     0.837  62.07   0
        46   1018.9133    881.3818 300.2395830 +22.9206750      726.878     70.15717      1.076     1.77    -4.692431     19.80861     145.4534         9     0.780     0.608  70.25  16
        47    210.3012    875.8853 299.9897217 +22.6764240     390.1287      70.3716      1.515     4.32    -4.003947     19.80861     44.44069         7     0.984     0.665  73.67   0
        48    518.8827    874.2056 300.0861972 +22.7685977     417.2136     70.13926      1.048     1.99    -4.408766     19.80861     67.41396         6     0.692     0.548 -43.97   0
        49    165.4805    872.3185 299.9769597 +22.6619394     540.1993     70.35376      1.130     2.41    -4.111858     19.80861     81.15723        10     0.835     0.724 -89.06   0
        50    315.1332    864.3555 300.0260481 +22.7046028      30976.4     70.19295      1.239     2.28    -4.088149     19.80861     4221.556        61     1.144     1.074  76.94   0
        51    580.7514    867.2754 300.1077013 +22.7851801     331.7214     70.21083      1.421     3.78     -4.38625     19.80861     46.55914         6     0.790     0.518 -49.44   0
        52    573.0645    863.1996 300.1066357 +22.7817041     806.0435     70.21083      1.165     2.22    -4.368459     19.80861     144.0207        11     0.843     0.735  63.22   0
        53    243.2653    862.5526 300.0043014 +22.6825038     237.5684     70.24659      1.205     5.03    -4.012093     19.80861     37.37792         9     0.953     0.751 -74.18   0
        54    985.7827    861.9536 300.2355777 +22.9051631     444.5486     70.24659      1.026     1.79      -4.5716     19.80861     92.94183         7     0.663     0.607 -60.07   0
        55    601.9047    859.5191 300.1168078 +22.7893041     521.2411     70.35376      1.243     2.96    -4.362005     19.80861      86.5083         9     0.905     0.702 -44.90   0
        56      1.5171    858.9283 299.9304082 +22.6088452      372.794     55.78014      0.911     1.86    -4.806168     19.80861     88.67841         7     0.689     0.609 -71.76  24
        57    612.6385    857.5865 300.1207771 +22.7919710     297.2969     70.22871      1.176     3.06    -4.370871     19.80861     52.86284         9     0.922     0.755 -40.98   0
        58    932.7225    854.3361 300.2215186 +22.8870645     306.5938     70.30019      1.138     2.93    -4.435134     19.80861     52.71265         6     0.833     0.525  42.92   0
        59    717.9806    853.5283 300.1548889 +22.8224167     173.8198     70.24659      1.166     4.14    -4.607904     19.80861     35.16406         5     1.108     0.442  13.20   0
        60    364.8146    841.6075 300.0488927 +22.7129995     18280.78     70.12136      1.266     2.33    -4.172359     19.80861     2640.844        51     1.147     1.057  87.24   0
        61    755.8246    844.0956 300.1697423 +22.8310644       427.87     70.10345      1.111     2.16    -4.591851     19.80861     89.12936         8     0.777     0.621  53.74   0
        62    378.9809    842.0419 300.0531555 +22.7173772     1228.776     70.22871      1.390     2.97    -4.228368     19.80861     133.6262        14     0.982     0.866  20.22   0
        63    887.8121    837.1511 300.2131158 +22.8686630     1700.522     70.22871      1.192     2.00    -4.425357     19.80861     310.8283        17     0.928     0.851 -51.22   0
        64    376.0175    836.1069 300.0541652 +22.7147861      306.776     70.13926      1.189     1.76     -4.20527     19.80861     62.03428         5     0.600     0.524 -88.74   0
        65    645.5389    833.5071 300.1388520 +22.7949370     637.6542     70.30019      1.390     2.99     -4.35779     19.80861      74.6848        12     0.927     0.877  11.91   0
        66    482.1957    833.6812 300.0879718 +22.7459651     332.2375     70.13927      1.056     3.31    -4.261445     19.80861     43.28376         5     0.844     0.453 -48.37   0
        67    247.4168    833.3437 300.0150949 +22.6753793     553.6312     70.15717      1.188     2.73    -4.054036     19.80861      64.6591         8     0.861     0.631 -89.44   0
        68     52.0954    829.4612 299.9556952 +22.6155998     330.3351     70.30019      1.367     3.17    -4.339257     19.80861     56.31324         6     1.031     0.462 -71.13   0
        69    492.8849    828.4261 300.0930064 +22.7476666     459.6877     70.19295      1.184     4.06    -4.216615     19.80861     59.19518         9     0.922     0.730  19.02   0
        70    893.9366    824.8362 300.2190313 +22.8669653     349.1458     70.21083      1.238     2.19    -4.356223     19.80861     58.89198         6     0.697     0.561  42.10   0
        71    438.6870    822.9540 300.0779305 +22.7298289     271.1197     70.19295      1.166     2.49    -4.253497     19.80861     50.32558         5     0.735     0.423  71.61   0
        72    351.0234    823.2495 300.0505783 +22.7035960      238.888     70.21083      1.389     2.62    -4.130953     19.80861     40.28619         5     0.780     0.471  62.27   0
        73     80.4683    822.7490 299.9666876 +22.6222002     165.9196     70.19295      0.933     2.18     -4.17526     19.80861     54.86988         5     0.673     0.491 -79.18   0
        74    568.1467    808.6165 300.1228654 +22.7645734     406.1258     70.19295      1.560     2.43    -4.060775     19.80861     55.39324         5     0.711     0.628  73.50   0
        75    537.7893    806.1908 300.1142094 +22.7547672     364.2029     70.10345      1.368     3.37     -3.97616     19.80861     51.85718         8     0.888     0.665   8.81   0
        76    954.1194    802.4998 300.2450540 +22.8786016     2580.118     70.33591      1.111     1.96    -4.180057     19.80861     438.4638        18     0.925     0.845  79.04   0
        77    559.6954    803.7369 300.1218233 +22.7606376     685.7651     70.30019      1.312     2.50    -4.000008     19.80861     104.7588        12     0.904     0.789  22.66   0
        78    942.5793    793.6564 300.2443344 +22.8726026     1033.472     70.22871      1.161     2.12    -4.176138     19.80861     169.1629        12     0.807     0.775  34.08   0
        79    306.0175    788.0385 300.0480440 +22.6799893     386.6137     70.22871      1.219     2.57    -4.126554     19.80861     76.21269        10     0.964     0.640 -82.11   0
        80    769.0427    785.2481 300.1930050 +22.8181439      1364.36     70.22871      1.335     2.51    -4.319374     19.80861     188.6664        19     1.251     0.898  -7.38   0
        81    973.7275    783.9016 300.2572165 +22.8791418     939.5267     70.33591      1.159     2.05    -4.156664     19.80861     167.2759        12     0.848     0.755 -64.71   0
        82    153.9712    771.7787 300.0060931 +22.6296720     383.0352     70.21083      1.594     4.79    -4.099337     19.80861     39.83152         7     0.940     0.693  -2.29   0
        83    887.3544    762.1050 300.2373889 +22.8469853     85574.99     70.22871      1.243     2.18    -4.263038     19.80861     12152.43       107     1.208     1.147  75.18   0
        84    740.0499    762.2181 300.1914680 +22.8028383     342.4055     70.21083      1.232     3.00    -4.289207     19.80861     58.21862         9     0.902     0.685  16.79   0
        85    573.5996    751.0879 300.1432760 +22.7497079     911.7391     70.12136      1.345     3.03    -4.029826     19.80861     133.4839        16     1.006     0.938 -38.93   0
        86    754.8918    748.2493 300.2006335 +22.8032816     5491.744     70.24659      1.325     2.57    -4.187292     19.80861     670.0956        29     1.074     1.034   6.06   0
        87    256.4997    743.7214 300.0470701 +22.6524174     2948.988     70.33591      1.314     2.33    -4.108242     19.80861     424.2925        23     1.088     0.996 -71.05   0
        88    338.5502    741.6801 300.0732344 +22.6764652     508.7677     70.24659      1.394     3.81    -4.073464     19.80861      64.6616        11     0.944     0.825 -36.48   0
        89    546.6623    737.2449 300.1393969 +22.7376540     478.1754     70.22871      1.474     3.72    -3.911819     19.80861     58.74284         9     1.100     0.555  27.05   0
        90    538.3708    729.3354 300.1393897 +22.7328970     1825.137     70.22871      1.426     2.80    -3.905899     19.80861     210.7043        19     1.061     0.963  63.48   0
        91    528.6755    722.8989 300.1384666 +22.7281415     947.6391     70.33591      1.572     3.36    -3.908816     19.80861     84.52062        14     1.012     0.898 -62.88   0
        92    922.3439    720.1988 300.2619228 +22.8454465     189.8981     70.13926      1.377     3.84    -4.142301     19.80861      36.1409         5     1.096     0.458  34.05   0
        93    191.9045    719.3478 300.0349276 +22.6260354     411.7805     70.28233      1.285     3.99    -4.122617     19.80861     52.84708         8     0.930     0.763   4.88   0
        94    206.2526    718.1370 300.0397786 +22.6299965     363.6111     70.26447      1.123     3.46    -4.121248     19.80861      56.6641         7     0.946     0.547 -71.32   0
        95    975.5096    713.8768 300.2805496 +22.8595707     215.9769     70.35376      1.080     2.72    -4.028531     19.80861     58.90908         6     0.786     0.615  55.30   0
        96    453.6163    713.0032 300.1183373 +22.7027787     992.5257     70.12136      1.391     2.64    -3.982207     19.80861     155.6964        19     1.102     0.977 -84.81   0
        97    232.0738    714.0540 300.0491286 +22.6365788     239.5598     70.22871      1.330     4.71    -4.110414     19.80861     34.47935         6     1.143     0.551  86.00   0
        98    107.4550    707.9035 300.0124200 +22.5973961     11292.17     70.30019      1.316     2.30    -4.145967     19.80861     1678.367        43     1.158     1.063  67.27   0
        99     28.1642    709.5917 299.9872531 +22.5740663     578.0732     70.21083      1.582     4.06    -4.357687     19.80861      53.5329         9     0.896     0.814 -60.74   0
       100    538.5329    708.1827 300.1463192 +22.7268777     648.9577     70.19295      1.404     2.92    -3.851023     19.80861     94.67268        13     1.018     0.839 -64.08   0
       101    956.1612    693.8406 300.2810347 +22.8480171     555.5733     70.28233      1.209     2.11    -3.981987     19.80861     106.7872         8     0.695     0.674  70.37   0
       102     53.2487    692.1740 300.0007038 +22.5766089     762.1381     70.22871      1.689     4.38    -4.302512     19.80861     96.30312        19     1.558     0.946 -80.99   0
       103    822.9724    692.1902 300.2400699 +22.8076094     256.3831     70.21083      1.304     3.92    -3.917047     19.80861     41.92491         6     0.781     0.691   6.85   0
       104    501.9996    688.7278 300.1412802 +22.7103346     282.0407     70.08554      1.524     4.49    -3.764752     19.80861     34.86972         5     0.985     0.581 -69.31   0
       105    896.8176    686.7436 300.2648482 +22.8281878      381.006     70.19295      1.075     3.45    -3.950058     19.80861     54.32761         9     0.927     0.646 -69.37   0
       106    458.5921    681.0164 300.1302861 +22.6950972     451.8282     70.13927      1.412     3.29    -3.809135     19.80861     58.23254        11     0.927     0.858  35.52   0
       107    606.4053    679.8086 300.1766655 +22.7391004     299.3904     70.06762      1.232     3.40    -3.820954     19.80861     40.36184         5     0.818     0.409 -67.46   0
       108    503.1676    677.0789 300.1454314 +22.7073434     591.1059     70.19295      1.624     4.70    -3.696568     19.80861      63.6908        11     1.230     0.869  88.12   0
       109    653.5712    677.7306 300.1920214 +22.7526529     295.4832     70.21083      1.225     3.83    -3.892246     19.80861     36.11411         7     0.864     0.646 -19.14   0
       110    623.8614    677.7117 300.1827802 +22.7437353     368.0385     70.28233      1.338     4.38    -3.837382     19.80861     34.44868         7     0.854     0.640 -24.38   0
       111    936.3306    672.0625 300.2819359 +22.8358186     2003.833     70.24659      1.304     2.29    -3.895647     19.80861     271.0681        21     1.028     0.957 -26.21   0
       112    468.1041    672.3308 300.1360687 +22.6954601     1071.478     70.33591      1.506     3.10     -3.70006     19.80861     111.4877        18     1.102     1.002  13.56   0
       113     30.2139    666.1752 300.0020056 +22.5622402     2890.935     70.21083      1.279     2.54    -4.409661     19.80861     351.0862        22     1.065     0.946  73.00   0
       114    331.6707    659.1861 300.0979207 +22.6507450     5246.997     70.21083      1.446     2.79    -3.928041     19.80861       617.09        32     1.163     1.109  80.51   0
       115    453.9971    656.0347 300.1369795 +22.6865524     5145.518     70.21083      1.437     2.98    -3.685894     19.80861      533.118        31     1.188     1.111  59.43   0
       116    865.5770    649.6257 300.2671834 +22.8081643      1025.85     70.17506      1.471     3.80    -3.814798     19.80861     111.5053        17     1.144     0.953 -79.73   0
       117    950.1518    647.1755 300.2943358 +22.8328154      7044.94     70.21083      1.288     2.42    -3.843513     19.80861     906.3217        31     1.077     1.013  51.61   0
       118    514.5695    645.6663 300.1591915 +22.7017526      6673.09     70.21083      1.528     3.03    -3.438336     19.80861      729.374        35     1.237     1.149  72.62   0
       119    684.1737    641.5455 300.2133132 +22.7514473      198.344     70.24659      1.175     4.36     -3.67719     19.80861     43.16696         6     0.962     0.563 -63.71   0
       120    242.1532    641.2491 300.0759318 +22.6187313     745.6116     70.24659      1.347     3.15    -3.745838     19.80861     92.16317        13     1.031     0.853 -58.38   0
       121    789.0010    633.6728 300.2485153 +22.7806240     449.0704     70.10345      1.405     4.41    -3.792604     19.80861     54.10152        11     1.170     0.661 -66.88   0
       122    446.2213    633.9135 300.1417530 +22.6778735     2573.864     70.13926      1.545     2.98    -3.589939     19.80861     296.7863        23     1.134     1.106  84.89   0
       123    424.5556    632.3452 300.1355251 +22.6709224     744.8286     70.22871      1.486     3.44    -3.720273     19.80861     71.59974        14     1.007     0.915 -11.00   0
       124    178.9710    631.9146 300.0593370 +22.5970875     456.7313     70.21083      1.355     2.94     -3.66637     19.80861     73.52267         8     0.859     0.809  37.82   0
       125    865.9453    629.1398 300.2739586 +22.8023927     988.8027     70.26447      1.483     3.12    -3.800153     19.80861     106.5003        17     1.117     0.899 -22.14   0
       126    562.8275    621.3690 300.1821047 +22.7092589     118667.5     70.21083      1.527     3.12    -3.132863     19.80861     11461.96       141     1.419     1.380 -19.83   0
       127    746.6658    626.2286 300.2377507 +22.7657922     506.1688     70.19295      1.354     3.08     -3.71188     19.80861     54.14262         9     0.823     0.763 -26.55   0
       128    248.9811    621.5532 300.0844560 +22.6151333     1983.198     70.24659      1.437     2.92    -3.581158     19.80861     217.9303        22     1.070     1.020  89.26   0
       129    453.5934    601.9534 300.1544350 +22.6709168     1536.279     70.22871      1.605     3.14    -3.328306     19.80861     178.5085        23     1.485     1.046  74.05   0
       130    769.9623    590.5997 300.2565878 +22.7625496     311.9883     70.21083      1.479     3.88    -3.637926     19.80861     26.00681         5     0.882     0.489   1.94   0
       131    850.4156    587.7103 300.2825880 +22.7858409     1019.672     70.13927      1.507     3.47    -3.734861     19.80861     93.33673        14     1.010     0.933  38.48   0
       132    721.4890    585.5224 300.2431432 +22.7465572     1403.043     70.33591      1.501     3.13    -3.424749     19.80861     151.2288        17     1.068     0.946  86.19   0
       133    509.1586    581.7260 300.1782931 +22.6817836      366.976     70.19295      1.505     4.52    -2.963725     19.80861     46.27084         8     0.996     0.695  33.41   0
       134    979.0724    579.0587 300.3254947 +22.8219206     681.5251     70.24659      1.300     2.89    -3.644068     19.80861     102.7573        16     1.072     0.974  78.67   0
       135    850.4700    577.5884 300.2858950 +22.7829508     1244.074     70.22871      1.630     5.46    -3.710411     19.80861     123.0184        20     1.688     0.891  74.33   0
       136    964.4786    578.4091 300.3211567 +22.8173601     502.3987     70.17506      1.554     4.13    -3.653374     19.80861     46.71661         7     0.856     0.675  32.44   0
       137    603.7270    575.2155 300.2098343 +22.7082822     356.6234     70.21083      1.828     6.32    -2.857967     19.80861     36.23485         8     1.219     0.922 -84.11   0
       138    888.6373    572.8770 300.2993185 +22.7930391     2433.262     70.17506      1.403     2.78    -3.685876     19.80861      270.664        24     1.090     1.064  54.94   0
       139    120.6877    563.5994 300.0634383 +22.5600039     584.6965     70.10345      1.466     3.31    -3.536824     19.80861     81.89417        11     0.931     0.853 -31.52   0
       140    980.3786    562.9937 300.3311236 +22.8176975      413.295     70.19295      1.427     3.01    -3.594959     19.80861     64.78859         8     0.957     0.579 -66.97   0
       141    113.6547    553.5521 300.0645193 +22.5550119     188.8471     70.24659      1.315     4.84    -3.524607     19.80861     34.00576         6     0.979     0.679  70.66   0
       142    721.3744    547.4141 300.2554933 +22.7355827     272.7396     70.22871      1.298     5.04    -3.239897     19.80861     43.93983         7     1.484     0.484 -89.27   0
       143    662.4429    543.2477 300.2384996 +22.7167155     367.5455     70.24659      1.484     4.24    -2.804415     19.80861     52.27223         7     1.126     0.762  68.52   0
       144    723.1111    535.5557 300.2598878 +22.7326989     499.1715     70.22871      1.458     4.03    -3.207386     19.80861      53.8546         9     0.939     0.661 -72.81   0
       145    977.0791    535.5365 300.3390187 +22.8088216     405.4397     70.30019      1.434     2.83    -3.480582     19.80861     62.59197         6     0.887     0.498   1.15   0
       146    880.1384    531.5854 300.3100902 +22.7786330     619.2799     70.17506      1.502     4.08    -3.606972     19.80861     62.47803        14     1.128     0.895  64.62   0
       147    864.3049    527.9024 300.3063536 +22.7728294     302.2082     70.38944      1.385     4.52    -3.613703     19.80861     46.01202         7     1.108     0.525  28.92   0
       148    608.8903    526.2335 300.2273598 +22.6957719     1744.315     70.19295      1.593     3.69    -2.812251     19.80861     154.3915        21     1.193     1.042  78.01   0
       149    968.8329    524.3885 300.3400711 +22.8031480     270.1196     70.19295      1.163     4.24     -3.42697     19.80861     32.65377         6     0.758     0.677  44.21   0
       150   1019.8848    505.2208 300.3622153 +22.8129392     758.4348     69.69028      1.334     2.79    -2.995244     19.80861     92.87379        11     0.856     0.791   3.90  16
       151    891.5785    504.6114 300.3224204 +22.7743145     406.2652     70.19295      1.591     4.92     -3.58402     19.80861     44.44876         7     1.016     0.675 -49.86   0
       152    978.3967    503.6902 300.3497784 +22.8000678      447.633     70.12136      1.125     2.99    -3.254131     19.80861     67.02042         9     0.951     0.613 -81.05   0
       153    719.5092    500.4669 300.2701684 +22.7215445     507.7354     70.33591      1.434     3.19    -3.035664     19.80861     59.87659        12     0.971     0.855 -33.04   0
       154    223.1707    499.0263 300.1162547 +22.5722483     381.7993     70.21083      1.542     4.01    -3.478886     19.80861     54.60207         9     1.216     0.713  -5.57   0
       155    285.7933    494.4225 300.1372102 +22.5897201     2263.168     70.19295      1.628     3.14    -3.382862     19.80861     222.8561        25     1.206     1.117 -63.15   0
       156   1018.7194    492.4416 300.3660044 +22.8089184     2504.406     70.19295      1.306     2.53    -2.834014     19.80861     303.4189        22     1.058     0.973 -70.83  16
       157    233.0386    489.2058 300.1225114 +22.5723930     4388.402     70.24659      1.494     2.97    -3.462878     19.80861     456.0132        29     1.238     1.097  81.45   0
       158    373.7379    483.3179 300.1681555 +22.6129213     2602.114     70.30019      1.586     3.45    -3.114837     19.80861     245.7288        27     1.187     1.176 -41.86   0
       159    998.6323    483.4850 300.3626520 +22.8003264     994.4377     70.17506      1.250     2.36    -2.907645     19.80861     143.0568        14     0.951     0.830  63.84   0
       160    617.8657    479.8324 300.2452300 +22.6851438     10587.92     70.21083      1.593     3.36    -2.965443     19.80861     947.8228        46     1.315     1.261  72.71   0
       161    635.0465    480.7998 300.2502633 +22.6905733     528.5458     70.21083      2.273     6.38    -2.947738     19.80861     35.89104         8     1.230     0.930 -53.88   0
       162    951.2635    461.6183 300.3549904 +22.7798506     447.2603     70.17506      1.577     5.63    -3.242817     19.80861      53.7229        11     1.280     0.698 -77.49   0
       163    172.6539    460.3087 300.1131387 +22.5459830     1233.418     70.26447      1.542     3.13    -3.480563     19.80861     135.9659        18     1.108     0.981  86.81   0
       164    558.5557    449.3145 300.2366869 +22.6585979     3745.233     70.19295      1.634     3.64    -2.956397     19.80861     347.8484        32     1.272     1.206 -78.57   0
       165    972.2138    449.3886 300.3654939 +22.7826144     680.8989     70.12136      1.296     2.82     -3.05563     19.80861     82.68811        11     0.986     0.687  24.00   0
       166    273.4985    449.2416 300.1480667 +22.5730701     316.0777     70.19295      1.434     4.03    -3.320257     19.80861     45.16846         6     0.899     0.515 -49.46   0
       167    131.2878    442.5367 300.1060628 +22.5284711     359.3441     70.31805      1.625     3.40    -3.505671     19.80861     41.83396         5     0.751     0.445 -21.87   0
       168    762.4412    438.3719 300.3037114 +22.7165836     651.8632     70.22871      1.727     3.87    -3.093881     19.80861     73.75884        14     1.165     0.893  59.27   0
       169    465.2110    435.7210 300.2120631 +22.6267018     3558.012     70.19295      1.616     3.27    -2.903872     19.80861     395.7697        30     1.247     1.207 -83.53   0
       170    857.0800    429.9631 300.3359233 +22.7425333     764.4697     70.17506      1.534     3.12    -3.271036     19.80861     75.04346        14     1.072     0.823  88.07   0
       171    954.7044    429.5719 300.3664736 +22.7716745     284.8474     70.13927      1.362     3.43    -3.041384     19.80861     37.03893         5     0.787     0.433  21.36   0
       172    449.5141    424.8277 300.2107192 +22.6188675     316.0496     70.21083      1.401     3.78    -2.886928     19.80861     35.55988         5     1.114     0.368   4.61   0
       173    829.9194    417.4002 300.3315422 +22.7307848      236.217     70.08554      1.494     3.89    -3.198483     19.80861     37.48262         6     0.954     0.627  33.22   0
       174    352.7110    415.0307 300.1838003 +22.5870195     1357.023     70.19295      1.561     3.23    -2.984821     19.80861     145.6772        18     1.149     0.997  59.39   0
       175     71.5099    412.5199 300.0972483 +22.5019214     593.7361     70.31805      1.402     3.09    -3.494745     19.80861     67.94605        11     1.002     0.726  44.10   0
       176    322.0570    404.4313 300.1777135 +22.5747823     16993.02     70.22871      1.613     3.23    -3.021325     19.80861     1700.521        53     1.381     1.265 -89.58   0
       177    856.7702    401.5187 300.3450660 +22.7342694     792.5983     70.22871      1.591     4.13    -3.099982     19.80861     76.06631        15     1.225     0.874 -45.97   0
       178     18.5066    392.5196 300.0872877 +22.4802769     2755.534     70.33591      1.379     2.38    -2.950283     19.80861     406.3768        27     1.140     1.034  85.36   0
       179    771.9543    390.9804 300.3220675 +22.7058238     289.3114     70.24659      1.301     4.68    -2.998741     19.80861     41.89623         7     1.060     0.703  11.16   0
       180    732.2848    383.9464 300.3119978 +22.6919136     970.7732     70.26447      1.569     4.11    -2.853791     19.80861     81.69626        18     1.235     0.964  18.40   0
       181    947.0414    376.3575 300.3813693 +22.7540884     314.1891     70.30019      1.319     4.45    -2.848818     19.80861     39.23537         7     0.952     0.592  54.46   0
       182    394.3425    368.7575 300.2117717 +22.5862276     1108.079     70.15717      1.670     4.28    -2.501835     19.80861     103.5537        20     1.315     1.050  78.79   0
       183    833.3594    361.4943 300.3507710 +22.7157558     339.8126     70.22871      1.192     3.71     -2.89042     19.80861     41.63065         6     0.962     0.466 -55.22   0
       184    470.1609    348.0110 300.2420877 +22.6030104     637.2279     70.21083      1.607     4.67    -2.723114     19.80861     64.86253        14     1.204     0.942 -52.74   0
       185    714.7728    339.6598 300.3209262 +22.6739450     1342.662     70.21083      1.662     4.61    -2.698488     19.80861     117.4787        20     1.372     1.018  74.72   0
       186    976.0522    333.9630 300.4041795 +22.7505964     1781.554     70.22871      1.382     2.73    -2.805298     19.80861     212.3376        20     1.077     0.961 -51.61   0
       187    423.7853    323.7888 300.2355286 +22.5821503     303.4962     70.13927      1.405     5.23    -2.271278     19.80861     35.18908         9     1.066     0.725 -49.62   0
       188    129.1613    318.1060 300.1458083 +22.4921424     394.8203     70.22871      1.305     4.29    -2.957241     19.80861     43.38712        10     1.073     0.689  85.79   0
       189     98.0710    318.3273 300.1360808 +22.4828770     765.0826     70.28233      1.652     3.37    -2.925372     19.80861     76.45446        15     1.119     0.910 -63.32   0
       190    992.3115    314.3189 300.4156266 +22.7498209     296.8517     70.33591      1.310     2.66    -2.857454     19.80861      44.2995         5     0.720     0.455  81.13   0
       191    182.7538    309.9736 300.1650955 +22.5058888     396.1826     70.22871      2.162     4.21    -2.844962     19.80861     35.96532         6     1.110     0.455 -61.51   0
       192    977.4431    307.2107 300.4132993 +22.7433244     229.7658     70.21083      0.982     3.39    -2.846718     19.80861     35.45948         5     0.733     0.461  70.95   0
       193    786.7211    301.4467 300.3557401 +22.6845295     421.8913     70.22871      1.623     4.70    -2.782119     19.80861     47.20328         8     0.871     0.768 -29.40   0
       194    884.3945    289.9988 300.3898864 +22.7105045     1303.237     70.03177      1.558     3.64    -2.679997     19.80861     119.5017        20     1.189     1.040 -82.99   0
       195    303.2650    287.7301 300.2097643 +22.5356558     1228.903     70.24659      1.607     3.19    -2.250059     19.80861     145.7181        21     1.208     1.078  24.95   0
       196    381.0910    283.0161 300.2354889 +22.5576432     658.8004     70.13926      1.959     4.44    -2.047868     19.80861      59.7447        15     1.335     0.841 -25.07   0
       197    783.1819    281.9242 300.3609756 +22.6778602     395.4356     70.21083      1.504     3.75    -2.732708     19.80861     47.89312         8     1.010     0.663  -8.71   0
       198    198.2847    275.2076 300.1812059 +22.5005728     448.9502     70.13927      1.616     5.08    -2.496894     19.80861     39.10839         9     1.132     0.644 -65.16   0
       199    735.5487    271.6143 300.3494873 +22.6606250     1130.587     70.22871      1.739     3.78    -2.749848     19.80861     100.8157        20     1.285     1.062 -47.34   0
       200    801.3368    271.2801 300.3700859 +22.6802417     401.1495     70.31805      1.568     3.47    -2.674015     19.80861     39.68668         5     0.911     0.433  -8.55   0
       201   1006.7159    263.6953 300.4365524 +22.7395841     513.7752     70.38944      1.581     5.22     -2.94945     19.80861     58.34269        11     1.026     0.833  54.96   0
       202    739.5258    263.1491 300.3534737 +22.6593848     494.0723     70.22871      1.961     5.27    -2.749962     19.80861     34.67101         7     1.066     0.735  31.69   0
       203    660.2614    262.3808 300.3290430 +22.6354105     705.0616     70.19295      1.627     3.80    -2.280718     19.80861      57.3364        16     1.093     0.980  76.20   0
       204    855.6508    253.9822 300.3926218 +22.6915436     877.8308     70.21083      1.572     3.19    -2.636976     19.80861     93.35863        16     1.050     0.975  40.05   0
       205    586.5975    254.2149 300.3087648 +22.6109865     487.4953      70.0497      1.529     6.06    -2.037112     19.80861     44.42617        12     1.102     0.938 -71.67   0
       206    867.6732    252.9404 300.3967059 +22.6948458     473.8163     70.24659      1.585     4.82    -2.627648     19.80861     39.51192         8     0.904     0.833  71.08   0
       207    984.4750    242.9124 300.4363646 +22.7269490     633.2281     70.33591      1.369     3.97    -2.725438     19.80861       69.923        13     1.143     0.828 -79.71   0
       208    218.8568    236.9057 300.2000291 +22.4957526     443.6104     70.26447      1.912     4.80    -2.117772     19.80861     39.08154         8     1.101     0.765  70.72   0
       209     80.6059    231.6242 300.1587995 +22.4527638     1206.049     70.19295      1.380     2.57    -2.101858     19.80861     160.8236        17     1.120     0.862 -73.00   0
       210     30.3769    228.4320 300.1442397 +22.4367774     335.8344     70.21083      1.316     3.29    -2.036881     19.80861     38.74675         5     1.035     0.303 -67.56   0
       211    903.0764    227.9448 300.4158511 +22.6982671     336.9851     70.24659      1.355     5.23    -2.254293     19.80861     41.64455         8     1.011     0.804  13.82   0
       212    237.8901    224.8324 300.2098614 +22.4979964     3221.389     70.17506      1.587     3.24    -2.011586     19.80861     328.2404        29     1.220     1.172  55.99   0
       213     22.0633    219.1069 300.1446848 +22.4316079      888.376     70.31805      1.625     3.27    -2.043285     19.80861      93.4927        14     1.107     0.886  73.77   0
       214    881.7174    205.7010 300.4164143 +22.6854762     2093.677      70.3716      1.573     3.03    -2.367723     19.80861     229.3036        27     1.200     1.184  31.55   0
       215    985.4155    204.4411 300.4491440 +22.7161713     1593.606     70.22871      1.481     2.77    -2.472143     19.80861     176.9895        19     1.081     0.963  87.88   0
       216    184.3541    202.2171 300.2005663 +22.4754487     251.2262     70.22871      1.234     4.80    -2.010559     19.80861     31.04663         7     1.167     0.560  35.88   0
       217    432.0557    201.2128 300.2778870 +22.5494392     357.2577     70.21083      1.814     3.15    -1.957728     19.80861     36.31564         6     0.880     0.471 -36.81   0
       218    355.2924    193.5282 300.2565109 +22.5242177     377.5878     70.35376      1.579     4.21     -1.95514     19.80861     40.08966         6     0.937     0.684  78.57   0
       219    482.7257    188.5953 300.2977417 +22.5610058     951.7407     70.13927      1.700     4.38    -1.968725     19.80861     72.47307        19     1.264     1.054 -66.97   0
       220    121.6047    190.3041 300.1849402 +22.4532078     326.1331     70.12136      1.448     5.90    -2.020324     19.80861      40.1336         9     1.300     0.754   0.78   0
       221    256.7076    168.5820 300.2339615 +22.4874947     3540.064     70.13927      1.650     3.14    -1.971853     19.80861     404.6622        31     1.331     1.189  38.20   0
       222    108.3024    168.3136 300.1879437 +22.4429073     351.1548      70.3716      1.283     3.04    -2.024604     19.80861     54.31499         5     0.747     0.446  79.52   0
       223    502.7669    153.8710 300.3152431 +22.5570404     3466.959     70.21083      1.642     3.57    -1.961442     19.80861      303.734        32     1.289     1.233  53.08   0
       224    388.6710    153.2530 300.2799568 +22.5226615     346.4409     70.19295      1.385     5.20    -1.967329     19.80861     49.70696         9     1.308     0.583  79.24   0
       225    755.5142    143.5531 300.3972644 +22.6298111      473.709     70.17506      1.138     3.61    -2.232976     19.80861     60.50465         6     1.084     0.378  44.93   0
       226    195.5608    137.6689 300.2249904 +22.4602842     160.5593     70.17506      1.155     3.75     -1.97312     19.80861     45.40804         6     0.940     0.670 -13.53   0
       227    631.0070    133.8217 300.3616548 +22.5897123     3545.516     70.19295      1.683     3.54    -2.152717     19.80861      316.796        31     1.286     1.248  58.16   0
       228    405.8697    133.0203 300.2918688 +22.5220075     938.1027     70.19295      1.679     3.97    -2.001405     19.80861     81.92119        17     1.181     1.024 -11.07   0
       229    672.4771    131.8009 300.3752202 +22.6015571     534.1804     70.10345      1.894     3.02    -2.198588     19.80861     59.09567         6     0.875     0.635   4.55   0
       230    688.8048    126.7096 300.3819555 +22.6049860     313.8499     70.12136      1.758     3.60    -2.231506     19.80861     33.65927         5     0.955     0.391 -85.71   0
       231    155.3410    125.8375 300.2163336 +22.4448262     213.8114     70.22871      1.381     3.44    -1.955813     19.80861     42.72207         5     0.749     0.456 -77.25   0
       232    726.1889    122.8398 300.3948516 +22.6150737     324.6757     70.21083      1.731     2.73    -2.293756     19.80861     37.31673         5     0.713     0.675  44.35   0
       233    675.2515    118.6516 300.3803498 +22.5986100      1590.99     70.24659      1.681     3.80    -2.202765     19.80861     135.0929        21     1.167     1.138 -86.82   0
       234    689.9873    117.5790 300.3852857 +22.6027166     540.8276     70.19295      2.246     3.18     -2.22525     19.80861     43.47483         7     0.862     0.731 -85.06   0
       235    761.6111    110.1092 300.4100130 +22.6220261     900.2706     70.15717      1.590     3.49    -2.126861     19.80861      92.5118        18     1.111     1.042  33.49   0
       236    699.5515    103.3244 300.3928877 +22.6014856     401.4276     70.21083      1.655     5.81     -2.21848     19.80861     35.15915         9     1.033     0.921   1.44   0
       237    505.6550    102.9912 300.3326473 +22.5432918     740.2234     70.21083      1.855     3.40    -2.063424     19.80861     64.34301        10     0.904     0.830 -75.25   0
       238     78.4527    102.7971 300.1999270 +22.4151527     345.3101     70.21083      1.419     3.90    -2.006193     19.80861     33.71512         6     1.333     0.327  48.36   0
       239    409.3986    101.1317 300.3033105 +22.5139077     590.4458     70.17506      1.821     4.60    -2.055642     19.80861     51.76505        11     1.250     0.848 -50.69   0
       240    180.6894     91.2337 300.2354323 +22.4424958     2270.315     70.19295      1.619     2.98    -1.898857     19.80861      242.959        28     1.248     1.137  59.34   0
       241    748.7392     91.4159 300.4120678 +22.6127978     438.7003     70.17506      1.680     5.47    -2.183995     19.80861     34.22672        10     1.012     0.835 -62.14   0
       242    296.5298     83.1800 300.2740418 +22.4749174     687.7526     70.21083      1.598     3.97    -1.885512     19.80861     70.52471        15     1.145     0.899   9.67   0
       243    741.7396     83.2886 300.4125241 +22.6083654     619.8981     70.28233      2.010     5.05    -2.239686     19.80861     50.09581         9     1.280     0.746  -1.27   0
       244    779.9996     78.6570 300.4259426 +22.6184940     338.2559     70.13926      1.500     4.81    -2.076448     19.80861     33.78037         8     1.059     0.620  68.66   0
       245    799.5534     74.4800 300.4333883 +22.6231498      1279.62     70.22871      1.618     3.11    -2.001336     19.80861     144.8243        22     1.212     1.060   6.03   0
       246    183.1903     70.1896 300.2430344 +22.4372049     638.7171     70.10345      1.592     3.98    -1.747402     19.80861     59.34843        15     1.141     0.986 -88.61   0
       247    974.8893     67.7179 300.4902208 +22.6737085     375.2231     70.31805      1.326     4.20    -2.081319     19.80861     49.24155         7     1.013     0.641  -8.55   0
       248    748.1254     67.4248 300.4196582 +22.6057186     588.2708     70.22871      1.663     4.01    -2.258311     19.80861     51.66325        11     1.066     0.800 -63.91   0
       249    600.5701     52.3970 300.3785922 +22.5571977     505.4639     70.17506      1.727     5.87    -2.194597     19.80861     44.54617        10     1.160     0.835 -82.00   0
       250    763.6835     46.9001 300.4311603 +22.6044790     371.5034      70.3716      1.572     5.41    -2.247314     19.80861     42.98703         8     1.124     0.735   4.72   0
       251    572.2587     45.2238 300.3721074 +22.5466542     1059.756     70.21083      1.662     3.84    -2.142749     19.80861      97.9939        19     1.191     1.049 -31.90   0
       252    295.6108     42.6929 300.2868863 +22.4630164     313.7543     70.15717      1.506     4.55    -1.719988     19.80861     41.51902         6     1.081     0.545 -65.75   0
       253      9.9638     41.4216 300.1985664 +22.3769967     375.9605     70.22871      1.531     2.86    -1.352563     19.80861     46.31616         8     0.900     0.646 -75.25   0
       254    529.6044     38.7406 300.3609370 +22.5320111      855.621     70.17506      1.557     4.32    -2.119716     19.80861      69.4867        16     1.120     1.000 -61.52   0
       255    634.8384     35.8165 300.3946357 +22.5626996     844.8315     70.22871      1.615     3.67    -2.286278     19.80861     92.43099        17     1.122     1.027  82.67   0
       256    230.1435     34.4977 300.2691976 +22.4410365     278.9827     70.30019      1.352     5.47    -1.619208     19.80861     38.07667         9     1.026     0.824 -21.18   0
       257    455.3128     29.5821 300.3407951 +22.5071180     1218.823     70.15717      1.621     3.57    -2.221226     19.80861     132.9414        19     1.206     1.038   5.62   0
       258    102.6672     27.4316 300.2318877 +22.4007845     834.2596     70.21083      1.575     2.98    -1.351326     19.80861     112.8377        16     1.253     0.823 -80.08   0
