#   1 NUMBER                 Running object number                                     
#   2 X_IMAGE                Object position along x                                    [pixel]
#   3 Y_IMAGE                Object position along y                                    [pixel]
#   4 ALPHA_J2000            Right ascension of barycenter (J2000)                      [deg]
#   5 DELTA_J2000            Declination of barycenter (J2000)                          [deg]
#   6 FLUX_APER              Flux vector within fixed circular aperture(s)              [count]
#   7 FLUXERR_APER           RMS error vector for aperture flux(es)                     [count]
#   8 FLUX_RADIUS            Fraction-of-light radii                                    [pixel]
#   9 FWHM_IMAGE             FWHM assuming a gaussian core                              [pixel]
#  10 BACKGROUND             Background at centroid position                            [count]
#  11 THRESHOLD              Detection threshold above background                       [count]
#  12 FLUX_MAX               Peak flux above background                                 [count]
#  13 ISOAREA_IMAGE          Isophotal area above Analysis threshold                    [pixel**2]
#  14 A_IMAGE                Profile RMS along major axis                               [pixel]
#  15 B_IMAGE                Profile RMS along minor axis                               [pixel]
#  16 THETA_IMAGE            Position angle (CCW/x)                                     [deg]
#  17 FLAGS                  Extraction flags                                          
         1    567.5851     15.8922 300.3721654 +22.5466640       1092.2     69.95642      1.381     2.77    -2.184859     19.75697       126.49        15     0.965     0.911 -68.77   0
         2    290.8940     13.2235 300.2869465 +22.4629769     333.0596     69.95642      1.429     4.99    -2.441481     19.75697      30.9441         8     1.056     0.668  36.77   0
         3    525.0297      9.5615 300.3609721 +22.5320947     701.2076     70.04564      1.416     3.21    -2.284281     19.75697     97.02389        14     1.044     0.895 -74.76   0
         4    630.2403      6.4050 300.3947502 +22.5627081     699.9111     70.04564      1.335     2.89    -1.961476     19.75697      82.3022        14     0.983     0.863  24.11  16
         5    225.7255      5.0695 300.2693308 +22.4410990     328.4218     69.56249      1.344     4.59    -2.507322     19.75697     42.63316         5     0.966     0.620 -19.13  16
         6      5.1914     12.0818 300.1985374 +22.3769811     479.9886     69.67015      1.409     3.59    -2.650659     19.75697     50.00243        10     1.019     0.685 -72.51  16
         7    450.7364      1.2074 300.3405614 +22.5074329     519.1623     53.83185      0.931     2.34    -2.290138     19.75697     138.3265         6     0.858     0.402  -4.06  24
         8    390.1219    996.8483 299.9981266 +22.7749380     3913.992      70.0278      1.091     1.79    -5.163198     19.75697     805.9069        22     0.901     0.845  79.12   0
         9    238.7992   1010.1677 299.9467422 +22.7333008     1256.433     69.99212      8.051    14.07     1.737811     19.75697     49.04982        36     3.888     1.416  53.29  19
        10    242.0996   1020.9347 299.9442613 +22.7373770     3006.773     66.94553      8.277    27.31      2.16679     19.75697     78.92567       151     7.376     2.808  26.50  26
        11    233.5463   1023.0457 299.9409155 +22.7354120     1594.962     57.81472      6.927    13.32      3.37353     19.75697     55.66246        46     3.710     1.331   7.39  27
        12    132.7224   1015.2933 299.9121122 +22.7028974     1262.652     70.17035      7.962    10.95     12.62129     19.75697     41.92483        26     3.102     1.077  63.98  27
        13    137.5498   1015.2044 299.9136408 +22.7043226     1210.192     70.00996      8.664     8.24     12.61708     19.75697     37.66753        13     1.879     1.009 -13.73  19
        14     82.5247    979.9337 299.9080346 +22.6776858     2234.662     70.09911     18.438    35.25     4.000548     19.75697     57.74952       249     7.002     4.925 -39.16   3
        15     82.9256    968.0446 299.9120304 +22.6744010     1913.089     70.00996     12.054    26.74     2.206381     19.75697     53.68049       146     6.735     2.949 -25.85   3
        16     67.4931   1017.3521 299.8911810 +22.6838849      2746.53     70.04564      9.960    30.06     5.542119     19.75697     59.50246       234     5.453     4.600 -21.57  27
        17     88.5164   1014.3857 299.8986764 +22.6893534      3530.82     69.99212     23.503    58.82     10.53312     19.75697     70.61351       733    12.508     7.677 -25.76  27
        18     83.0805    998.9639 299.9020103 +22.6833031      3095.97     69.97427     18.678    27.08     6.841314     19.75697     61.46563       212     5.588     3.643 -53.42  19
        19    459.4687    998.8222 300.0190544 +22.7963291     519.7322     70.04564      0.974     1.97    -5.163383     19.75697     96.91141         6     0.704     0.499  89.65   0
        20    565.7056   1002.1599 300.0510256 +22.8291841     953.8182     70.04564      1.083     2.02    -6.078428     19.75697     205.7746        12     0.908     0.741 -36.92   0
        21     96.3624    985.0808 299.9106565 +22.6833181      1391.85     69.99212      7.868     6.02     6.896835     19.75697     75.98666        23     1.789     1.225  46.91   1
        22    863.8104    980.0111 300.1510846 +22.9123010     160.7144      69.9207      1.003     3.66     -5.04248     19.75697     33.14548         5     0.803     0.500  33.21   0
        23    936.1996    975.2680 300.1751936 +22.9326572     1150.392     69.97427      0.993     1.64    -5.374322     19.75697     281.3518        11     0.762     0.639  81.72   0
        24    725.0768    964.2839 300.1129821 +22.8661603     430.0439     70.13474      1.486     4.86    -5.177555     19.75697     54.50212         9     1.218     0.550  63.53   0
        25    248.0748   1005.8932 299.9510172 +22.7348628     326.1705     70.17035      1.073     2.89     0.444446     19.75697     80.44407         7     0.923     0.589 -72.49   0
        26    537.4458    959.1161 300.0562479 +22.8083592     266.3764     70.00996      1.197     3.72    -5.515585     19.75697     41.09211         6     0.805     0.495 -85.56   0
        27    759.9284    958.2330 300.1258086 +22.8748833     565.4581      70.0278      1.032     1.87    -5.121437     19.75697     121.2062         8     0.705     0.635  62.61   0
        28    782.2016    952.1300 300.1347348 +22.8798161     6722.238     69.95642      1.071     1.67    -5.098083     19.75697     1506.947        28     0.933     0.861  22.70   0
        29    828.0830    951.9902 300.1490760 +22.8935426     234.9436     69.97427      1.133     2.83    -5.105792     19.75697     65.28928         7     0.951     0.513  30.79   0
        30    973.2377    951.4356 300.1945027 +22.9369281     305.4973     70.09911      0.877     1.67    -5.372213     19.75697     68.26472         5     0.652     0.476 -17.96   0
        31     93.5209    944.1985 299.9230853 +22.6707545     386.3845     69.93856      1.607     3.98   -0.7493331     19.75697     51.01017         7     0.976     0.650  87.88   0
        32    487.9845    940.3646 300.0469623 +22.7881336      256.714      70.0278      1.233     3.41    -5.177525     19.75697     52.05836         5     0.831     0.405  21.05   0
        33     63.7992    937.7570 299.9159514 +22.6599787     159.1254      70.0278      1.241     3.76     -3.07208     19.75697     28.33839         5     0.944     0.430  45.95   0
        34    790.8268    934.1923 300.1432630 +22.8772583     659.1118      70.0278      1.007     1.67    -5.091354     19.75697     209.0918         9     0.822     0.600  48.85   0
        35     83.7141    935.4529 299.9228866 +22.6653027     198.7319     70.06347      1.051     2.83    -2.693727     19.75697     41.43406         5     0.720     0.440 -24.19   0
        36    828.9043    927.9864 300.1571481 +22.8869022     449.1202     69.95641      1.163     2.94    -5.144269     19.75697     106.9968         9     0.982     0.692  76.47   0
        37    937.3181    924.2844 300.1921446 +22.9183622     315.4688     70.15255      1.294     2.57    -5.276268     19.75697     48.84089         5     0.732     0.435  73.60   0
        38    877.4501    918.9631 300.1752152 +22.8988769     422.5679     70.04564      1.387     2.03    -5.220469     19.75697      62.3386         6     0.728     0.491  81.56   0
        39    728.5050    917.7357 300.1292068 +22.8538371      383.839     70.11693      1.000     2.15     -5.17944     19.75697     84.84383         8     0.740     0.674  47.96   0
        40    739.8641    915.0648 300.1336145 +22.8564795     241.5817     70.06347      0.990     1.90    -5.136753     19.75697     75.42707         6     0.799     0.441 -58.79   0
        41    441.2483    914.4714 300.0408523 +22.7666784     2295.512     70.00996      1.042     1.80     -5.13588     19.75697     398.6484        19     0.870     0.847  52.87   0
        42    219.3598    903.4792 299.9754387 +22.6968931      172.047     70.00996      1.064     2.84    -4.300656     19.75697     40.69285         5     0.701     0.485  13.74   0
        43    102.7900    903.3715 299.9392555 +22.6618442     246.3526      70.0278      1.228     3.40    -3.833536     19.75697     30.99168         5     0.742     0.452 -16.96   0
        44    484.4331    902.2747 300.0582584 +22.7761469     291.3086      70.0278      1.252     4.40    -5.120342     19.75697     34.21682         5     0.901     0.613 -41.79   0
        45     83.2809    902.3884 299.9335159 +22.6557012     114.9698     70.00996      0.925     3.44    -4.006063     19.75697     37.22739         5     0.726     0.471  13.05   0
        46    166.5690    900.2919 299.9600718 +22.6801223     460.1393     69.97427      1.056     3.42    -3.869933     19.75697     74.43433         8     1.020     0.543  15.50   0
        47    143.7234    897.5118 299.9538788 +22.6724628     1123.682     70.15255      1.327     2.10    -3.878503     19.75697     164.4277        16     0.995     0.926 -81.14   0
        48     75.0103    898.5326 299.9322023 +22.6521117     334.2543      70.0278      1.412     2.25    -4.125286     19.75697     57.58891         5     0.735     0.549  88.85   0
        49   1015.1993    885.9067 300.2289244 +22.9307045     1193.418     69.90283      0.971     1.59    -5.271587     19.75697     306.0134        10     0.712     0.627  86.71   0
        50    969.4763    884.4662 300.2151351 +22.9165792     1206.369     70.11693      0.974     1.87    -5.238034     19.75697     203.5007        13     0.796     0.688  44.28   0
        51    175.9544    879.0765 299.9698938 +22.6768628     274.1419     70.00996      0.977     1.86     -4.31379     19.75697     57.04298         5     0.600     0.544  86.86   0
        52    753.1310    878.3858 300.1496883 +22.8499377     299.3214     70.04564      1.023     1.98     -4.93891     19.75697     79.54613         5     0.706     0.421  25.57   0
        53    621.2421    872.5441 300.1105168 +22.8086859     2871.191     69.99212      1.063     1.91    -5.223274     19.75697     467.7581        19     0.886     0.831  86.77   0
        54    423.4329    869.7941 300.0498542 +22.7485211      300.897      70.0278      0.964     2.31    -5.074194     19.75697     64.74688         6     0.727     0.489  81.61   0
        55    171.3286    866.4667 299.9725608 +22.6718601     800.1807     70.06347      1.168     2.36     -4.53468     19.75697     120.8332        12     0.954     0.767  86.68   0
        56    641.9066    864.9781 300.1194134 +22.8127171     425.0388     69.95641      1.117     1.82    -5.204343     19.75697     110.7366         7     0.782     0.481  49.14   0
        57    190.6726    863.7784 299.9794465 +22.6769001      223.265     70.04564      0.988     2.67    -4.570129     19.75697     43.69121         6     0.707     0.617 -27.28   0
        58   1014.1844    852.3729 300.2395243 +22.9207737     773.0711     70.04564      1.043     1.80    -5.212343     19.75697     150.9891        10     0.801     0.648  81.62   0
        59    797.1924    852.1478 300.1719563 +22.8556283     2418.296     70.00996      1.063     1.73    -4.817251     19.75697     522.2333        15     0.825     0.769  31.85   0
        60    528.2145    849.1481 300.0891754 +22.7740555     87.19971     70.04564      0.850     3.97    -4.930711     19.75697     32.23568         5     0.759     0.675 -37.96   0
        61    205.7328    846.5042 299.9897486 +22.6764733     255.9608     70.15255      1.020     3.25    -4.586201     19.75697     56.29073         6     0.958     0.455 -55.91   0
        62    514.1659    844.8511 300.0862021 +22.7686065     356.2361     70.04564      1.068     1.95    -4.896593     19.75697     76.74981         8     0.737     0.643  42.42   0
        63    160.6929    842.9477 299.9769106 +22.6619261     621.5828     70.08129      1.181     2.29     -4.56179     19.75697     105.4849        11     0.851     0.730  27.96   0
        64    575.8303    838.2275 300.1075497 +22.7852146     294.1847      70.0278      1.136     2.30      -4.9022     19.75697     64.86752         8     0.850     0.597  86.08   0
        65    310.3524    835.0151 300.0260074 +22.7045984     31075.42     70.06347      1.145     2.00    -4.776552     19.75697     5138.964        61     1.094     1.023  82.34   0
        66    567.9277    834.0311 300.1064557 +22.7816393     956.4005      70.0278      1.258     1.98    -4.851103     19.75697      176.293        14     0.954     0.842 -49.14   0
        67    980.9201    832.7377 300.2355421 +22.9051623     577.2205     70.11693      1.156     1.58    -5.156143     19.75697     140.1922         9     0.810     0.593 -54.09   0
        68    238.8426    832.8489 300.0044828 +22.6825036     175.2385     70.06347      1.042     2.39    -4.624413     19.75697     49.24101         6     0.733     0.547  49.91   0
        69    597.0612    829.8800 300.1168754 +22.7891919     463.7705     70.08129      1.136     2.22    -4.877649     19.75697     97.36906        10     0.845     0.689  85.63   0
        70    608.2070    828.4485 300.1208111 +22.7921260     349.0706      70.0278      1.205     3.01    -4.883479     19.75697      59.4269         8     0.960     0.530  74.47   0
        71    751.1293    814.6601 300.1698068 +22.8310530     424.3389     70.06347      1.080     2.40    -4.645691     19.75697     74.17822         7     0.789     0.588  26.53   0
        72    360.0238    812.2161 300.0488719 +22.7129764     18243.88      70.0278      1.191     1.93    -4.738297     19.75697     3283.548        45     1.057     0.983  72.49   0
        73    374.2788    812.7090 300.0531447 +22.7173975     1156.354     70.17035      1.139     2.11    -4.714815     19.75697     184.6572        13     0.839     0.819 -87.57   0
        74    882.9794    807.7546 300.2131392 +22.8686199     1558.156     70.08129      1.041     1.48    -4.733287     19.75697     403.9873        13     0.866     0.704 -68.35   0
        75    370.9904    806.6920 300.0540800 +22.7146851     426.9174     69.97427      0.959     1.96    -4.681272     19.75697     70.24116         7     0.675     0.642 -18.21   0
        76    242.4213    804.2122 300.0149140 +22.6753705     433.0929     70.00996      1.032     2.05    -4.622629     19.75697     89.57928         8     0.786     0.596 -81.28   0
        77    640.8881    804.0629 300.1389221 +22.7949375     487.1572     70.11693      1.100     2.02    -4.646695     19.75697     104.5251         8     0.756     0.612  49.02   0
        78    477.3452    804.0189 300.0880334 +22.7458449     264.4215     70.00996      1.179     3.37    -4.546882     19.75697     45.75932         5     0.783     0.421  70.45   0
        79     47.2453    800.0786 299.9556207 +22.6155648     311.8486      70.0278      1.166     3.96    -4.539742     19.75697     45.06142         6     1.033     0.434 -62.56   0
        80    487.9165    798.7432 300.0930394 +22.7475049     406.9912     70.11693      1.153     2.38    -4.507136     19.75697     89.54367         9     0.817     0.700  75.24   0
        81    888.9709    795.4800 300.2190013 +22.8668936      185.119     70.04564      0.964     2.65    -4.695321     19.75697     56.56847         7     0.826     0.584 -73.28   0
        82     75.6888    793.5538 299.9665775 +22.6222396     305.2063     70.00996      0.998     2.43    -4.562593     19.75697     48.39651         5     0.690     0.455  22.64   0
        83    867.0092    790.1241 300.2138991 +22.8587699     208.4745     70.00996      1.176     2.14    -4.602618     19.75697     50.35783         5     0.621     0.547 -89.25   0
        84    239.8474    788.4235 300.0192514 +22.6700720     214.0654     70.04564      0.981     1.79    -4.629614     19.75697     64.66044         5     0.669     0.441 -26.23   0
        85    533.2269    776.8466 300.1142644 +22.7548235      375.817     70.06347      1.217     2.62    -4.402186     19.75697     67.18715         8     0.897     0.590  82.58   0
        86    554.9450    774.3166 300.1218470 +22.7606153     733.4099     70.08129      1.062     1.97    -4.425831     19.75697     143.1424         9     0.737     0.679  77.01   0
        87    949.2657    773.0710 300.2450901 +22.8785414     2653.019     70.06347      1.086     1.74    -4.879012     19.75697     558.3876        20     0.872     0.848   6.82   0
        88    937.7849    764.5139 300.2442951 +22.8726423     1007.537     69.97427      1.013     1.77    -4.800481     19.75697      181.154        10     0.755     0.648 -89.84   0
        89    301.0342    758.5864 300.0479796 +22.6798906     502.8425     70.00996      1.185     2.29    -4.655623     19.75697     93.74619         8     0.791     0.636  82.69   0
        90    969.0433    754.7141 300.2572299 +22.8792011     1096.773     70.00996      1.120     1.89    -4.932905     19.75697     194.4652        11     0.894     0.676  60.20   0
        91    763.9923    755.8351 300.1929560 +22.8180309     1417.594      70.0278      1.147     1.75    -4.479686     19.75697     304.6994        14     0.874     0.764  24.80   0
        92    149.8383    742.5966 300.0061899 +22.6299074     375.9057     70.06347      1.190     1.99    -4.591519     19.75697     79.31155         6     0.643     0.628 -71.65   0
        93    846.6964    741.3419 300.2234413 +22.8386757     279.2576     70.09911      1.160     3.23     -4.44913     19.75697     64.47066         6     0.872     0.548  63.04   0
        94    882.5760    732.8170 300.2373976 +22.8469880     86375.52      70.0278      1.086     1.84    -4.483649     19.75697     15543.05       104     1.147     1.078  81.76   0
        95    735.1201    733.1434 300.1913446 +22.8028585     321.6852     70.06347      1.144     2.30    -4.414221     19.75697     71.04823         7     0.787     0.544  54.21   0
        96    569.0217    721.7791 300.1433212 +22.7497681     1068.555      70.0278      1.255     2.41    -4.248393     19.75697     157.2495        13     0.873     0.813 -15.52   0
        97    750.1160    718.9811 300.2006232 +22.8032919     5455.416     69.95641      1.193     1.97    -4.343407     19.75697     989.7326        27     0.962     0.935 -72.09   0
        98    251.7839    714.4444 300.0470290 +22.6524488     2775.972     70.04564      1.198     2.11     -4.62576     19.75697     445.2627        21     1.059     0.878  50.56   0
        99    333.9001    712.5797 300.0731649 +22.6765660     670.3505     69.95642      1.202     2.33    -4.449347     19.75697     110.4214        11     0.950     0.718  66.54   0
       100    209.5975    710.3012 300.0352647 +22.6385948     341.6167      69.9207      1.336     3.94    -4.622171     19.75697     34.04305         6     0.857     0.519  50.13   0
       101    541.9433    707.9199 300.1394014 +22.7376672     453.2859     70.06347      1.194     2.55    -4.140194     19.75697     66.03742         8     0.792     0.658 -54.18   0
       102    533.6418    699.9583 300.1394075 +22.7328923     1918.005     70.13474      1.221     2.15    -4.079901     19.75697     305.0845        17     0.949     0.863 -73.60   0
       103    523.9451    693.6594 300.1384385 +22.7281757     803.4057     70.08129      1.274     2.26    -4.012923     19.75697     119.8793        10     0.826     0.723  40.71   0
       104    187.2240    690.0624 300.0348945 +22.6260752     365.0103     70.00996      1.216     2.64    -4.591916     19.75697     59.51024         7     0.706     0.666  11.67   0
       105    201.5696    688.4272 300.0398844 +22.6299137     354.3228      70.0278      1.078     2.62    -4.594737     19.75697     57.67994         7     0.884     0.483  81.51   0
       106    970.6605    684.7781 300.2804864 +22.8596045     383.2104     69.99212      1.062     3.42    -4.578756     19.75697     51.93062         6     0.837     0.574  54.98   0
       107    448.7558    683.5042 300.1183457 +22.7027000     992.4313     70.04564      1.183     2.07    -3.980407     19.75697     165.2761        15     0.978     0.828  79.78   0
       108    227.2850    684.9963 300.0489923 +22.6366508     476.8015     69.95642      1.763     2.16    -4.594853     19.75697     55.34721         7     0.708     0.632 -81.94   0
       109   1023.6748    680.3069 300.2984736 +22.8742120     438.5402     54.54642      1.041     2.67    -4.945243     19.75697     97.67169         7     0.974     0.468 -88.65  24
       110    102.7255    678.6635 300.0123486 +22.5974348     11644.33     70.06347      1.212     2.05    -4.256956     19.75697     1871.009        42     1.119     1.018  83.93   0
       111     23.1448    680.1428 299.9871512 +22.5739591     351.5872     70.08129      1.299     3.46    -4.128488     19.75697     51.02058         8     0.935     0.682 -14.26   0
       112    533.5536    678.7824 300.1462677 +22.7267907     645.1973     70.06347      1.319     2.63    -4.007944     19.75697     82.89727         9     0.828     0.698  23.31   0
       113    905.9424    674.3690 300.2636946 +22.8372134     225.1203     70.04564      1.364     4.36    -4.176202     19.75697      46.3924         5     1.121     0.482   0.60   0
       114    951.4716    664.6151 300.2810615 +22.8480620     563.1157      70.0278      0.994     1.91     -4.30867     19.75697     109.8281         8     0.844     0.498 -86.90   0
       115     48.6492    662.6467 300.0007613 +22.5766047     827.6068     70.06347      1.519     3.64    -4.115326     19.75697     95.57588        14     1.317     0.694 -85.72   0
       116    818.1978    662.9243 300.2400693 +22.8076187     308.2355     69.93856      1.158     2.63    -4.122346     19.75697     47.82832         6     0.849     0.463  57.41   0
       117    891.7550    657.2833 300.2648292 +22.8280541     406.1654     69.99212      1.161     2.46    -4.115057     19.75697     66.11994         6     0.720     0.544 -59.34   0
       118    454.0166    651.8589 300.1302743 +22.6952013     390.8402     69.99212      1.225     2.82    -3.830825     19.75697      75.2354         9     0.945     0.646 -27.47   0
       119    601.5360    650.1448 300.1767426 +22.7389694     411.3297     70.08129      1.368     3.33    -3.908924     19.75697     48.10935         8     0.864     0.676  33.10   0
       120    619.4371    648.1375 300.1829686 +22.7437633     348.9661     70.04564      1.351     4.48    -3.905057     19.75697     41.32236         9     0.931     0.807 -74.50   0
       121    497.9988    647.4860 300.1453814 +22.7071440     502.6009     69.93856      1.203     2.38    -3.733108     19.75697     74.56133         6     0.746     0.495   6.78   0
       122    463.5117    642.9792 300.1361161 +22.6955031      843.655     69.95642      1.183     2.38    -3.753411     19.75697     144.7587        14     0.900     0.834 -53.85   0
       123    931.5716    642.7437 300.2819704 +22.8358157      1888.52      70.0278      1.090     1.91    -4.100261     19.75697     309.9548        17     0.897     0.813   0.19   0
       124     25.4780    636.8041 300.0019688 +22.5622394     2971.133     69.93856      1.190     2.17    -4.091351     19.75697     419.8155        21     0.972     0.863  80.78   0
       125    970.8594    632.3668 300.2975949 +22.8446126      250.502     70.06347      1.386     2.62    -4.213454     19.75697     51.79758         5     0.728     0.648  68.70   0
       126    326.8169    629.8254 300.0978761 +22.6507083     5352.723     70.04564      1.279     2.25    -4.106164     19.75697     838.9048        28     1.068     0.971  65.29   0
       127    449.2583    626.8681 300.1369207 +22.6866044     5166.205     70.04564      1.280     2.33    -3.752487     19.75697     699.8689        28     1.086     0.968  77.19   0
       128    860.8159    620.4026 300.2671797 +22.8081885     1118.676     69.90283      1.219     2.27    -3.995125     19.75697      184.868        14     1.087     0.760  74.08   0
       129    945.4122    617.8925 300.2943674 +22.8328279     7182.746     69.97427      1.133     1.94    -4.047709     19.75697     1231.609        30     0.962     0.928  61.07   0
       130    509.8531    616.4075 300.1591765 +22.7017840     6726.801      70.0278      1.288     2.34    -3.666574     19.75697     904.7295        34     1.115     1.014  85.95   0
       131    679.2771    611.9893 300.2133569 +22.7513372     269.1414      70.0278      1.092     2.45    -3.773898     19.75697     47.61899         7     0.688     0.670  50.60   0
       132    237.4877    611.8479 300.0759504 +22.6187402     749.4976      70.0278      1.191     2.22    -4.184224     19.75697     124.3786         9     0.836     0.657 -63.75   0
       133    484.3103    609.1315 300.1535939 +22.6920330     243.9656     70.17035      1.414     4.49    -3.652884     19.75697      39.5228         6     0.875     0.656  60.01   0
       134    441.4805    604.6039 300.1417402 +22.6778835     2543.567     69.93856      1.295     2.38    -3.662671     19.75697     376.8116        23     1.036     0.977  72.43   0
       135    784.2057    604.3237 300.2485347 +22.7806024      438.836     69.93856      1.224     2.80    -3.896562     19.75697     62.73558         7     0.716     0.664  31.83   0
       136    419.8871    602.9379 300.1355644 +22.6709263     719.3915     70.11693      1.300     3.42     -3.68962     19.75697     116.2744        13     1.039     0.867 -32.96   0
       137    173.9082    602.3497 300.0592791 +22.5969307     424.4983     70.04564      1.144     2.09     -4.11709     19.75697     73.16993         7     0.751     0.576  24.38   0
       138    861.3033    599.7990 300.2740314 +22.8024185     943.2003      69.9207      1.300     2.69     -3.92663     19.75697     135.9908        14     0.999     0.837 -27.69   0
       139    558.1049    592.1071 300.1820951 +22.7092865     120264.6     70.18815      1.322     2.46    -3.406843     19.75697     14919.42       145     1.326     1.293 -72.80   0
       140    741.6625    596.9420 300.2376809 +22.7657265     517.2465     70.08129      1.333     2.48    -3.771161     19.75697     78.51063         9     0.890     0.636  38.83   0
       141    244.2903    592.1628 300.0844649 +22.6151372     1982.319     70.00996      1.280     2.23    -4.007658     19.75697      263.396        21     1.008     0.947  74.70   0
       142    810.0756    587.7067 300.2619985 +22.7835880      342.334     70.17035      1.185     3.29    -3.892991     19.75697     40.15112         7     0.713     0.696  19.61   0
       143    292.8185    575.1533 300.1050807 +22.6248243     331.7278     70.06347      1.703     4.07    -3.905857     19.75697     40.05509         6     0.921     0.574 -25.97   0
       144    448.8529    572.3229 300.1545291 +22.6708341     1605.555     70.06347      1.421     2.17     -3.44459     19.75697     213.2979        19     1.027     0.903  48.32   0
       145    845.6253    558.4520 300.2825882 +22.7858452     1037.236     70.04564      1.227     2.35    -3.769074     19.75697     127.6538        17     0.973     0.965 -42.78   0
       146    716.7612    556.1684 300.2431805 +22.7465542     1535.057     70.06347      1.307     2.42    -3.713134     19.75697      198.379        16     0.940     0.892 -32.69   0
       147     76.5708    557.0215 300.0437744 +22.5547121     154.6292      70.0278      1.230     3.95     -4.08447     19.75697     28.02386         5     0.913     0.490  85.01   0
       148    925.8270    552.6150 300.3094856 +22.8082092     129.1834     70.04564      1.349     4.36    -3.663647     19.75697     32.82071         5     1.141     0.474   6.10   0
       149    504.3125    551.9789 300.1783991 +22.6816347     387.1304     69.95642      1.256     2.99    -2.952497     19.75697     47.76512         9     0.864     0.693  29.25   0
       150    974.1142    550.0282 300.3253825 +22.8219382      629.366      70.0278      1.143     1.91    -3.648907     19.75697     140.6171        10     0.829     0.685  65.94   0
       151    959.6112    548.9449 300.3212123 +22.8172806     638.5208      70.0278      2.676     2.91    -3.640566     19.75697     53.41976         8     0.838     0.643  41.17   0
       152    845.8578    548.9811 300.2857396 +22.7831951     1315.651     69.99212      1.389     2.11    -3.734925     19.75697     185.7456        15     1.212     0.852  78.72   2
       153    599.6271    546.8140 300.2097455 +22.7087420     364.9354     70.04564      1.218     3.18     -2.83948     19.75697     36.81023         6     0.728     0.624 -37.72   0
       154    385.1667    546.2133 300.1432056 +22.6442350     288.0604     70.00996      1.485     4.59    -3.674822     19.75697     31.14302         7     1.061     0.565  70.31   0
       155    883.9488    543.5118 300.2993900 +22.7930424     2444.197     70.06347      1.232     2.25    -3.677516     19.75697     364.7108        20     1.013     0.858  75.65   0
       156    116.3294    534.1089 300.0635724 +22.5600791     655.0982     70.18815      1.303     2.59     -3.89563     19.75697     88.96987        11     0.974     0.683  67.56   0
       157    975.6402    534.0807 300.3310427 +22.8178145     498.6382     69.99212      1.308     2.56    -3.618603     19.75697     78.62776         7     0.855     0.609  42.19   0
       158    108.8132    524.4795 300.0643672 +22.5550618     257.4622     70.00996      1.545     2.14    -3.835773     19.75697     43.00718         5     0.706     0.469  18.97   0
       159    657.6610    514.2565 300.2383981 +22.7168001      464.833     70.09911      1.252     2.94    -3.232366     19.75697     56.64276         9     0.835     0.746   4.57   0
       160    718.4530    506.3947 300.2598867 +22.7327710     513.3614     70.00996      1.259     3.30    -3.436105     19.75697     55.03366         8     0.818     0.731  18.27   0
       161    972.0887    506.2978 300.3389662 +22.8087689     373.9212     70.20595      1.380     2.06    -3.632333     19.75697     69.48956         6     0.716     0.558 -81.79   0
       162    875.3645    502.5826 300.3100184 +22.7787140     621.5164      70.0278      1.251     2.28     -3.69874     19.75697     75.64379        10     0.794     0.755  -1.37   0
       163    859.7919    498.8213 300.3063871 +22.7729661     366.4421     70.00996      1.256     2.35    -3.693576     19.75697     52.98056         6     0.713     0.555  34.47   0
       164    840.2354    499.3598 300.3001170 +22.7672590     252.0835     70.08129      1.148     2.74    -3.653802     19.75697     35.40324         5     0.716     0.457  15.55   0
       165    604.0996    497.0060 300.2273274 +22.6957864       1796.7      69.9207      1.348     2.63    -2.921085     19.75697     210.7855        19     1.044     0.940  82.51   0
       166    964.4131    495.6813 300.3400234 +22.8034188     237.9715     70.00996      1.048     2.21     -3.64541     19.75697     53.08739         5     0.678     0.460 -69.29   0
       167    444.4308    483.7584 300.1819400 +22.6440948     100.9468     70.06347      1.069     3.49    -3.036243     19.75697     27.14584         5     0.777     0.452 -71.29   0
       168   1015.2963    475.7392 300.3623730 +22.8129360     776.0801     70.11693      1.104     2.51    -3.513685     19.75697     148.3416        12     0.924     0.803 -33.52   0
       169    973.9135    474.6196 300.3498311 +22.8002147     547.8471     69.95642      1.149     2.41    -3.596833     19.75697     87.80273         9     0.847     0.646  64.91   0
       170    887.1655    475.6545 300.3224488 +22.7745161     280.3469     70.04564      1.168     2.76    -3.703519     19.75697     46.23827         5     0.720     0.454 -14.81   0
       171    714.7710    470.6908 300.2703436 +22.7214153     635.4622     69.99212      1.414     3.21    -3.222517     19.75697     81.77667        12     1.036     0.800  71.16   0
       172    218.7431    469.2001 300.1164905 +22.5722038     379.0695     69.93856      1.247     3.95    -3.226299     19.75697     52.47866         8     0.982     0.699   4.44   0
       173    281.1184    465.0474 300.1372293 +22.5897300     2118.444     70.04564      1.330     2.66    -3.161786     19.75697     273.8254        20     0.993     0.970 -77.44   0
       174   1013.9469    463.0645 300.3660713 +22.8088898     2401.205     70.06347      1.184     2.05    -3.335315     19.75697     417.4926        17     0.894     0.858  11.66   0
       175    993.8789    454.1573 300.3627072 +22.8003178     959.3826     70.00996      1.168     2.08    -3.326351     19.75697     171.2046        10     0.795     0.707 -78.15   0
       176    369.0237    453.9205 300.1681794 +22.6129117     2816.202     69.99212      1.389     2.64    -3.125747     19.75697     332.3303        21     1.040     0.993  88.38   0
       177    613.1756    450.5489 300.2452504 +22.6851712     10625.63     70.04564      1.403     2.67    -2.973882     19.75697      1173.93        41     1.180     1.117  75.79   0
       178    228.2662    459.7994 300.1225050 +22.5723651     4405.231     70.00996      1.335     2.47    -3.196746     19.75697     581.5746        27     1.121     0.967  81.47   0
       179    629.8568    451.4288 300.2501584 +22.6904256     471.8214      70.0278      1.776     3.87    -2.997515     19.75697     37.74373         6     1.024     0.420 -15.40   2
       180    946.7775    432.6169 300.3550190 +22.7800159     412.4717     69.99212      1.365     3.37      -3.5373     19.75697     54.45076        11     1.042     0.719 -53.04   0
       181    167.9649    430.8626 300.1131662 +22.5459688     1246.056      70.0278      1.364     2.68    -3.408224     19.75697     169.6023        20     1.200     0.937 -39.77   0
       182    553.8085    420.0286 300.2366856 +22.6586075     3843.038      70.0278      1.457     2.88    -2.903451     19.75697     405.8867        29     1.168     1.082  49.27   0
       183    967.4593    420.1586 300.3655159 +22.7826331     608.2864      70.0278      1.070     2.35    -3.271883     19.75697     97.10361         9     0.780     0.708  67.97   0
       184    268.6312    419.4447 300.1481640 +22.5729004     319.4312     70.08129      1.270     2.55    -3.107335     19.75697     65.61022         6     0.820     0.496   2.76   0
       185    126.5264    412.9921 300.1060964 +22.5284071     309.0951     69.99212      1.534     4.76    -3.197923     19.75697      29.5805         7     0.908     0.708  24.59   0
       186    814.0862    412.1371 300.3203118 +22.7343690     153.6482     70.13474      1.196     4.35     -3.28137     19.75697     27.18793         6     1.147     0.470  27.97   0
       187    667.2943    410.0067 300.2752750 +22.6897565     505.1837      69.9207      2.154     5.65     -3.02489     19.75697     35.44075         9     1.134     0.793 -43.20   0
       188    757.9608    408.7645 300.3039198 +22.7165783     637.1302     70.09911      1.406     3.02    -3.103915     19.75697     79.88704        13     0.986     0.819  81.79   0
       189    460.4179    406.3037 300.2120810 +22.6266608     3607.843     69.93856      1.426     2.65    -2.979086     19.75697     433.4177        27     1.253     1.046 -87.99   0
       190    852.3640    400.4725 300.3360308 +22.7424896     818.6763     69.99212      1.358     2.78    -3.459189     19.75697     98.74504        11     0.953     0.718 -76.50   0
       191    949.5996    400.8643 300.3662157 +22.7717381     357.2169     70.00996      1.106     2.40    -3.413174     19.75697     67.18181         6     0.759     0.490 -89.03   0
       192    527.7599    392.8003 300.2374239 +22.6429798     341.5876     70.04564      1.475     3.68    -2.967978     19.75697     27.48325         5     1.176     0.331 -11.45   0
       193    824.9737    388.3609 300.3314292 +22.7308020     346.4225     70.04564      1.472     2.90    -3.224938     19.75697     50.88123         6     0.757     0.587  49.96   0
       194    348.0328    385.5766 300.1838551 +22.5870032     1316.153      70.0278      1.345     2.71    -2.939482     19.75697     177.9182        16     1.003     0.874  65.80   0
       195     66.5882    383.2513 300.0971377 +22.5018885     437.6751     70.04564      1.353     3.09    -2.977244     19.75697     79.12949        10     0.907     0.808 -35.23   0
       196    317.3310    375.0718 300.1777200 +22.5747790     16957.76     70.09911      1.381     2.59    -2.942847     19.75697      2049.89        49     1.206     1.152 -84.13   0
       197    852.1117    372.2170 300.3451314 +22.7342965     774.7618     69.95642      1.252     2.90    -3.224303     19.75697     100.2913        11     0.930     0.764 -76.25   0
       198     13.6871    363.1021 300.0872526 +22.4802322     2735.492     70.18815      1.332     2.30    -2.979671     19.75697     424.7147        25     1.133     0.949  79.83   0
       199    767.4424    361.1866 300.3223300 +22.7057543     238.1363     70.04564      1.104     4.20    -2.971853     19.75697     48.88005         6     0.718     0.700 -64.57   0
       200    191.8376    361.5907 300.1430873 +22.5332613     189.0965     70.04564      1.182     3.41    -3.101382     19.75697     30.65284         5     0.755     0.446  19.80   0
       201    415.9922    360.1894 300.2132393 +22.6001008     333.0688     69.90283      1.387     4.51    -3.065221     19.75697     41.05367         7     0.964     0.600  14.23   0
       202    727.6343    354.5944 300.3120697 +22.6919298     1158.381      70.0278      1.455     2.58    -2.923344     19.75697     140.8433        16     0.979     0.955 -30.37   0
       203    942.5132    347.0989 300.3814721 +22.7541654     287.6082     70.18815      1.283     3.64    -3.248597     19.75697     46.58039         8     0.849     0.667   2.86   0
       204    389.5513    339.5432 300.2117202 +22.5862448     1254.642     70.08129      1.604     2.83    -2.828445     19.75697     158.5529        16     1.092     0.885  50.72   0
       205    828.6281    332.1330 300.3508325 +22.7157435     382.5535     70.00996      1.460     4.03    -3.049744     19.75697     36.21272         7     0.843     0.639 -14.19   0
       206    465.4232    318.8654 300.2420395 +22.6030620     799.4287     70.00996      1.586     3.09    -3.015674     19.75697      83.4416        13     0.991     0.850  31.89   0
       207    976.6237    314.2184 300.4027879 +22.7549341     172.9816      70.0278      1.235     3.47    -3.180144     19.75697     28.34131         5     0.776     0.448 -73.02   0
       208    710.2087    310.5213 300.3209560 +22.6740477     1303.825     69.99212      1.402     2.79    -3.008663     19.75697     143.8939        16     1.005     0.911  89.43   0
       209    971.2858    304.6298 300.4042374 +22.7505793     1924.799      70.0278      1.223     2.33    -3.132452     19.75697     278.7525        17     0.975     0.836  53.80   0
       210    418.3079    294.9293 300.2351538 +22.5820623     297.0078     70.15255      1.327     3.52    -2.465537     19.75697     46.87909         8     0.984     0.654  57.07   0
       211     93.5701    288.7058 300.1362230 +22.4828668     886.3541     69.93856      1.581     3.48    -3.149158     19.75697     90.89151        16     1.165     0.887 -54.35   0
       212    124.2109    288.7449 300.1457295 +22.4920717     305.1444      70.0278      1.289     2.42    -3.179461     19.75697     52.41035         6     0.704     0.606  65.70   0
       213    987.1588    284.8536 300.4156097 +22.7496495     241.4404      70.0278      1.264     3.72    -3.058758     19.75697     37.60698         6     0.774     0.552 -43.06   0
       214    177.4199    280.7860 300.1648473 +22.5057520     374.5424     69.99212      1.613     4.34    -3.159684     19.75697     43.74713         7     1.034     0.757 -59.30   0
       215    853.2607    273.5989 300.3775186 +22.7063050     126.4227     69.99212      1.182     6.05    -3.039946     19.75697      24.8627         8     1.203     0.856  -4.22   0
       216    781.8264    271.9350 300.3557976 +22.6844242     358.5094     70.00996      1.266     3.46    -3.050052     19.75697      50.8556        10     0.972     0.702  23.35   0
       217    372.1758    271.5668 300.2283897 +22.5615218      345.717      70.0278      1.612     4.57    -2.359478     19.75697     30.31853         7     0.966     0.614 -83.73   0
       218    879.7195    260.8725 300.3898982 +22.7105744     1163.599     70.15255      1.225     2.37     -2.98662     19.75697      179.072        15     0.994     0.800  39.06   0
       219    298.6434    258.3804 300.2098039 +22.5356844     1153.092     70.04564      1.401     2.54     -2.57654     19.75697      167.897        16     1.039     0.891  87.25   0
       220    376.1729    253.4948 300.2355005 +22.5575325     564.3609     69.93856      1.454     3.99    -2.418918     19.75697     63.87056        12     1.225     0.672 -80.63   0
       221    778.2029    252.3168 300.3610385 +22.6777017     404.9494     69.95642      1.789     3.69    -3.010442     19.75697     35.56128         5     0.990     0.396 -85.51   0
       222    193.4958    245.7122 300.1812304 +22.5005103     520.1742     70.20595      1.525     3.66    -2.950289     19.75697     57.54908        10     1.048     0.713 -10.54   0
       223    730.9490    242.3894 300.3495397 +22.6606905    -43.21503     70.04564     -0.838     2.95    -2.947979     19.75697     100.9702        16     1.001     0.920  88.32   0
       224    795.5858    242.0219 300.3697973 +22.6799519     220.1735     70.00996      1.169     3.69    -3.011339     19.75697     40.05945         6     0.793     0.492 -88.86   0
       225   1002.3309    234.6278 300.4366497 +22.7397557     478.2638      70.0278      1.094     2.67    -3.082575     19.75697     83.90577         9     0.885     0.683  41.62   0
       226    735.1305    233.8908 300.3536014 +22.6595017     455.7116     70.17035      1.253     3.08    -2.930239     19.75697     47.15311         8     0.785     0.684  47.73   0
       227    655.5463    233.0252 300.3290944 +22.6354045     718.5579     70.04564      1.368     3.06    -2.954535     19.75697     93.39531        12     0.961     0.847  21.83   0
       228    850.7418    224.3338 300.3927288 +22.6913928     807.8377     70.06347      1.326     2.98    -2.888813     19.75697     120.3956        12     0.947     0.838  71.32   0
       229    581.5989    225.0779 300.3086496 +22.6109591     660.7191      69.9207      1.671     4.14    -3.033955     19.75697     59.24162        12     1.125     0.773  -5.55   0
       230    863.0958    223.6428 300.3968038 +22.6948950     430.4643     70.04564      1.334     3.36    -2.866077     19.75697     44.08213         9     0.882     0.696  60.93   0
       231   1023.4663    214.2141 300.4498692 +22.7402162     851.7134     55.52236      1.025     2.44    -3.021385     19.75697     149.5463        10     0.866     0.644 -86.06  24
       232    979.8609    213.9523 300.4363543 +22.7270827     655.4612     70.08129      1.285     2.38    -2.919766     19.75697     104.6952         8     0.782     0.649  45.06   0
       233      3.5286    211.1525 300.1334334 +22.4336015     339.7406     64.95688      1.402     2.47    -2.867475     19.75697     43.62436         5     0.716     0.453 -67.80  16
       234    213.8646    207.0874 300.2000992 +22.4955354     448.5774     70.11693      1.211     3.18    -2.723599     19.75697     61.07172        10     0.995     0.666  82.04   0
       235     75.6159    202.1725 300.1587372 +22.4526540     1282.188     70.04564      1.404     2.79    -2.852469     19.75697     157.6145        16     1.010     0.934  58.93   0
       236    898.3935    198.7002 300.4159039 +22.6982990     442.6612     69.93856      1.347     3.26    -2.704672     19.75697     64.35075        10     0.888     0.820  39.49   0
       237     25.2646    198.7682 300.1442031 +22.4365706      197.565      70.0278      1.276     4.52    -2.794606     19.75697     32.23126         8     0.948     0.625   8.51   0
       238    233.1272    195.4509 300.2098636 +22.4979729     3396.555      70.0278      1.410     2.74    -2.644256     19.75697      369.557        27     1.147     1.037  84.10   0
       239     17.3115    189.9799 300.1445855 +22.4316631     831.4633     69.97427      1.358     2.45    -2.724035     19.75697      110.997        10     0.886     0.679   9.17   0
       240    216.6206    186.2623 300.2077151 +22.4903850     366.5534     69.99212      1.346     2.86    -2.619634     19.75697     56.91778         8     0.937     0.564  20.21   0
       241    877.0611    176.5735 300.4164361 +22.6855495     2095.576      70.0278      1.354     2.49     -2.56597     19.75697      278.725        22     1.074     0.979  66.49   0
       242    980.6817    175.2791 300.4491639 +22.7162103     1585.719     70.15255      1.247     2.24    -2.560909     19.75697     204.6497        19     0.975     0.931   4.44   0
       243    426.8878    172.1409 300.2776845 +22.5493803     330.1207     70.09911      1.334     3.73    -2.565425     19.75697     43.74778         7     0.917     0.600  76.26   0
       244    351.7226    164.0887 300.2569169 +22.5245332     609.8622     70.17035      2.399     4.90    -2.392984     19.75697     42.09753         7     1.205     0.564 -24.24   0
       245    116.6146    161.2772 300.1847463 +22.4532185     348.0448     70.04564      1.252     3.60    -2.680802     19.75697     48.21514         6     0.996     0.375 -70.38   0
       246    477.9135    159.3210 300.2977214 +22.5609946     967.9616     70.17035      1.453     2.90    -2.553082     19.75697     106.5309        16     0.991     0.930 -46.44   0
       247    406.3874    159.8990 300.2752799 +22.5397192      314.186     69.93856      1.471     4.79    -2.514039     19.75697     32.82555         6     0.950     0.686 -11.59   0
       248    221.4353    154.8625 300.2194021 +22.4828164     214.9561     70.04564      1.269     3.75    -2.491363     19.75697     49.45624         6     1.020     0.437  75.29   0
       249    252.1259    139.4161 300.2339549 +22.4875860     3418.014      70.0278      1.396     2.67    -2.477547     19.75697     372.8229        27     1.185     1.014 -83.20   0
       250    103.5174    138.8404 300.1879580 +22.4428512      402.344     69.99212      1.206     2.80     -2.66787     19.75697     65.33084         7     0.919     0.467 -77.05   0
       251    498.0078    124.5477 300.3152591 +22.5570301     3581.615      70.0278      1.436     2.75    -2.517277     19.75697     427.9885        26     1.152     1.043  72.31   0
       252    383.8182    124.4688 300.2797568 +22.5227792     355.6948      70.0278      1.213     2.17    -2.473885     19.75697     55.96108         5     0.693     0.450 -24.23   0
       253    751.0146    113.9956 300.3974643 +22.6298080     556.8735     69.88496      1.555     3.27    -2.609275     19.75697     47.76782         9     0.799     0.757 -79.39   0
       254    191.1790    108.0592 300.2251850 +22.4603081      342.413     69.99212      1.369     4.41    -2.554056     19.75697     33.51643         6     1.031     0.537   8.60   0
       255    626.3370    104.5129 300.3617083 +22.5897308     3566.335     70.13474      1.413     2.64    -2.541253     19.75697      417.729        27     1.139     1.043  74.23   0
       256    401.3605    103.4254 300.2920415 +22.5219948     767.1944     70.06347      1.514     3.92    -2.469887     19.75697     83.42147        16     1.204     0.935  89.13   0
       257    667.5018    101.7372 300.3754281 +22.6012667     513.5327     70.11693      1.467     3.35    -2.596155     19.75697     57.50256        10     0.941     0.768  89.85   0
       258    683.5466     97.7659 300.3817138 +22.6049324     377.9237     70.04564      1.497     4.33    -2.598761     19.75697     43.20206         9     0.930     0.880 -61.48   0
       259    150.1012     96.1331 300.2162887 +22.4445659     371.4073     70.11693      1.386     2.89    -2.594045     19.75697     50.94514         6     0.768     0.660  11.11   0
       260    953.0878     94.9873 300.4666159 +22.6848621     200.1388     69.97427      0.923     2.36    -2.432517     19.75697     60.71728         7     0.845     0.492  35.48   0
       261    722.2442     93.0718 300.3952906 +22.6151762     244.4586     70.00996      1.308     3.66    -2.589478     19.75697     41.55423         6     0.889     0.524  54.53   0
       262    685.9116     88.4773 300.3854641 +22.6029717     551.1866     70.17035      1.639     5.54    -2.544407     19.75697     49.49276        11     1.349     0.641  54.26   0
       263    670.5835     89.3896 300.3803942 +22.5986418     1567.596     69.97427      1.462     2.87    -2.536289     19.75697     180.4396        20     1.079     1.007  34.45   0
       264    756.8290     80.9879 300.4099857 +22.6220629     839.0667      70.0278      1.384     2.82    -2.585051     19.75697     92.26469        12     0.989     0.735  10.43   0
       265    694.9595     74.5363 300.3928053 +22.6016758     445.1157     70.00996      1.477     3.83    -2.488986     19.75697      41.5521         8     0.810     0.709 -86.82   0
       266    500.6584     73.5593 300.3326275 +22.5431780     545.2488      70.0278      1.406     2.88    -2.439888     19.75697     82.20662        13     0.959     0.854  50.82   0
       267    404.5312     71.7215 300.3033137 +22.5138400     604.7461     70.13474      1.395     2.91    -2.409892     19.75697     83.73148        11     0.909     0.809  52.16   0
       268    786.1222     70.2251 300.4226048 +22.6277431     288.8509      70.0278      1.130     3.95    -2.575229     19.75697     34.19971         6     0.770     0.579  43.07   0
       269    175.9575     61.8587 300.2354427 +22.4424813     2131.913     70.00996      1.408     2.58    -2.564968     19.75697     301.8666        25     1.178     0.996  53.35   0
       270    743.7905     62.2986 300.4119869 +22.6127857     266.3673      69.9207      1.216     3.51    -2.582156     19.75697     46.96571         8     0.904     0.646 -20.97   0
       271    737.1887     54.2956 300.4125264 +22.6085080     470.3848     69.93856      1.337     3.68    -2.580206     19.75697     58.54104        11     1.023     0.781  65.12   0
       272    292.0730     53.9090 300.2741166 +22.4750136     571.9896     70.18815      1.300     3.55    -2.458452     19.75697     104.1269        13     1.215     0.694 -83.20   0
       273    774.4789     49.0289 300.4258532 +22.6181630     486.8496      70.0278      1.733     5.11    -2.574453     19.75697     36.78113        10     0.994     0.879 -72.55   0
       274    698.3867     48.3807 300.4023581 +22.5951853      244.489     69.99212      1.249     4.13    -2.371588     19.75697     32.49621         6     0.869     0.561 -43.46   0
       275    794.8509     45.3407 300.4333975 +22.6232040     1315.051     70.08129      1.385     2.65    -2.572182     19.75697     159.3845        19     1.113     0.927  71.20   0
       276    178.5573     40.8900 300.2430524 +22.4372412     547.5859     70.04564      1.364     3.34    -2.561502     19.75697     65.89851         8     0.912     0.598  73.79   0
       277    969.7494     38.6739 300.4900815 +22.6736569     546.3045     70.04564      1.465     2.93    -2.687005     19.75697     65.56496         8     0.926     0.632  55.59   0
       278    743.1309     37.5599 300.4198067 +22.6054773      529.423     69.99212      1.347     3.90    -2.573558     19.75697     69.71397        12     1.117     0.768  81.60   0
       279    595.7394     22.6620 300.3787348 +22.5570443     438.1942     70.06347      1.464     3.27    -2.116122     19.75697     67.56828         9     0.948     0.839  69.89   0
       280    758.8911     17.6390 300.4311785 +22.6044712       359.76     70.00996      1.170     2.50    -2.567754     19.75697     52.96819         6     0.798     0.546 -83.28   0
       281    208.1497   1020.6133 299.9338151 +22.7270850     665.7802     67.92721      3.749     4.92     6.860117     19.75697     29.06168         5     1.083     0.632 -62.80  16
       282    151.9915   1014.9953 299.9181955 +22.7086022     1477.364     69.88496      8.095    12.62      12.6053     19.75697     50.99606        30     2.531     1.756  52.67  26
       283     66.5124    989.7709 299.8998583 +22.6756914     1839.723      70.0278     12.498    28.68     2.640821     19.75697     56.41068       145     6.030     3.787  86.23  19
       284    199.7515   1022.4136 299.9306190 +22.7250774     529.1801     60.96938      2.824     4.53     8.153153     19.75697     27.00496         5     1.151     0.508  60.04  24
       285     53.4949   1013.5875 299.8880599 +22.6785999     1055.766     69.95642      7.971     9.37     1.838516     19.75697     49.10011        14     1.918     1.278 -42.80  17
       286    657.1369   1011.4940 300.0764490 +22.8593080     4125.771     70.11693      1.139     1.93    -5.554703     19.75697     683.6325        24     0.973     0.873  57.91   0
