#   1 NUMBER                 Running object number                                     
#   2 X_IMAGE                Object position along x                                    [pixel]
#   3 Y_IMAGE                Object position along y                                    [pixel]
#   4 ALPHA_J2000            Right ascension of barycenter (J2000)                      [deg]
#   5 DELTA_J2000            Declination of barycenter (J2000)                          [deg]
#   6 FLUX_APER              Flux vector within fixed circular aperture(s)              [count]
#   7 FLUXERR_APER           RMS error vector for aperture flux(es)                     [count]
#   8 FLUX_RADIUS            Fraction-of-light radii                                    [pixel]
#   9 FWHM_IMAGE             FWHM assuming a gaussian core                              [pixel]
#  10 BACKGROUND             Background at centroid position                            [count]
#  11 THRESHOLD              Detection threshold above background                       [count]
#  12 FLUX_MAX               Peak flux above background                                 [count]
#  13 ISOAREA_IMAGE          Isophotal area above Analysis threshold                    [pixel**2]
#  14 A_IMAGE                Profile RMS along major axis                               [pixel]
#  15 B_IMAGE                Profile RMS along minor axis                               [pixel]
#  16 THETA_IMAGE            Position angle (CCW/x)                                     [deg]
#  17 FLAGS                  Extraction flags                                          
         1    582.4220     13.4770 300.3955368 +22.5288760     784.4276     70.28426      1.981     4.51    -1.644243     19.83438     56.37727        14     1.258     0.946 -51.57   0
         2    371.3824      4.8274 300.3326790 +22.4631275      4849.88      69.3103      2.073     4.39    -1.353252     19.83438     313.1877        45     1.586     1.519 -83.10  24
         3    982.8535   1016.2380 300.1942608 +22.9370316     326.1463     70.30216      1.287     2.96    -4.886738     19.83438     60.13924         5     0.929     0.351  87.29   0
         4    770.0286   1022.8019 300.1257993 +22.8750347     615.3649     59.26464      1.270     2.66     -4.14284     19.83438     86.48438        11     0.884     0.778 -60.86  24
         5    115.6910   1023.8186 299.9219452 +22.6787486     355.9445     53.83271      2.705     3.69   -0.4054163     19.83438     27.88847         5     1.208     0.325 -10.26  25
         6    837.7518   1016.2701 300.1490254 +22.8934910     401.4702     70.28426      1.361     2.43    -4.775314     19.83438     47.33104         6     0.702     0.599  58.88   0
         7    103.4735   1008.4663 299.9231519 +22.6706770     399.5079     70.33797      1.062     3.58   -0.9673467     19.83438     52.18641         6     0.959     0.454 -55.55   0
         8    800.7124    998.8304 300.1431675 +22.8773677     857.8384     70.28426      1.344     2.92    -4.175522     19.83438     113.0665        15     1.059     0.821 -80.51   0
         9    983.7888    997.5703 300.2006345 +22.9319533     284.6608     70.30217      1.229     2.98    -4.775568     19.83438     43.36634         6     0.889     0.658 -83.66   0
        10    838.9444    992.1932 300.1572412 +22.8869393     471.9989     70.28426      1.370     3.99    -4.613291     19.83438     58.10531        10     0.931     0.844 -80.09   0
        11    887.1264    982.9039 300.1752816 +22.8987347     354.0067      70.4274      1.492     3.49    -4.820997     19.83438     39.69664         8     0.842     0.653  56.28   0
        12    738.4944    982.4583 300.1291210 +22.8539916     445.1675     70.37376      1.560     3.68    -4.122647     19.83438     53.58892         9     1.042     0.833 -82.79   0
        13    451.2731    979.0049 300.0408489 +22.7667471     2245.584     70.24843      1.409     2.82    -4.344985     19.83438     227.5964        25     1.161     1.026 -74.92   0
        14    749.6996    979.3376 300.1336275 +22.8564601     418.5934     70.37376      1.470     4.39    -4.131398     19.83438     40.80035         9     1.122     0.655 -84.75   0
        15    153.7505    961.8195 299.9539621 +22.6724228     879.6998     70.30217      1.347     2.52    -2.489697     19.83438      133.996        14     0.946     0.835 -70.19   0
        16     28.1089    951.6156 299.9182662 +22.6317323     138.4148      70.2305      1.138     4.26    -4.365963     19.83438     42.15084         5     1.366     0.379  13.42   0
        17    979.3369    948.9376 300.2150892 +22.9166553     1170.505     70.33797      1.338     2.58    -4.490455     19.83438     143.9841        14     0.939     0.855  52.32   0
        18    762.6968    942.9305 300.1495347 +22.8499143     370.4066      70.4274      1.446     4.29    -4.144143     19.83438     50.00856         6     0.924     0.568 -22.96   0
        19    631.1029    936.9671 300.1104999 +22.8086965     2691.049     70.28426      1.514     3.08    -4.057927     19.83438     258.4179        26     1.223     1.074 -33.71   0
        20    181.6486    931.1512 299.9726168 +22.6720176     570.0333     70.33797      1.383     3.06    -3.426849     19.83438     82.37432        13     1.032     0.835 -87.37   0
        21    651.5817    929.4637 300.1193190 +22.8126924     481.2942     70.26634      1.649     4.11    -4.084671     19.83438     47.90236         9     1.029     0.740 -46.80   0
        22    200.5473    928.7380 299.9792744 +22.6770053     317.7112     70.35587      1.385     4.23    -3.588113     19.83438     36.30325         5     1.517     0.337 -63.41   0
        23   1023.5515    916.4182 300.2394675 +22.9205834     437.0622     55.33187      1.081     3.79    -4.303481     19.83438     83.69683         9     1.144     0.546  76.26  24
        24    807.0828    916.5117 300.1719658 +22.8556549     2303.685     70.40952      1.435     2.80     -4.09843     19.83438     242.1546        24     1.185     0.987 -25.65   0
        25    216.2089    911.3080 299.9898167 +22.6767153     217.0083      70.2305      1.202     2.91    -3.845815     19.83438      39.7268         5     0.739     0.440  13.73   0
        26    524.1660    909.1108 300.0862900 +22.7685942     342.3245     70.26634      1.392     4.15    -3.996295     19.83438     43.07845         8     0.856     0.740 -22.01   0
        27    170.9167    907.5283 299.9769750 +22.6620216     584.5583      70.4274      1.397     3.68    -3.697737     19.83438     69.51837        13     1.069     0.838 -12.01   0
        28    320.2866    899.4763 300.0260174 +22.7045937     30400.46      70.4274      1.608     3.08    -4.181028     19.83438      2691.36        73     1.384     1.349  70.24   0
        29    578.2506    898.3929 300.1066110 +22.7817603     895.0416     70.30217      1.668     3.82    -3.998215     19.83438      72.2931        19     1.242     1.017  11.21   0
        30    990.9905    897.5085 300.2354728 +22.9053849     401.0757      70.2305      1.073     2.27    -4.209916     19.83438     75.11794         9     0.839     0.648  69.49   0
        31    248.8453    896.9175 300.0046445 +22.6823963     326.5264     70.26634      1.670     3.93    -4.072867     19.83438     29.74163         6     0.772     0.572  50.78   0
        32    607.3155    894.4669 300.1169359 +22.7893607     462.4238     70.40952      1.497     3.32    -4.015395     19.83438     51.23931         9     0.935     0.856 -54.28   0
        33      6.7072    894.3900 299.9302560 +22.6089021     538.1857     70.24843      1.832     3.96     -4.29847     19.83438     51.46156         9     1.015     0.746  14.29  16
        34    617.6198    892.4484 300.1208007 +22.7918753     327.9762     70.32007      1.315     5.24    -4.020901     19.83438     37.15508         8     1.057     0.733 -41.82   0
        35    369.9130    876.6839 300.0488682 +22.7129655     17738.13     70.40952      1.619     3.12    -4.139109     19.83438     1458.447        61     1.384     1.334  61.26   0
        36    762.0000    879.1221 300.1700978 +22.8313922     372.2191      70.1767      1.404     2.94    -4.075376     19.83438     44.90419         5     0.837     0.457  64.30   2
        37    759.6685    879.2841 300.1693189 +22.8307389     371.3677     70.40952      2.523     3.53    -4.077355     19.83438     36.78921         5     0.792     0.569  48.09   2
        38    384.2902    877.2982 300.0531389 +22.7174602     1129.749     70.48101      1.552     3.20    -4.121917     19.83438     124.9953        17     1.142     0.966  49.49   0
        39    892.8847    872.2971 300.2131003 +22.8687111     1591.458     70.46314      1.434     2.82    -4.043626     19.83438     169.7902        19     1.098     0.946  40.57   0
        40    381.5034    871.0049 300.0543213 +22.7148183     328.4046     70.21258      1.442     3.97    -4.122898     19.83438     34.84321         5     0.903     0.499 -88.26   0
        41    650.9786    868.6545 300.1389332 +22.7950628     458.5721     70.32007      1.593     4.05     -4.01154     19.83438     53.78205        11     1.036     0.931  29.41   0
        42    487.4009    867.6885 300.0883390 +22.7456715      242.676     70.21258      1.906     4.86    -4.043974     19.83438     29.18513         5     1.110     0.602 -56.60   0
        43    252.6447    867.9069 300.0152709 +22.6752205     537.7477     70.32007      2.040     4.39    -4.228353     19.83438     46.32598         7     0.900     0.792  36.08   0
        44     56.1779    864.6221 299.9553074 +22.6152414       337.77     70.30216      1.810     5.35    -4.280614     19.83438     38.66188         6     1.112     0.727   8.30   0
        45    497.8605    863.1548 300.0930693 +22.7475119     455.7558     70.32007      1.624     4.96    -4.020125     19.83438     43.43366         9     0.997     0.699  20.22   0
        46    898.9214    859.8613 300.2190310 +22.8669520     224.6874     70.37376      1.334     3.91    -3.991375     19.83438     29.21783         6     0.943     0.464 -37.62   0
        47     85.4092    858.2023 299.9664747 +22.6221868     419.2872     70.12287      1.907     5.66    -4.262764     19.83438     33.25571         9     1.159     0.779  78.04   0
        48    249.6959    852.6970 300.0193062 +22.6699737     202.7701     70.48101      1.129     4.93    -4.205294     19.83438     31.27958         6     0.945     0.730 -19.39   0
        49    564.7934    838.6582 300.1218721 +22.7605813     735.5919     70.26634      1.652     4.27    -3.837907     19.83438     64.30896        15     1.230     0.851  71.57   0
        50    959.2018    837.4219 300.2451272 +22.8785938     2613.227     70.24843      1.460     2.86    -3.811415     19.83438     238.3217        26     1.120     1.088 -77.71   0
        51    947.7807    828.7412 300.2443929 +22.8726747     909.3121     70.26634      1.528     3.40    -3.776909     19.83438     108.9086        18     1.198     0.973 -65.97   0
        52    311.0618    823.4718 300.0478942 +22.6800280     535.8022     70.33797      1.810     4.42     -3.81187     19.83438     53.01481        10     1.165     0.848  13.58   0
        53    773.8560    820.3001 300.1929422 +22.8180659     1451.212     70.39164      1.653     3.52    -3.904418     19.83438     113.9598        21     1.184     1.094 -46.67   0
        54    978.7785    819.0309 300.2572180 +22.8791848     942.2503     70.30217      1.428     3.56    -3.602534     19.83438     99.47202        17     1.111     1.013 -53.16   0
        55    856.4720    806.1108 300.2233011 +22.8387824      462.297     70.46314      1.772     5.22    -3.707174     19.83438     40.31972         8     1.320     0.656 -86.88   0
        56    892.3889    797.1496 300.2374114 +22.8469851      83380.7     70.33797      1.602     3.17    -3.670754     19.83438     6702.884       120     1.459     1.428  79.96   0
        57    744.5521    797.4436 300.1912549 +22.8027106      461.364     70.32007      1.704     4.91    -3.999853     19.83438     37.37993         9     1.055     0.741  20.95   0
        58    625.3831    795.0886 300.1549142 +22.7662679     936.5101      70.2305      0.633     0.62    -3.767391     19.83438     534.2457         5     0.493     0.368  14.29   0
        59    579.0639    786.3528 300.1433398 +22.7498567     1093.797     70.32007      2.009     4.41    -3.592371     19.83438     68.51035        18     1.241     0.989 -79.78   0
        60    759.8649    783.3482 300.2006125 +22.8032594     5441.424     70.33797      1.712     3.61    -3.836036     19.83438     365.3488        39     1.357     1.282 -84.64   0
        61    261.6937    778.8105 300.0470852 +22.6523912     2650.146     70.24843      1.691     3.66    -3.814345     19.83438     218.7481        29     1.321     1.191  65.55   0
        62    343.9775    777.0682 300.0732312 +22.6766057     471.6058     70.32007      1.415     5.45    -3.672393     19.83438     48.30727        13     1.269     0.767  54.81   0
        63    219.1770    774.3152 300.0353349 +22.6383306     264.2003     70.26634      1.685     4.46    -4.021576     19.83438     32.37544         5     0.792     0.715 -24.73   0
        64    543.4820    764.4136 300.1394067 +22.7328793     1943.118     70.28426      1.804     4.03    -3.327424     19.83438     129.5523        30     1.337     1.298  81.01   0
        65    533.8392    758.0964 300.1384619 +22.7281718     931.8206     70.28426      1.829     4.98    -3.299126     19.83438     68.37953        18     1.175     1.154  62.24   0
        66    927.1753    755.2817 300.2618816 +22.8453968     317.9823     70.28426      1.586     5.06     -3.45857     19.83438     31.53537         6     1.087     0.665 -87.21   0
        67    211.3046    753.1714 300.0397694 +22.6299026     408.0031      70.2305      1.509     4.51    -3.793507     19.83438     43.87659         8     0.950     0.727  11.08   0
        68    458.4898    747.9423 300.1183230 +22.7026366      905.082     70.37376      1.768     4.34    -3.411148     19.83438     70.43648        18     1.280     1.013  45.23   0
        69    112.6687    743.2081 300.0123681 +22.5974139     11408.88     70.28426      1.681     3.30    -3.551929     19.83438     997.8942        57     1.450     1.350  63.56   0
        70    543.3064    742.9775 300.1463281 +22.7266751     516.3153     70.21258      1.747     7.88     -3.20496     19.83438     38.66129        16     1.534     1.133 -83.62   0
        71     33.3637    744.6182 299.9872810 +22.5739896      386.676     70.30217      1.533     3.46    -3.857182     19.83438      43.3839         6     0.925     0.666 -70.34   0
        72    578.5074    742.1912 300.1575392 +22.7370160     308.3151      70.2305      1.858     3.75     -3.34286     19.83438     27.82043         5     1.059     0.381  -5.73   0
        73    961.0338    728.9135 300.2810181 +22.8479788      668.195     70.26634      1.780     4.35    -3.320588     19.83438      48.0138        10     0.929     0.762 -84.06   0
        74     58.6493    726.9662 300.0008762 +22.5765271     962.3436     70.33797      2.095     6.84    -3.645741     19.83438     64.14152        22     1.593     1.322  86.47   0
        75    901.1140    722.0151 300.2645845 +22.8280251     448.2318     70.24843      1.810     4.58    -3.495135     19.83438     46.47435         9     1.217     0.592  28.56   0
        76    659.6404    712.8416 300.1923462 +22.7529423     294.4547     70.39164      1.883     4.68    -3.428098     19.83438     27.31374         5     0.854     0.729 -22.51   0
        77    508.3390    712.0502 300.1455110 +22.7073030     533.4604     70.35587      1.627     3.11    -3.072003     19.83438     45.64381         7     0.841     0.580 -63.70   0
        78    473.3684    707.4383 300.1361314 +22.6954815      947.206     70.30217      1.917     5.31    -3.090175     19.83438     67.41891        22     1.436     1.216  78.10   0
        79    941.2368    707.0295 300.2819677 +22.8357551     1817.478     70.32007      1.609     3.61    -3.315204     19.83438     130.1649        25     1.306     1.074  53.86   0
        80     35.3852    701.4472 300.0019548 +22.5622212     2803.581     70.32007      1.693     3.43    -3.622885     19.83438     255.3625        29     1.311     1.167  77.44   0
        81    336.6949    694.3362 300.0978877 +22.6506868     5134.381     70.39164      1.843     3.90    -3.326416     19.83438     326.0823        42     1.443     1.374  85.04   0
        82    459.1068    691.3437 300.1369313 +22.6865816     5067.795     70.35587      1.881     4.12      -3.0646     19.83438     327.7822        39     1.468     1.353  84.43   0
        83    870.5618    684.7891 300.2671755 +22.8081689     1011.276     70.30217      1.732     4.50    -3.642608     19.83438     72.49979        18     1.144     1.079 -30.99   0
        84    955.1544    682.2178 300.2943796 +22.8328017     7192.562     70.33797      1.641     3.42    -3.243981     19.83438      547.964        39     1.304     1.253 -38.87   0
        85    519.6934    680.9057 300.1591771 +22.7017733     6427.762     70.46314      1.929     4.22    -2.953562     19.83438     381.3226        47     1.525     1.452  46.52   0
        86    247.5830    676.7346 300.0759132 +22.6188773     686.1332     70.28426      1.638     3.86    -3.537109     19.83438     65.49686        13     1.085     0.862  -1.35   0
        87    451.3992    669.2009 300.1417373 +22.6779136     2441.229     70.08695      1.873     4.38    -2.974014     19.83438      159.969        29     1.345     1.305   7.10   0
        88    794.1982    668.7103 300.2486125 +22.7806443      405.601     70.21258      1.654     3.51    -3.511019     19.83438     50.52898         9     0.940     0.676  63.52   0
        89    429.6833    667.6658 300.1354818 +22.6709539     721.5638     70.40952      1.970     6.61    -3.012804     19.83438     41.54581        13     1.173     1.044  51.09   0
        90    871.1981    664.2110 300.2740689 +22.8024492     1000.288     70.12287      1.947     5.45    -3.569828     19.83438     55.92833        19     1.317     1.118 -41.16   0
        91    751.2626    661.5134 300.2375790 +22.7656969     498.0137     70.40952      1.804     6.61    -3.467516     19.83438     34.41568        13     1.170     1.049  -5.25   0
        92    567.8917    656.5244 300.1821081 +22.7092415     115793.3     70.44527      1.958     4.32    -2.929878     19.83438       7326.8       163     1.719     1.696  -8.88   0
        93    254.1672    656.8914 300.0844146 +22.6151627     1997.985     70.24843      1.775     3.64    -3.454788     19.83438     186.5594        33     1.433     1.327 -53.14   0
        94    458.5302    637.0584 300.1544114 +22.6708300     1408.449     70.32007      1.990     5.29    -3.000341     19.83438     86.60748        27     1.479     1.344 -74.13   0
        95    855.4249    622.6929 300.2826594 +22.7857927     948.9336     70.24843      1.860     4.89    -3.256646     19.83438     61.14081        20     1.316     1.158 -37.73   0
        96    726.6476    620.5332 300.2432429 +22.7465442     1379.486     70.30217      1.942     4.66    -3.186188     19.83438     92.08195        26     1.392     1.260 -87.63   0
        97    514.3226    617.2078 300.1782264 +22.6818786     370.2039     70.26634      2.027     4.35    -2.973809     19.83438     32.71312         5     0.746     0.723  54.77   0
        98    983.8535    614.5018 300.3253567 +22.8219525     837.0338     70.39164      1.896     4.78    -3.115959     19.83438      53.6093        16     1.170     0.971  12.26   0
        99    969.9216    613.3904 300.3213744 +22.8174559      531.363     70.26634      2.113     6.87    -3.123888     19.83438     34.10037        12     1.389     0.953  40.37   0
       100    855.5444    612.9626 300.2858617 +22.7830335     1426.416     70.30217      2.243     7.03    -3.176935     19.83438     71.30882        26     1.475     1.292  62.99   0
       101    893.7460    608.0474 300.2993660 +22.7930782     2327.728     70.33797      1.798     4.06    -3.138374     19.83438     148.6751        31     1.373     1.252 -81.17   0
       102    985.3695    598.6585 300.3309826 +22.8178547     497.1263     70.32007      1.981     4.68    -3.113066     19.83438     34.85849         8     1.043     0.982  73.86   0
       103    126.3841    598.8010 300.0636034 +22.5601242     511.6292     70.15877      1.722     4.48    -3.143382     19.83438     52.39742        10     1.285     0.990  10.92   0
       104    667.1210    577.9831 300.2385444 +22.7164670     491.4473     70.30216      1.932     6.27     -2.77055     19.83438     34.55945         9     1.401     1.013 -28.99   0
       105    729.0613    570.1618 300.2603770 +22.7328022     475.4406     70.32007      1.331     3.64    -2.829095     19.83438     38.56915         5     0.974     0.392  60.48   0
       106    885.1659    567.2218 300.3099695 +22.7787762     540.3339     70.32007      1.585     4.05    -3.125396     19.83438     49.07127        10     0.968     0.924 -13.41   0
       107    613.8820    561.6722 300.2272734 +22.6958105     1964.789      70.4274      2.035     4.82    -2.727716     19.83438     101.9856        36     1.590     1.448 -84.71   0
       108    869.2074    563.4825 300.3062120 +22.7729164     440.2346      70.2305      2.128     6.13    -3.121436     19.83438     28.13047         9     1.191     0.887  25.54   0
       109    983.1201    539.0234 300.3496751 +22.8000432     617.7792     70.26634      1.826     5.97    -3.047079     19.83438     46.30328        12     1.078     0.929  83.26   0
       110    724.6961    535.3203 300.2703470 +22.7214858     444.5449     70.40952      1.727     5.24    -2.625154     19.83438     39.72589         9     1.168     0.664 -39.00   0
       111    290.9440    529.7137 300.1372044 +22.5897173     1997.372     70.37376      1.910     4.17    -2.896847     19.83438     159.2406        30     1.456     1.276 -74.30   0
       112   1023.1083    527.5104 300.3658883 +22.8087218     1697.715     57.88921      1.453     4.02    -2.918132     19.83438     186.6439        18     1.293     0.838 -87.33  24
       113    238.1145    524.3794 300.1225178 +22.5723263     4189.765      70.2305      1.964     4.18    -2.900448     19.83438     288.2318        41     1.501     1.400  79.19   0
       114    378.8799    518.5497 300.1681753 +22.6129095     2615.039     70.30217      2.048     4.46    -2.572899     19.83438     175.8007        35     1.588     1.321  70.24   0
       115   1003.7896    518.4590 300.3628069 +22.8003292     1047.547     70.24843      1.809     4.74    -2.814048     19.83438     69.71849        18     1.162     1.070  28.27   0
       116    622.9360    514.9819 300.2452732 +22.6851194     10458.28     70.28426      2.098     4.64    -2.613396     19.83438     556.3483        64     1.674     1.627   6.63   0
       117    956.8350    497.8948 300.3548524 +22.7803433     432.3098     70.30217      2.361     6.15    -2.601267     19.83438     34.07434        10     1.374     0.774 -71.98   0
       118    177.7236    495.5910 300.1131099 +22.5459346     1056.599     70.26634      1.730     4.10    -2.722552     19.83438     91.97469        22     1.391     1.051 -62.64   0
       119    563.5286    484.6231 300.2366506 +22.6585789     3769.258     70.33797      2.077     4.90    -2.594733     19.83438     205.6123        42     1.541     1.488 -63.87   0
       120    977.2940    484.6767 300.3655284 +22.7826773     608.6631     70.42741      1.612     4.57    -2.457304     19.83438     56.03712        15     1.117     0.957   8.88   0
       121    279.4930    483.7121 300.1485993 +22.5730788     383.5569     70.46314      1.934     3.95      -2.6048     19.83438     40.87289         5     1.120     0.498 -87.41   0
       122    767.9489    473.7500 300.3038367 +22.7167713     575.1534     70.33797      1.851     6.53    -2.452545     19.83438     37.06443        12     1.266     0.945 -26.06   0
       123    470.2015    470.8961 300.2120717 +22.6266358     3496.198     70.21258      2.110     5.02    -2.505486     19.83438     186.1515        42     1.648     1.441  52.05   0
       124    861.9317    464.9068 300.3359944 +22.7424113     800.9835      70.4274      1.977     6.04    -2.610666     19.83438     51.10581        19     1.375     1.093  10.86   0
       125    958.9091    465.2262 300.3661192 +22.7715758     234.9952     70.24843      1.381     4.31    -2.413496     19.83438     34.69825         6     0.950     0.558  26.22   0
       126    357.7081    450.2029 300.1838083 +22.5869372     1439.282     70.21258      2.094     5.05    -2.430635     19.83438     83.07907        31     1.494     1.419 -61.52   0
       127     76.5591    447.6730 300.0972584 +22.5018112        545.8     70.28426      1.924     4.94    -2.733081     19.83438     53.40136        14     1.374     0.952  55.32   0
       128    327.1594    439.7115 300.1777193 +22.5747575     16690.19     70.28426      2.040     4.34    -2.454127     19.83438     1129.067        72     1.656     1.597  72.87   0
       129    861.9942    436.8115 300.3451460 +22.7343563     691.7838      70.1767      1.769     4.69    -2.562511     19.83438     55.18331        15     1.199     1.132 -81.30   0
       130     23.5945    427.6679 300.0873119 +22.4801678     2746.406     70.26634      1.771     3.64    -2.788686     19.83438     252.2882        30     1.398     1.192  78.62   0
       131    737.4731    419.1768 300.3120816 +22.6919534       938.67     70.33797      2.010     5.04    -2.461163     19.83438     57.33144        18     1.324     1.145  -8.78   0
       132    952.6329    411.8502 300.3815113 +22.7543525     309.9048     70.33797      1.656     5.10    -2.434909     19.83438     28.89311         5     1.050     0.701 -26.24   0
       133    399.5050    404.1490 300.2117734 +22.5862589     1184.013     70.37376      2.314     5.65    -2.387661     19.83438     69.82736        23     1.526     1.352  26.41   0
       134    837.5883    395.9339 300.3508254 +22.7152920     319.7098     70.26634      1.816     5.52    -2.467087     19.83438     33.96022         7     1.265     0.680  76.90   0
       135    475.0851    383.6577 300.2419426 +22.6030515     754.6737     70.40952      2.114     7.33    -2.492836     19.83438     40.62893        15     1.290     1.167 -88.55   0
       136    719.7468    375.0917 300.3208864 +22.6739715     1143.792     70.35587      1.979     5.74    -2.385325     19.83438     63.05051        24     1.361     1.281   5.54   0
       137    981.0698    369.2067 300.4042352 +22.7506164     1774.236     70.26634      1.788     3.96    -2.633354     19.83438     132.9611        29     1.350     1.287  17.38   0
       138    429.5096    359.9874 300.2354552 +22.5825812     257.2074     70.24843      1.674     4.77    -2.512788     19.83438     29.29353         5     1.087     0.594  13.35   0
       139    103.2149    353.7383 300.1360598 +22.4828631     817.2403     70.24843      1.911     4.71    -2.546782     19.83438     59.88753        17     1.313     1.023 -57.63   0
       140    134.7044    353.6461 300.1458717 +22.4922896     331.5378     70.32007      1.840     4.87    -2.501766     19.83438     30.83289         6     0.975     0.689 -17.91   0
       141    889.6232    325.3527 300.3899753 +22.7106027     1162.454     70.32007      2.112     4.78    -2.665339     19.83438     70.75797        25     1.333     1.278 -30.01   0
       142    308.1254    323.1105 300.2096871 +22.5355727     1169.166     70.46314      2.023     5.76    -2.100566     19.83438     72.93592        27     1.581     1.203   4.91   0
       143    386.6532    318.3015 300.2356677 +22.5577533     541.7997     70.39164      2.037     6.60    -2.185722     19.83438     34.25503         9     1.523     0.803 -71.06   0
       144    203.6760    310.0522 300.1814629 +22.5004797     338.8213     70.30217      1.425     5.46    -2.302638     19.83438     33.54646         8     1.260     0.668 -64.24   0
       145    740.4948    306.7310 300.3495582 +22.6605483     880.2514     70.44527      2.191     8.30    -2.288023     19.83438     52.74735        22     1.637     1.288  35.05   0
       146   1012.1895    299.2746 300.4366595 +22.7398342     405.8453     70.30217      1.527     4.28     -2.72629     19.83438     43.05148         5     0.865     0.604  31.83   0
       147    744.6077    298.7297 300.3534384 +22.6594819     483.5198     70.28426      2.232     4.12     -2.27766     19.83438     36.24165         7     1.003     0.849  86.10   0
       148    665.6801    298.2450 300.3290147 +22.6356792     758.6965     70.28426      1.811     4.92    -2.010867     19.83438      53.8254        15     1.410     0.831  -2.14   0
       149    860.6788    288.7940 300.3928302 +22.6914181     857.9472      70.2305      2.119     6.10    -2.645967     19.83438     54.08972        20     1.375     1.170  72.08   0
       150    592.5042    290.5163 300.3087428 +22.6115165     426.0132     70.48101      1.735     5.02    -1.941479     19.83438     35.76089         6     0.953     0.750 -17.67   0
       151    988.9178    278.5540 300.4361331 +22.7269030     736.6153     70.28426      1.960     4.26    -2.691751     19.83438     43.87161        13     1.011     0.907 -88.71   0
       152    224.0065    271.2967 300.2003684 +22.4954555     488.6061     70.19464      2.014     6.50    -2.155521     19.83438     34.73148         9     1.210     0.980 -57.70   0
       153     85.6369    266.5909 300.1589059 +22.4525773     1320.635     70.30217      2.042     6.30    -2.380818     19.83438     85.84574        25     1.677     1.186 -69.38   0
       154    242.9267    259.9709 300.2099269 +22.4978814     3198.622     70.32007      2.089     4.21    -2.142783     19.83438     211.6187        41     1.600     1.468  68.97   0
       155     27.8409    254.4439 300.1449013 +22.4317425     579.7491     70.37376      1.547     3.76    -2.426942     19.83438     62.33212        11     1.025     0.726 -72.75   0
       156    226.8413    251.0895 300.2078116 +22.4905049     327.1166     70.30217      2.142     5.82    -2.141448     19.83438     31.20192         8     1.533     0.623 -87.90   0
       157    886.7361    241.1421 300.4164282 +22.6855274      1855.29     70.35587      1.900     4.59    -2.337241     19.83438       119.24        30     1.379     1.338   7.62   0
       158    990.3683    239.6419 300.4492235 +22.7161475     1659.005     70.33797      1.816     4.37    -2.614439     19.83438     119.8042        27     1.366     1.266 -18.68   0
       159    487.5471    224.0243 300.2976723 +22.5609389     894.2929     70.32007      2.025     6.27     -1.87194     19.83438     67.11954        19     1.512     1.056  17.88   0
       160    261.7675    203.7781 300.2340296 +22.4874000     3397.379     70.30217      2.112     4.55    -2.058024     19.83438     204.5141        42     1.591     1.500 -89.45   0
       161    112.9494    203.0330 300.1880273 +22.4425317       466.91     70.32007      1.913     5.03    -1.905834     19.83438     35.41597         6     1.226     0.585 -31.83   0
       162    507.6855    188.9463 300.3153281 +22.5569001      3545.43     70.35587      2.161     4.81     -1.87194     19.83438     236.4962        41     1.569     1.533 -76.42   0
       163    393.6471    188.9893 300.2798367 +22.5227129     429.1324     70.32007      2.014     5.45    -2.107461     19.83438     37.34394         7     1.143     0.732  72.32   0
       164    760.4141    179.5679 300.3970596 +22.6299683     399.0094     70.30217      2.373     5.23     -1.87482     19.83438     23.47109         5     1.087     0.712 -65.64   0
       165    636.0745    169.0282 300.3617576 +22.5896695     3628.604     70.32007      2.163     4.92    -1.941654     19.83438     178.2377        43     1.581     1.549 -58.03   0
       166    411.3336    168.0685 300.2921298 +22.5220079     921.6806     70.35587      2.285     6.12    -2.115304     19.83438     50.82821        20     1.471     1.235 -45.94   0
       167    680.2183    153.9585 300.3803954 +22.5985704     1671.779     70.32007      2.185     5.22    -1.902318     19.83438     88.40482        32     1.556     1.372  -4.59   0
       168    766.6619    145.5767 300.4100410 +22.6220685     954.6073     70.28426      2.153     7.45    -1.778426     19.83438     52.52905        21     1.404     1.252  10.21   0
       169    510.2695    138.7283 300.3324345 +22.5432457      495.118     70.37376      1.672     5.98    -1.768248     19.83438     31.62788        12     1.529     0.659   8.48   0
       170    415.0385    137.1316 300.3033247 +22.5142314     440.3876     70.26634      1.424     3.92    -2.110382     19.83438     29.94704         6     0.946     0.465 -36.49   0
       171    185.6443    126.5407 300.2354436 +22.4423831     2172.174     70.32007      2.027     4.24    -1.512999     19.83438     157.0256        32     1.516     1.328  -7.28   0
       172    301.4397    119.2343 300.2738069 +22.4750206     573.8932     70.33797      1.862     5.33    -1.691488     19.83438     46.10519         9     1.012     0.792  26.87   0
       173    804.6360    109.6603 300.4335304 +22.6231206     1262.966     70.32007      2.049     5.49    -1.545417     19.83438     74.76646        23     1.360     1.244 -14.73   0
       174    188.8073    105.4611 300.2432679 +22.4372788     520.6037     70.28426      1.718     4.08    -1.478997     19.83438     46.00861         6     1.022     0.465 -63.16   0
       175    753.7784    102.8025 300.4199115 +22.6059095     502.0487     70.24843      1.871     3.36    -1.585049     19.83438     43.88367         7     0.926     0.575 -72.96   0
       176    605.1262     87.5010 300.3785852 +22.5569597     436.4734      70.4274      2.004     6.12    -1.643926     19.83438     37.12508         9     1.359     0.846  53.40   0
       177    215.4787     84.6934 300.2582961 +22.4393157     267.4566      70.4274      1.506     5.11    -1.436751     19.83438     25.72306         7     1.047     0.706 -85.36   0
       178    769.1002     81.9499 300.4314523 +22.6045047      408.543     70.39164      1.717     7.26    -1.450999     19.83438     36.43583         8     1.668     0.885 -78.31   0
       179    577.2972     80.4517 300.3722099 +22.5465919      1093.98     70.37376      2.068     5.72    -1.644311     19.83438     72.30273        24     1.527     1.279 -76.97   0
       180     15.3120     77.2414 300.1985320 +22.3771211      249.067     70.30217      1.571     4.00    -1.564605     19.83438     37.36413         5     0.897     0.561 -38.09   0
       181    534.6108     73.7680 300.3610928 +22.5318751      622.263     70.30217      1.987     7.34    -1.621578     19.83438      42.6881        17     1.281     1.178  51.04   0
       182    640.4362     71.1742 300.3948770 +22.5628496     726.7498     70.32007      1.941     6.46    -1.643871     19.83438     59.01558        11     1.484     0.814 -68.62   0
       183    460.3700     64.7923 300.3409039 +22.5070389     1342.269     70.30217      2.090     4.84    -1.591655     19.83438     96.81499        28     1.436     1.359 -87.01   0
       184    107.8459     63.0992 300.2318600 +22.4008254     795.6198     70.32007      1.795     4.49    -1.528105     19.83438      76.7457        17     1.278     0.977 -66.27   0
       185    168.7624     44.6950 300.2567573 +22.4138149     520.3091     70.28426      1.617     5.46    -1.442536     19.83438     54.29893        12     1.176     0.851  35.43   0
       186    647.9056     23.7410 300.4125938 +22.5514515     1493.581     70.37376      2.145     5.15    -1.643871     19.83438     107.5905        30     1.554     1.369 -68.99   0
       187    744.7050     23.9225 300.4426822 +22.5805090     577.7606      70.4274      2.085     4.92    -1.162835     19.83438     39.45889         7     0.888     0.773 -37.67   0
       188    792.1271   1016.5306 300.1347263 +22.8798695     6540.943     70.37376      1.363     2.47    -4.177561     19.83438     741.1371        38     1.169     1.114 -56.45  16
