#   1 NUMBER                 Running object number                                     
#   2 X_IMAGE                Object position along x                                    [pixel]
#   3 Y_IMAGE                Object position along y                                    [pixel]
#   4 ALPHA_J2000            Right ascension of barycenter (J2000)                      [deg]
#   5 DELTA_J2000            Declination of barycenter (J2000)                          [deg]
#   6 FLUX_APER              Flux vector within fixed circular aperture(s)              [count]
#   7 FLUXERR_APER           RMS error vector for aperture flux(es)                     [count]
#   8 FLUX_RADIUS            Fraction-of-light radii                                    [pixel]
#   9 FWHM_IMAGE             FWHM assuming a gaussian core                              [pixel]
#  10 BACKGROUND             Background at centroid position                            [count]
#  11 THRESHOLD              Detection threshold above background                       [count]
#  12 FLUX_MAX               Peak flux above background                                 [count]
#  13 ISOAREA_IMAGE          Isophotal area above Analysis threshold                    [pixel**2]
#  14 A_IMAGE                Profile RMS along major axis                               [pixel]
#  15 B_IMAGE                Profile RMS along minor axis                               [pixel]
#  16 THETA_IMAGE            Position angle (CCW/x)                                     [deg]
#  17 FLAGS                  Extraction flags                                          
         1    595.4991      2.0513 300.3787721 +22.5570026     479.5562      58.3567      1.256     3.46    -1.099939     19.72231     69.80974        10     1.014     0.697  43.01  24
         2     81.8491    959.1776 299.9080982 +22.6775174     2397.463     69.90494     16.101    25.60     4.147144     19.72231     60.08051       163     6.207     2.932  -6.96   3
         3    638.4622   1023.6487 300.0601909 +22.8631370     3477.197     54.49641      0.881     1.60    -5.361598     19.72231     888.9792        12     0.848     0.557   0.90  27
         4    644.0853   1021.6820 300.0625820 +22.8642608     5375.025     64.12874      1.094     1.69    -5.428325     19.72231     1115.436        28     0.951     0.917 -75.73  18
         5    206.0774   1021.2224 299.9264920 +22.7326096     2893.723     65.77678     14.764    31.82     12.61428     19.72231     87.09113       224     7.202     3.903  18.59  27
         6    243.3872   1011.8784 299.9411291 +22.7411401     5739.779     69.90494     10.134    35.90     2.960707     19.72231     131.4637       650    10.612     5.013  56.28  27
         7    225.9450   1019.7052 299.9331600 +22.7381431     4308.505     69.78019      9.288    33.91     6.908828     19.72231     89.52325       326     7.467     4.275  19.53  27
         8    172.6651   1014.1588 299.9184100 +22.7205491     1800.128     69.86932      7.454    14.41     20.30877     19.72231     58.73281        52     3.144     2.023  59.45  18
         9     78.6770   1019.4553 299.8874897 +22.6938280     1865.901     69.94054     18.786    35.45     18.23693     19.72231     56.44601       221     9.156     3.810   3.64  27
        10    104.2416    979.6535 299.9083878 +22.6901096      1382.61     69.90494     24.863    26.27     13.69734     19.72231     49.73464        74     5.860     3.270  68.41  19
        11     97.8108    963.3991 299.9116816 +22.6835219     1437.843     69.72665     19.999    20.57     7.933156     19.72231     52.39837        58     4.937     2.380  70.86   3
        12     60.9480   1009.0002 299.8853879 +22.6855068     2161.442      69.8515     14.996    29.76     8.298937     19.72231     60.96554       188     6.522     3.770 -15.30  19
        13     81.3870    947.9790 299.9115998 +22.6741711     2290.519     69.88713     16.058    32.53      1.20192     19.72231     95.19853       225     8.415     3.490 -20.28   3
        14     85.9334    987.7723 299.9000584 +22.6869345     3200.708     69.88713     22.770    63.97     12.87454     19.72231     69.79559      1097    15.066     7.537  58.52  19
        15    180.6121   1022.0585 299.9183071 +22.7251992     1198.248     62.41729      5.633     9.42     19.92903     19.72231     42.13697        16     2.570     0.963 -84.17  27
        16      3.4117   1002.6849 299.8695786 +22.6664092      770.495     64.38057      4.883     6.15    -15.01705     19.72231     29.62685         7     1.996     0.533 -38.88  24
        17      3.1318   1020.3049 299.8637551 +22.6713704     837.2182     61.87652      3.587     4.28      -17.512     19.72231     34.43834         5     1.140     0.458  -2.35  16
        18    153.9144    994.6963 299.9189209 +22.7093412     607.7322     70.08276      2.932     4.35     18.50092     19.72231     35.03161         6     1.257     0.429  31.73   1
        19    656.7858    991.1331 300.0764835 +22.8593127     4031.107     69.88713      1.166     1.88    -5.472859     19.72231     773.1371        26     1.030     0.871  50.14   0
        20    146.5452    992.5035 299.9173454 +22.7064993     571.8489     69.99391      4.478     5.63     17.95503     19.72231      33.4103         5     1.268     0.705 -42.70   0
        21     67.2346    996.2711 299.8914843 +22.6837503     2483.943     69.90494     15.498    23.33     8.444468     19.72231     69.02975       134     4.617     3.272  44.20  19
        22    536.3970    985.7194 300.0407713 +22.8216266     331.7307     69.81585      1.037     2.71    -5.687048     19.72231     51.19956         5     0.713     0.454 -70.61   0
        23    247.9552    985.3896 299.9511729 +22.7349231     433.7942     69.92274      1.119     1.98   0.01297476     19.72231     67.38124         7     0.689     0.614 -20.61   0
        24      4.3598   1016.2939 299.8654423 +22.6705910     958.7374     67.67942      6.052     8.03    -16.47189     19.72231     37.19498        13     2.277     0.792  39.26  25
        25    565.3179    981.8350 300.0510367 +22.8291940     839.5086     69.86932      1.056     1.70    -5.460159     19.72231     173.3114         9     0.718     0.640  27.67   0
        26    742.5026    978.6583 300.1072393 +22.8814567     165.3539     69.97612      0.921     3.81    -5.563974     19.72231      41.2403         6     0.968     0.485  34.07   0
        27    389.8268    976.4694 299.9981849 +22.7749718     3899.006     69.90494      1.051     1.75     -5.62535     19.72231     739.1193        22     0.921     0.860 -81.56   0
        28    459.1027    978.3392 300.0191242 +22.7963072     536.4265     69.97612      0.954     1.66    -5.606564     19.72231     115.6268         7     0.651     0.589 -13.50   0
        29    114.2764    975.6934 299.9127939 +22.6919901     1125.773     70.04724      8.945     9.53     12.57282     19.72231     49.51748        17     1.959     1.295 -72.97   1
        30    119.4964    975.8968 299.9143491 +22.6936165     865.0168     70.08276      4.680     5.24     12.66558     19.72231      38.4575         9     1.334     0.581  21.78   1
        31    422.3972    963.1504 300.0126510 +22.7809335      277.776     69.90494      1.215     2.05    -5.588779     19.72231     52.14661         5     0.673     0.467  72.35   0
        32    931.4865   1007.6937 300.1566746 +22.9464812     460.0421     70.08277      1.034     1.85    -5.921594     19.72231     93.08686         6     0.623     0.592 -43.10   0
        33    936.1965    955.0187 300.1752937 +22.9327792     1283.539      69.8515      1.189     2.11    -5.479241     19.72231     274.6229        14     1.049     0.757   6.38   0
        34    586.2598    952.1353 300.0672238 +22.8269639     167.4035     69.94054      0.996     3.87     -5.13849     19.72231     36.94955         6     0.908     0.473  51.85   0
        35    434.1626    951.3624 300.0201480 +22.7810869     295.3185     69.97612      1.020     1.87    -5.499654     19.72231     49.04682         5     0.674     0.452  19.03   0
        36    724.7661    943.9648 300.1130097 +22.8661839     460.6335     69.95834      1.439     3.99    -5.396331     19.72231     65.95446         7     1.196     0.532  64.34   0
        37    112.0000   1002.0047 299.9035211 +22.6988423     968.8325      69.7088      3.498     3.65     20.82408     19.72231     36.49897         5     1.325     0.289 -90.00   2
        38    759.5952    938.0563 300.1257818 +22.8749387     589.0754     69.86932      1.023     1.59    -5.367592     19.72231     117.8381         7     0.638     0.592  85.88   0
        39    781.8537    931.8232 300.1347448 +22.8798282     6627.578     69.92274      1.060     1.60    -5.338853     19.72231     1592.395        25     0.901     0.840 -87.76   0
        40    827.4559    931.7217 300.1489862 +22.8934789       316.76     69.94054      0.980     3.04    -5.343364     19.72231     51.39475         5     0.716     0.459 -69.44   0
        41    972.7298    931.3644 300.1943845 +22.9369471     142.1448     69.90494      0.859     2.11    -5.151446     19.72231     47.49327         5     0.672     0.467 -14.11   0
        42    805.6453    926.9387 300.1437472 +22.8855641     2122.439     69.92274      0.747     1.97    -5.323303     19.72231     781.9246         7     0.704     0.400 -29.62   0
        43     92.9835    923.6380 299.9231240 +22.6706825     700.2315     69.90494      2.211     3.82    -3.609283     19.72231     71.83167        11     1.087     0.777  40.90   0
        44    486.7175    920.1961 300.0466425 +22.7879288     299.1055     69.83368      1.023     3.74    -5.271633     19.72231     44.29553         6     1.020     0.394  76.63   0
        45     83.1178    914.8489 299.9229203 +22.6652011     368.5712     69.90494      1.338     3.95    -3.845478     19.72231     39.50481         6     0.766     0.583 -56.67   0
        46    790.4265    913.8542 300.1432647 +22.8772448     772.5374     69.94054      1.014     1.99    -5.316712     19.72231     162.1753        11     0.822     0.664 -31.06   0
        47    973.4561    912.8544 300.2006363 +22.9318525     290.4572     69.95834      1.053     1.61    -5.124822     19.72231     73.03551         5     0.650     0.459  65.18   0
        48    828.3521    907.5689 300.1571273 +22.8868179     443.9964     69.94054      0.984     2.11     -5.31108     19.72231     84.70679         6     0.684     0.532 -44.74   0
        49    876.9338    898.7181 300.1751480 +22.8988495     300.4079     70.01169      1.023     1.69    -5.294123     19.72231     83.60219         7     0.644     0.619 -44.93   0
        50    728.2889    897.5780 300.1292059 +22.8539347     398.4836     69.83368      0.964     1.75    -5.323749     19.72231     73.18896         5     0.621     0.485 -13.96   0
        51    440.8907    894.0835 300.0408843 +22.7666865     2396.522     70.04723      1.133     1.81    -5.260634     19.72231     533.1309        18     0.848     0.838  -3.09   0
        52    218.9935    882.9332 299.9755200 +22.6968678     252.2673     69.90494      1.126     2.95    -4.329505     19.72231     41.98652         5     0.658     0.554 -89.80   0
        53    102.5466    882.8206 299.9393776 +22.6618622     272.8719     69.88713      0.979     3.20    -4.157267     19.72231     43.63052         5     0.735     0.461  70.96   0
        54    165.8001    879.7545 299.9600254 +22.6799821     364.1569     69.88713      0.932     2.00    -3.373181     19.72231      108.025         8     0.808     0.603 -88.50   0
        55    143.2611    876.9653 299.9539305 +22.6724136     892.0613     69.92274      1.101     1.88    -3.774484     19.72231     174.4665        12     0.837     0.702  84.61   0
        56     74.5675    878.2802 299.9321650 +22.6521571     302.5484     69.90494      1.269     3.43    -4.598457     19.72231     35.72647         5     0.734     0.463 -71.98   0
        57   1015.0002    865.6654 300.2289499 +22.9307638     1295.945     69.88713      1.053     1.73    -5.008139     19.72231     279.9957        13     0.910     0.682 -55.98   0
        58     17.8790    866.6010 299.9183615 +22.6317823     251.2768     69.79802      1.137     2.22    -5.467755     19.72231     47.84416         6     0.711     0.581 -70.86   0
        59    969.1627    864.0888 300.2151695 +22.9165681     1285.833     69.88713      1.016     1.63    -5.108971     19.72231     307.9686        11     0.759     0.669 -66.52   0
        60    752.9120    858.0002 300.1497560 +22.8499668     468.1228     69.81585      1.329     2.91    -5.305034     19.72231     81.57722         9     0.926     0.796 -48.55   0
        61    620.8301    852.1977 300.1105120 +22.8086770     2790.101     69.86932      1.061     1.76    -5.176825     19.72231      618.586        18     0.831     0.807 -64.93   0
        62    110.7107    852.9902 299.9516200 +22.6557679     321.0655      69.8515      1.288     3.74    -4.602446     19.72231     50.07623         6     0.915     0.459  49.55   0
        63    423.1441    849.3600 300.0499177 +22.7485372     389.9281     69.88713      1.158     1.55    -5.076052     19.72231     87.69006         6     0.642     0.537 -81.76   0
        64    171.0553    846.0764 299.9726166 +22.6719101     782.1046     69.94054      1.153     1.90    -4.599593     19.72231     179.8042        12     0.871     0.759  31.15   0
        65    641.4590    844.6387 300.1193943 +22.8126982     375.5562     69.92274      1.046     2.32    -5.214312     19.72231     67.49557         8     0.859     0.558  20.13   0
        66    189.9496    843.4813 299.9793317 +22.6768405      302.026     69.92274      0.995     2.20    -4.609132     19.72231     77.84094         5     0.726     0.534  84.20   0
        67   1013.7979    832.0360 300.2395186 +22.9207490     618.4748     69.90494      1.023     1.85    -4.797762     19.72231     147.5135        10     0.789     0.687 -75.77   0
        68    796.8305    831.8656 300.1719424 +22.8556411     2522.266     69.90494      1.079     1.69    -5.266957     19.72231     551.2003        16     0.855     0.739 -78.93   0
        69    205.3616    826.4102 299.9896750 +22.6765762      368.364     69.90494      1.171     2.80    -4.616045     19.72231     71.57479         8     0.898     0.678  46.30   0
        70    513.6820    824.5341 300.0861632 +22.7685912     321.8414     70.01169      0.968     2.34    -4.732957     19.72231     60.40917         6     0.755     0.533 -49.57   0
        71    160.2335    822.4694 299.9769346 +22.6618954     639.6713     69.90494      1.182     2.12    -4.614337     19.72231     109.3325        11     0.819     0.748 -50.35   0
        72    309.9720    814.6391 300.0260205 +22.7046107     31243.59     69.94054      1.134     1.85    -4.659165     19.72231     5652.702        61     1.074     1.017  73.93   0
        73    980.4610    813.0414 300.2353034 +22.9053017     520.3663     69.88713      1.215     4.40    -4.690095     19.72231     87.46795         8     1.160     0.615 -71.56   0
        74    567.6268    813.3973 300.1065751 +22.7815844     918.6711      69.8515      1.033     1.91    -4.763129     19.72231     190.4971        12     0.876     0.688  34.60   0
        75    596.7125    809.3460 300.1169467 +22.7891493     478.7483     69.94054      1.097     2.08    -4.969336     19.72231      92.8661         9     0.778     0.666  89.83   0
        76    607.6290    807.9856 300.1207877 +22.7920343     382.7244     69.92274      1.019     2.01    -5.054608     19.72231     83.73286         7     0.768     0.535  55.38   0
        77    713.0850    804.2426 300.1548424 +22.8225963     193.5739     69.86932      1.074     3.23    -5.236954     19.72231     51.86199         7     0.718     0.688  64.15   0
        78    359.6770    791.8379 300.0488931 +22.7129946     18472.64     69.88713      1.128     1.88     -4.61493     19.72231     3398.271        46     1.061     0.984  77.58   0
        79    750.4727    794.1613 300.1697677 +22.8309178     447.4321     69.86932      1.028     2.64    -5.172418     19.72231     76.19892         6     0.751     0.599  60.66   0
        80    373.9461    792.4456 300.0531329 +22.7174519     1033.197     69.94054      1.065     1.93    -4.610001     19.72231     191.8211        12     0.847     0.715 -80.39   0
        81    882.6592    787.4524 300.2131390 +22.8686332     1741.203     69.95834      1.006     1.74    -4.860884     19.72231     312.1616        14     0.815     0.766  72.60   0
        82    370.8341    785.9305 300.0542844 +22.7146498     202.1274     69.90494      1.124     2.54    -4.606206     19.72231     55.76066         6     0.734     0.549  55.02   0
        83    640.8154    783.5084 300.1390827 +22.7949686     607.7669     69.83368      1.375     3.54    -4.988867     19.72231     90.14237        14     1.085     0.973 -73.71   0
        84    242.0801    783.8291 300.0149386 +22.6753967     444.4644     69.92274      1.109     2.88    -4.610887     19.72231     74.16521         8     0.853     0.662 -82.02   0
        85    477.3896    783.6421 300.0881739 +22.7459730     244.7666     69.90494      1.384     4.35    -4.564211     19.72231      55.1312         7     1.052     0.511 -47.13   0
        86    487.9211    778.5046 300.0931219 +22.7476599     460.2688     70.01169      1.136     1.67    -4.538319     19.72231     93.79069         8     0.700     0.605 -78.44   0
        87     46.6233    779.1840 299.9557257 +22.6153729     313.8247     69.90494      1.314     2.23    -5.036778     19.72231     51.52896         5     0.690     0.462 -73.27   0
        88    888.9525    775.1443 300.2191046 +22.8669871     230.0629     69.94054      0.944     2.05    -4.676191     19.72231     72.88831         5     0.730     0.455  69.07   0
        89    345.6160    774.2006 300.0502580 +22.7037172     84.89849     69.76234      1.091     3.43    -4.612313     19.72231     32.86464         5     0.798     0.427 -69.73   0
        90     75.1450    772.8318 299.9666496 +22.6221187     315.4858     69.92274      1.195     2.81    -4.837866     19.72231     48.50301         6     0.720     0.575 -56.82   0
        91    239.2678    767.7941 300.0192803 +22.6699560     263.6488     69.86932      1.215     3.00    -4.612051     19.72231     45.66812         5     0.709     0.686 -37.85   0
        92    562.9946    758.0739 300.1231304 +22.7643255     199.7894      69.8515      1.137     2.11    -4.492916     19.72231     50.68185         5     0.592     0.584  87.52   0
        93    442.3071    756.0189 300.0862447 +22.7275232     119.6612     69.83368      1.024     3.95    -4.490182     19.72231     39.53888         6     0.920     0.525  -0.58   0
        94    554.6489    754.0301 300.1218482 +22.7606616     725.3193     69.92274      1.103     2.01    -4.458628     19.72231     154.1725        12     0.899     0.699  34.32   0
        95    949.0024    752.8311 300.2450828 +22.8785848     2672.281     69.86932      1.063     1.78    -4.498325     19.72231     585.3618        16     0.842     0.740  76.71   0
        96    474.1620    753.7462 300.0968942 +22.7364304     251.3822     69.90494      0.968     2.18    -4.470055     19.72231      49.6222         6     0.724     0.530 -51.41   0
        97    937.3912    744.1973 300.2442712 +22.8726252     1036.767     69.72665      1.067     1.79    -4.392495     19.72231     174.8803        12     0.824     0.711  25.49   0
        98    300.5267    738.2885 300.0479191 +22.6798868     522.0369       70.065      1.137     2.36    -4.563478     19.72231     69.82484         8     0.752     0.696  68.96   0
        99    763.6697    735.5486 300.1929450 +22.8180552     1609.958     69.88713      1.101     1.95    -4.650222     19.72231     243.5315        14     0.833     0.776  76.04   0
       100    968.6685    734.2204 300.2572681 +22.8791366      965.098     69.88713      1.015     1.69    -4.618792     19.72231      205.458        11     0.760     0.734  50.85   0
       101    149.4004    721.9537 300.0062627 +22.6298354     430.1967     69.90494      1.221     3.62     -4.55309     19.72231     51.91186         8     0.876     0.644 -41.83   0
       102    846.3842    721.4109 300.2233156 +22.8387995     316.2888      69.8515      1.199     2.43    -4.245316     19.72231     73.04803         6     0.846     0.426  19.71   0
       103    882.2417    712.4854 300.2373940 +22.8469876     86223.26     69.86932      1.057     1.76    -4.114188     19.72231     15267.84       102     1.132     1.045  72.33   0
       104    734.5533    712.6003 300.1913386 +22.8027375     362.0787     69.90494      1.017     2.03    -4.579684     19.72231     89.42796         6     0.799     0.422  21.55   0
       105    915.2094    705.3887 300.2499784 +22.8548333     185.6114     69.79802      0.852     1.56    -4.176959     19.72231     66.93058         5     0.648     0.442  25.66   0
       106    749.7000    698.6583 300.2005909 +22.8032782     5402.422     69.99391      1.111     1.93    -4.515867     19.72231      930.395        28     1.033     0.886  81.38   0
       107    568.6751    701.4110 300.1433271 +22.7497743     859.5429     69.92274      1.061     1.79    -4.202916     19.72231     167.2124        11     0.798     0.692 -73.70   0
       108    169.6669    700.6544 300.0194857 +22.6298149     377.2732     69.95834      0.699     0.73    -4.406884     19.72231     256.5341         5     0.728     0.339  45.28   0
       109    251.3476    693.9431 300.0470521 +22.6524108     2852.834     69.95834      1.157     2.04    -4.412117     19.72231     471.5093        19     0.905     0.879 -76.72   0
       110    333.4285    691.9305 300.0732243 +22.6764696     712.8787     69.90494      1.102     2.23    -4.319589     19.72231     120.7737        11     0.930     0.634  47.12   0
       111    208.7785    689.7676 300.0351793 +22.6384354     306.9761     69.90494      1.280     3.16    -4.425488     19.72231      41.5734         7     0.856     0.576 -56.46   0
       112    541.6004    687.3862 300.1394609 +22.7376286     375.3394      69.7445      1.024     2.12    -3.960322     19.72231     67.96119         6     0.731     0.507  44.68   0
       113    533.2313    679.5219 300.1394135 +22.7328618     1796.079     69.88713      1.139     2.05    -3.896907     19.72231     278.1788        19     0.956     0.867   9.67   0
       114    523.5147    673.2077 300.1384427 +22.7281354     964.6697     69.83368      1.128     2.13    -3.833525     19.72231     146.4714        11     0.879     0.669  42.11   0
       115    452.3719    672.7460 300.1164564 +22.7066593     217.7267     69.90494      1.062     2.81    -3.866389     19.72231     39.00965         5     0.726     0.448 -71.41   0
       116    186.7013    669.6061 300.0348740 +22.6260282     341.4115     69.79802      1.134     2.87    -4.281463     19.72231     56.20645         8     0.844     0.697  58.56   0
       117    201.1203    668.0691 300.0398545 +22.6299159     327.1128     70.01169      1.105     2.10    -4.318043     19.72231     70.56917         6     0.772     0.552 -86.28   0
       118    226.7003    664.6212 300.0489252 +22.6366058     301.3117     69.83368      0.990     2.08    -4.369424     19.72231     67.31448         6     0.744     0.523 -46.24   0
       119    970.3951    663.9669 300.2806539 +22.8594807     285.5495     69.88713      0.974     2.26     -4.35999     19.72231     66.28333         8     0.788     0.639  10.12   0
       120    448.2585    663.0890 300.1183166 +22.7026550      963.749     69.97612      1.137     2.24    -3.852922     19.72231     156.1867        12     0.854     0.757 -89.85   0
       121    102.3809    658.2347 300.0123739 +22.5974547     11693.34     69.92274      1.184     2.06    -4.374043     19.72231     1842.334        42     1.111     1.009  62.43   0
       122   1023.5153    660.2173 300.2984386 +22.8743236     362.3281     55.22246      0.897     1.48    -4.735573     19.72231       118.61         6     0.671     0.501  36.92  24
       123     23.2534    659.8790 299.9872644 +22.5741676     403.6039     69.94054      1.085     2.30    -4.394962     19.72231     59.41743         7     0.697     0.642 -80.91   0
       124    533.1625    658.2596 300.1463054 +22.7267410     559.3876     69.92274      1.160     2.85    -3.821975     19.72231     83.61798         9     0.900     0.662  68.33   0
       125    568.4100    657.2838 300.1575932 +22.7370340     120.0726     69.86932      0.965     3.45    -3.970368     19.72231     32.82405         5     0.766     0.449  71.12   0
       126    286.6179    649.8818 300.0723419 +22.6503631     160.5682     69.86932      0.812     2.07    -4.105781     19.72231     42.12942         5     0.696     0.443  68.24   0
       127    616.9261    646.4802 300.1762087 +22.7484856     258.3176     70.01169      1.813     5.12    -4.162246     19.72231     33.14458         7     1.228     0.604  39.51   0
       128    951.1693    644.2513 300.2810699 +22.8480567     576.8371     69.94054      1.131     2.00     -4.05882     19.72231      130.602        10     0.804     0.669  88.82   0
       129     48.2057    642.2958 300.0007291 +22.5766205     902.6783     69.79802      1.774     4.79    -4.334477     19.72231     77.53384        16     1.419     0.693 -87.82   0
       130    114.7165    642.7763 300.0212312 +22.5967270     224.7501     69.86932      1.276     2.36      -4.3009     19.72231      43.9628         5     0.804     0.627  28.96   0
       131    817.8107    642.5750 300.2400475 +22.8076009     268.7604     69.90494      1.136     3.01    -3.876991     19.72231     40.30651         5     0.733     0.444  21.94   0
       132    891.2528    636.8717 300.2647905 +22.8279789      308.867     69.88713      0.973     2.02    -3.732302     19.72231     74.62113         6     0.676     0.561 -34.42   0
       133    636.1815    635.3759 300.1858139 +22.7510738     113.0585     69.92274      1.101     3.49     -4.13211     19.72231     23.85989         5     0.785     0.448  16.50   0
       134    453.2559    631.2208 300.1302321 +22.6950125     301.5233     69.90494      0.993     2.01    -3.796211     19.72231     59.97712         6     0.663     0.566  43.58   0
       135    497.4413    627.6741 300.1451329 +22.7072503     646.2545     69.88713      1.490     3.46    -3.798875     19.72231     90.17694        10     1.280     0.537 -77.54   0
       136    648.6301    628.2299 300.1920131 +22.7527562     275.4302     69.86932      1.057     2.00    -4.129474     19.72231     47.75829         5     0.669     0.465 -74.43   0
       137    619.5785    627.6625 300.1831522 +22.7438809     333.4072     69.88713      1.242     2.33    -4.029871     19.72231     57.99416         5     0.714     0.459  11.91   0
       138    931.1765    622.3893 300.2819444 +22.8357863     1967.604     69.90494      1.058     1.75    -3.721359     19.72231     366.2809        18     0.935     0.848 -15.16   0
       139    463.1071    622.6497 300.1360833 +22.6955091     1012.773     69.94054      1.274     2.40    -3.787333     19.72231     155.2855        13     0.977     0.808   2.96   0
       140     25.0764    616.4203 300.0019577 +22.5622597     3220.192     69.90494      1.218     2.13     -4.24711     19.72231     487.7793        22     1.023     0.879  66.62   0
       141    326.4860    609.4296 300.0978874 +22.6507262     5342.275     69.90494      1.128     2.09    -3.803653     19.72231     748.1039        25     0.990     0.930  88.88   0
       142    448.9225    606.4012 300.1369522 +22.6865923     5116.637     69.79802      1.204     2.07    -3.746173     19.72231     798.4212        29     1.032     0.964  72.36   0
       143    860.5468    600.2966 300.2671103 +22.8082726     1043.839     69.97612      1.067     1.96    -3.476394     19.72231     175.6445        14     0.878     0.763  31.21   0
       144    945.0571    597.4898 300.2943666 +22.8327954     7301.733     69.95834      1.065     1.76    -3.679553     19.72231     1369.386        31     0.939     0.920  57.14   0
       145    509.4554    595.9030 300.1591992 +22.7017384     6721.568     69.99391      1.201     2.15    -3.721011     19.72231     1022.601        29     1.052     0.943  64.22   0
       146    237.0324    591.6458 300.0758588 +22.6187820       759.22     69.94054      1.200     2.16    -4.095247     19.72231     129.7194        14     0.944     0.825  76.90   0
       147    483.9668    588.7152 300.1536042 +22.6920306     237.3595     69.86932      1.537     3.84    -3.704119     19.72231     27.06991         5     0.837     0.505  53.93   0
       148    441.1272    584.1410 300.1417625 +22.6778675      2429.32     69.94054      1.233     2.30    -3.665594     19.72231     357.7856        20     0.989     0.890  59.99   0
       149    783.9455    584.0980 300.2485058 +22.7806597     368.0285     69.99391      1.161     2.26    -3.619712     19.72231     81.06226         8     0.780     0.642  52.66   0
       150    419.3578    582.5078 300.1355213 +22.6708683     683.4724     69.90494      1.170     2.27    -3.650941     19.72231     107.7861        13     0.891     0.772  55.15   0
       151    173.7649    581.9389 300.0593518 +22.5970104     385.3667     69.92274      1.091     3.20    -4.184699     19.72231     56.51935         8     0.865     0.649 -83.09   0
       152    860.9590    579.4467 300.2740163 +22.8024090      928.127     69.95834      1.241     2.40    -3.448196     19.72231     134.7866        14     0.972     0.848 -14.83   0
       153    741.4172    576.4223 300.2377517 +22.7657066     562.7521     69.88713      1.133     2.41    -3.787431     19.72231     79.45205         7     0.849     0.490 -85.33   0
       154    557.7277    571.6181 300.1821159 +22.7092479     119631.5     69.90494      1.227     2.10    -3.582043     19.72231     19373.33       136     1.257     1.246  62.94   0
       155    243.8256    571.6662 300.0844638 +22.6150911     1933.864     69.88713      1.145     1.94     -4.01386     19.72231      380.492        17     0.920     0.817  48.97   0
       156    809.4647    567.3461 300.2619021 +22.7834995     412.0799     69.94054      1.172     2.63    -3.504044     19.72231     53.48861         5     0.686     0.468  69.99   0
       157    292.6785    554.3933 300.1052637 +22.6247966     277.3973     69.83368      1.342     3.79    -3.890499     19.72231      36.0901         5     0.957     0.432 -15.51   0
       158    448.3377    551.8871 300.1544884 +22.6707765     1617.381     69.99391      1.317     2.38    -3.558635     19.72231     211.9215        17     1.012     0.819  75.00   0
       159    845.2333    537.9949 300.2825877 +22.7857919     982.1828     69.88713      1.185     2.25     -3.42729     19.72231     154.7765        12     0.842     0.803 -61.43   0
       160    716.4701    535.6404 300.2432353 +22.7465193     1344.619     69.86932      1.102     1.99    -3.503467     19.72231     205.5925        13     0.817     0.775 -44.47   0
       161    503.5791    531.6518 300.1782524 +22.6815389     435.8949     69.90494      1.132     2.48    -3.483354     19.72231     69.45988         8     0.848     0.626  48.32   0
       162    973.7372    529.5563 300.3253894 +22.8218766     704.3649     69.90494      1.088     2.17    -3.543131     19.72231     132.0186        13     0.959     0.735 -77.11   0
       163    845.5308    528.1611 300.2858762 +22.7830569     1277.133     69.86932      1.303     2.61    -3.422545     19.72231      187.946        18     1.321     0.828  67.48   0
       164    959.3144    528.4485 300.3212522 +22.8172368     460.8778     69.88713      1.053     2.68    -3.500478     19.72231     78.67722         5     0.743     0.474  47.78   0
       165    598.7527    525.9725 300.2097206 +22.7084499      394.961     69.92274      1.484     4.22    -3.385761     19.72231     40.62338         7     0.772     0.658 -84.01   0
       166    385.3353    526.0863 300.1432749 +22.6444750     127.4539     69.99391      1.087     4.27    -3.573468     19.72231     30.38378         6     0.916     0.620 -23.13   0
       167    883.6714    523.1589 300.2993892 +22.7930507     2477.129     69.88713      1.120     1.97    -3.394929     19.72231     430.9352        18     0.906     0.821  56.43   0
       168    975.5358    513.6402 300.3311225 +22.8178432     509.9167     69.86932      1.063     2.60    -3.548818     19.72231     77.76925         8     0.874     0.576  68.43   0
       169    115.7802    513.6924 300.0635135 +22.5600384     506.6583     69.83368      1.169     2.53    -3.642716     19.72231     88.47878         9     0.939     0.588  50.70   0
       170    604.8171    495.7069 300.2214429 +22.7015806     203.3031     69.83368      1.177     4.31    -3.127039     19.72231     30.05986         5     0.736     0.719  24.19   0
       171    657.3624    493.7054 300.2384538 +22.7167598     407.6364     69.88713      1.228     3.04    -3.307111     19.72231     66.57503         8     0.818     0.734  25.78   0
       172    718.2068    485.8866 300.2599434 +22.7327546     616.2302     69.83368      1.510     3.93    -3.406279     19.72231     65.88947        12     1.016     0.926  39.28   0
       173    971.5117    485.9268 300.3388729 +22.8086758     339.1702     70.04724      1.153     2.16    -3.537444     19.72231     55.33148         6     0.728     0.496  83.16   0
       174    875.0499    482.2888 300.3099823 +22.7787281      573.113     69.90494      1.070     2.32    -3.376011     19.72231     116.5541        10     0.908     0.613  67.00   0
       175    859.6174    478.4141 300.3064312 +22.7729907     408.6563     69.86932      1.160     2.13     -3.37481     19.72231     70.91881         5     0.643     0.490  -7.50   0
       176    603.7115    476.6306 300.2272967 +22.6957730     1854.684     69.88713      1.259     2.31    -2.997734     19.72231     258.1019        18     1.009     0.869 -83.34   0
       177    964.0610    475.0363 300.3400881 +22.8033148     205.5013     69.92274      0.990     2.24    -3.504397     19.72231     52.50473         5     0.607     0.579 -86.13   0
       178   1014.9811    455.0902 300.3624478 +22.8128383     687.8143     69.83368      1.156     1.98    -3.577786     19.72231     131.7217        10     0.819     0.679  87.69   0
       179    886.8181    455.1068 300.3224817 +22.7744464     281.9889     69.83368      1.021     1.87    -3.352911     19.72231     62.10617         6     0.700     0.525 -53.31   0
       180    973.3007    454.0875 300.3497753 +22.8000642     463.1737       70.065      1.145     2.12    -3.487107     19.72231     99.41644         9     0.784     0.675 -27.19   0
       181    714.2149    450.4315 300.2702188 +22.7213773     568.9358     69.90494      1.098     2.26    -3.328176     19.72231      97.7949        10     0.845     0.700  85.09   0
       182    218.2532    448.7802 300.1164428 +22.5721723     339.6786     69.88713      1.236     3.22    -3.649053     19.72231     46.50028         8     0.813     0.663  48.22   0
       183    280.7604    444.5356 300.1372514 +22.5897076     2033.583     69.86932      1.232     2.12    -3.588313     19.72231     350.2068        18     1.009     0.841  69.59   0
       184   1013.6718    442.6679 300.3660751 +22.8088766     2536.923     69.94054      1.102     1.89    -3.538198     19.72231     468.8656        19     0.915     0.851  26.20   0
       185    227.9488    439.3910 300.1225060 +22.5723879     4385.477     69.90494      1.273     2.27    -3.604817     19.72231     614.9057        27     1.073     0.949  88.66   0
       186    368.6777    433.5692 300.1681511 +22.6129329     2834.183     69.88713      1.241     2.22    -3.528027     19.72231     433.6714        22     1.025     0.946  80.88   0
       187    993.5623    433.6891 300.3627204 +22.8002728      1181.98     69.88713      1.133     2.01    -3.479663     19.72231     212.2722        14     0.868     0.800  75.64   0
       188    612.8147    430.0528 300.2452620 +22.6851302     10724.28     69.92274      1.300     2.29    -2.915596     19.72231     1542.928        37     1.120     1.034 -88.93   0
       189    630.1616    430.2539 300.2505976 +22.6903881     502.9997     69.90494      1.940     4.73    -2.952394     19.72231     48.05228         7     1.459     0.434 -28.77   0
       190    946.2907    412.2479 300.3549449 +22.7799513     531.1484     69.90494      1.297     3.22    -3.379466     19.72231     70.59131         9     0.933     0.722 -13.50   0
       191    167.5060    410.4946 300.1131074 +22.5459645     1251.399       70.065      1.311     2.41     -3.59376     19.72231     160.9229        19     1.148     0.886  60.04   0
       192    553.4615    399.6476 300.2366612 +22.6586073     3798.545     69.94054      1.275     2.30    -2.939887     19.72231      537.827        28     1.103     0.983  67.54   0
       193    966.8505    399.7151 300.3654264 +22.7825090      653.454     69.88713      1.127     2.10    -3.395561     19.72231     122.3546         8     0.784     0.631  27.14   0
       194    268.3358    398.8697 300.1482210 +22.5728789     439.7756     69.94054      1.281     2.63    -3.554512     19.72231     68.43083         8     0.866     0.593  79.01   0
       195    813.5656    391.4480 300.3203300 +22.7342108     232.6626     69.94054      1.026     3.18    -3.363491     19.72231     43.64573         6     0.856     0.495  87.62   0
       196    125.8256    392.3738 300.1060420 +22.5282609     219.6532     69.86932      1.172     2.84    -3.550481     19.72231     43.42542         6     0.742     0.588  49.79   0
       197    757.5916    388.5577 300.3038287 +22.7166078     660.8899     69.92274      1.335     3.05    -3.477008     19.72231     91.55513        13     1.028     0.846  81.31   0
       198    666.8511    389.7231 300.2751867 +22.6897477     166.9799     69.90494      1.168     3.59    -2.963457     19.72231     45.63715         6     1.116     0.461  46.70   0
       199    460.1068    385.9384 300.2120618 +22.6266818     3539.132     69.99391      1.305     2.44     -3.31893     19.72231     465.8961        23     1.032     0.972  63.60   0
       200    949.3239    380.0798 300.3663388 +22.7716168     367.3078     70.01169      1.140     2.20    -3.343487     19.72231     51.87086         7     0.699     0.631 -78.67   0
       201    851.9830    380.0852 300.3359928 +22.7424573     731.9596     69.86932      1.132     1.95    -3.186788     19.72231      135.937         9     0.733     0.682 -74.57   0
       202    445.0384    374.5953 300.2110574 +22.6189077     155.7079     69.92274      1.087     3.49    -3.343285     19.72231     42.10823         6     0.921     0.533  71.92   0
       203    824.6500    367.7432 300.3314828 +22.7307223     269.3908     69.95834      1.120     2.00    -3.241153     19.72231     55.37008         5     0.673     0.461  75.45   0
       204    347.5464    365.1989 300.1837840 +22.5869753      1355.46     69.86932      1.289     2.54    -3.486661     19.72231     187.4507        18     0.994     0.973  82.05   0
       205     66.0703    362.5046 300.0971789 +22.5017639     648.4904     70.01169      1.284     2.76    -3.548128     19.72231     70.70158         8     0.756     0.698  62.29   0
       206    317.0334    354.6038 300.1777361 +22.5747837     17314.32     69.90494      1.310     2.37    -3.479159     19.72231      2464.28        48     1.177     1.084  75.03   0
       207    851.5657    351.7091 300.3450779 +22.7341798     761.8489     69.88713      1.237     2.61    -3.082791     19.72231     116.2561        13     0.915     0.836 -63.11   0
       208     13.3143    342.5387 300.0872775 +22.4802071     2906.825     70.01169      1.261     2.32    -3.283105     19.72231     345.6723        26     1.182     0.938  62.57   0
       209    766.7331    340.8427 300.3221719 +22.7056413     359.4858     69.88713      1.246     4.16    -3.334271     19.72231     43.69581         7     0.991     0.613 -72.48   0
       210    415.6800    339.4661 300.2133312 +22.6000212      338.065     70.01169      1.262     2.92    -3.416706     19.72231     53.38599         7     0.813     0.655  68.37   0
       211    727.3680    334.1424 300.3120843 +22.6919210     1057.033     69.92274      1.265     2.47    -3.303936     19.72231     144.5615        17     0.979     0.960 -20.83   0
       212    942.2127    327.0009 300.3813583 +22.7542337     378.5706     69.72665      1.371     3.84    -3.151171     19.72231     49.04947         6     0.928     0.455  49.11   0
       213    389.1343    318.8213 300.2117768 +22.5861357     1337.253     69.88713      1.523     3.38    -3.252366     19.72231     137.5424        20     1.282     0.853  64.19   0
       214    601.4089    317.3291 300.2783179 +22.6493438     202.7627     69.88713      1.361     4.12    -2.867047     19.72231     24.96352         5     0.997     0.487  85.51   0
       215    828.1340    311.3311 300.3508863 +22.7155590     169.4342     69.95834      1.178     3.86    -2.889012     19.72231     37.81954         7     0.917     0.650   7.83   0
       216    710.7496    309.4548 300.3149235 +22.6798500     106.4368     69.94054      1.169     4.51    -2.960787     19.72231     35.72359         7     0.929     0.621 -81.86   0
       217    464.9286    298.1694 300.2420605 +22.6029317     793.3937     69.90494      1.550     2.88    -2.942699     19.72231     86.79142        13     0.997     0.818  81.84   0
       218    976.4169    293.7826 300.4028090 +22.7549308      251.608     69.88713      1.085     3.42    -3.281609     19.72231       50.238         5     0.981     0.345  67.44   0
       219    709.9137    290.0841 300.3209519 +22.6740352     1298.341     70.01169      1.328     2.57    -2.787494     19.72231     154.1486        16     0.962     0.885  55.07   0
       220    971.0063    284.3096 300.4041972 +22.7505876     1831.104     69.81585      1.177     2.06    -3.193584     19.72231     302.3319        18     0.962     0.855  55.37   0
       221    418.1943    273.9406 300.2353861 +22.5819651     345.4132     69.86932      1.423     2.87    -2.994424     19.72231     45.44833         5     0.779     0.492  39.89   0
       222    123.7103    268.2814 300.1456729 +22.4920287     434.3034     70.01169      1.084     2.64    -3.125169     19.72231     72.13752         7     0.872     0.605  86.66   0
       223     93.1866    268.3060 300.1361824 +22.4828792     799.7422     69.83368      1.431     4.16    -3.108584     19.72231     98.83207        15     1.262     0.879 -34.38   0
       224    986.5822    263.9839 300.4156528 +22.7494097     262.3124     69.88713      1.148     4.04    -3.161343     19.72231     44.49902         6     0.983     0.476  81.29   0
       225    177.2660    260.0002 300.1650016 +22.5057169     310.8744     69.86932      1.196     3.87    -3.056627     19.72231     35.87805         7     0.737     0.678 -48.94   0
       226    852.7481    253.6656 300.3772777 +22.7063623     198.9111     69.94054      1.111     3.77    -2.874365     19.72231     32.51506         5     1.031     0.396  15.60   0
       227    781.0200    251.5231 300.3556210 +22.6842606     447.0405     69.90494      1.496     5.10    -2.965944     19.72231     48.31356         8     0.961     0.765  66.00   0
       228    371.8805    251.3234 300.2283213 +22.5615868     130.1672     70.01169      1.174     4.42    -2.889367     19.72231     33.49636         7     0.920     0.603  36.74   0
       229    879.5009    240.3487 300.3899389 +22.7105480     1217.846     69.99391      1.159     2.10     -2.90403     19.72231      173.012        15     0.972     0.775  59.70   0
       230    298.1781    237.9641 300.2097378 +22.5356536     1270.603     69.92274      1.303     2.43    -2.539986     19.72231     174.4133        16     1.006     0.927  26.44   0
       231    376.1191    232.8421 300.2356378 +22.5575521     578.0192     69.86932      1.349     3.93    -2.829525     19.72231     61.40963        10     0.983     0.748 -82.97   0
       232    127.8433    233.5254 300.1582372 +22.4832964     188.4262     69.88713      1.346     4.17    -3.100247     19.72231      30.1459         6     1.039     0.478 -57.30   0
       233    778.0937    232.2431 300.3609671 +22.6778442     370.5085     69.90494      1.171     2.05    -3.070507     19.72231     67.06931         7     0.675     0.657  -2.63   0
       234    193.1531    225.3105 300.1811972 +22.5005273     334.5401     69.86932      1.257     3.20    -2.901891     19.72231     48.90203         7     0.844     0.584 -32.55   0
       235    730.6978    221.8393 300.3495780 +22.6606565       992.71     69.88713      1.371     2.56    -3.126294     19.72231     118.2673        12     0.899     0.830  58.48   0
       236    795.3870    221.1241 300.3699641 +22.6798294     367.5262     69.92274      1.320     3.60    -3.066397     19.72231      54.4296         5     0.823     0.453  43.38   0
       237    214.4842    218.3329 300.1900912 +22.5049219     423.0769     70.01169      1.550     3.13    -2.764421     19.72231     42.94356         5     0.716     0.463  69.89   0
       238   1002.1950    214.2588 300.4366618 +22.7397901     452.3748     69.86932      1.109     2.30    -2.907597     19.72231     81.36928         8     0.809     0.626 -89.25   0
       239    734.9467    212.9771 300.3537777 +22.6593831     380.4009     69.92274      1.297     3.44    -3.082066     19.72231     61.69273         8     1.083     0.587 -59.50   0
       240    655.2805    212.6295 300.3290776 +22.6354154     752.5569     69.90494      1.245     2.57    -2.979355     19.72231     89.80007        11     0.858     0.790  59.09   0
       241    850.6343    203.8791 300.3927778 +22.6914211      781.463      69.8515      1.270     2.51    -2.916413     19.72231     115.5835        14     0.952     0.874  13.70   0
       242    581.1917    204.2279 300.3087360 +22.6108019     601.4938     69.90494      1.328     3.48    -2.997594     19.72231     72.18039         9     0.889     0.719  -8.52   0
       243    862.5146    203.0908 300.3967365 +22.6947526     565.3503       70.065      1.266     2.63    -2.896186     19.72231     56.88929         8     0.747     0.702 -19.38   0
       244   1023.3702    193.8844 300.4498784 +22.7402722     918.6921     56.07243      1.107     2.16    -3.147636     19.72231     146.0665        12     0.935     0.668  86.27  24
       245    979.3542    193.3828 300.4363137 +22.7269497     686.7197     69.92274      1.181     2.28    -2.968811     19.72231     100.3935        10     0.796     0.747  36.15   0
       246      3.0655    190.2464 300.1335243 +22.4334498     220.8994     62.99294      1.031     2.52    -2.324843     19.72231      49.2469         7     0.725     0.652   5.57  16
       247    213.7305    186.8554 300.2000712 +22.4956618     375.7744     69.92274      1.229     2.76    -2.579916     19.72231     56.54755         8     0.779     0.731 -85.80   0
       248     75.4151    181.6544 300.1587819 +22.4526874     1383.586     69.90494      1.185     2.23    -2.626052     19.72231     182.7878        18     1.092     0.851 -64.01   0
       249     25.2607    178.2090 300.1443224 +22.4366546     334.2014      69.8515      1.373     4.74    -2.447992     19.72231     35.61668         8     0.954     0.668  70.69   0
       250    898.4470    178.1735 300.4160230 +22.6983514     306.4739     69.94054      1.241     4.09    -2.744063     19.72231     50.97284         6     0.762     0.626 -63.93   0
       251    232.8457    174.9474 300.2098764 +22.4979758     3293.949     69.94054      1.329     2.36    -2.489435     19.72231     482.5193        25     1.101     0.968  80.46   0
       252    214.5108    175.4620 300.2040105 +22.4926257     259.4572     69.99391      1.193     3.79     -2.50778     19.72231     38.11015         7     0.868     0.670  74.10   0
       253     17.1620    169.3926 300.1446677 +22.4316958     647.6624     69.92274      1.288     3.06    -2.446264     19.72231     103.3138        13     1.071     0.764 -87.48   0
       254    216.2772    165.5505 300.2077753 +22.4903105     424.4988     69.90494      1.195     2.58    -2.454886     19.72231     50.28741         5     0.699     0.460 -21.08   0
       255    876.8000    156.1937 300.4164072 +22.6855511     2130.801     69.72665      1.242     2.23     -2.68187     19.72231     307.2309        19     0.993     0.903  79.78   0
       256    980.3827    154.6974 300.4491876 +22.7161355     1571.145     69.81585      1.171     2.28    -3.076823     19.72231     259.4801        16     0.969     0.837  55.28   0
       257    426.2469    151.5250 300.2776175 +22.5492300      380.748     69.90494      1.740     3.83     -2.49344     19.72231     42.82518         6     1.023     0.635  79.44   0
       258    350.7231    143.5957 300.2566984 +22.5243156     385.7937     69.81585      1.251     2.55    -2.491296     19.72231     42.82624         5     0.697     0.464  17.79   0
       259    116.2880    140.4891 300.1848344 +22.4531335       306.78       70.065      1.381     3.96    -2.508535     19.72231     47.89053         6     0.909     0.560  59.37   0
       260    477.7005    138.8596 300.2977355 +22.5610134     1019.779     69.99391      1.301     2.51    -2.850714     19.72231     146.8845        15     0.981     0.829  80.25   0
       261    405.8938    139.5301 300.2751774 +22.5396852     280.7798     70.02946      1.095     2.46    -2.479591     19.72231      42.7279         5     0.723     0.460  20.26   0
       262    221.3855    134.2585 300.2195149 +22.4828602     193.3783     69.88713      1.059     2.41    -2.525835     19.72231      40.6764         5     0.707     0.451  70.23   0
       263    765.6334    128.3729 300.3907901 +22.6442629     216.1495     69.92274      1.426     3.46    -2.812305     19.72231     28.95157         5     1.049     0.330  20.79   0
       264    251.7226    118.7582 300.2339733 +22.4875062     3454.174     69.88713      1.310     2.39    -2.580595     19.72231     505.4872        24     1.093     0.935  77.44   0
       265    102.6388    118.0156 300.1878842 +22.4425907     355.0276     69.92274      1.117     2.47     -2.55562     19.72231     67.21932         8     0.799     0.662  -4.36   0
       266    267.1524    108.8414 300.2419868 +22.4892849     212.5476     69.95834      1.683     4.24    -2.617964     19.72231     26.87149         6     1.190     0.430  62.24   0
       267    497.7729    104.1104 300.3152544 +22.5570475     3606.655     69.88713      1.360     2.43    -2.454735     19.72231     476.3403        24     1.079     1.006  31.42   0
       268    383.1943    103.9233 300.2796671 +22.5226566     277.0829     69.81585      1.148     2.93    -2.655984     19.72231     51.16198         8     0.826     0.645  44.54   0
       269    750.1267     93.5902 300.3972424 +22.6296221     557.9673     69.90494      1.501     3.01    -2.844022     19.72231     57.55523        11     0.952     0.753 -76.89   0
       270    842.4164     92.2617 300.4264311 +22.6568773     260.8254      69.8515      1.114     3.44     -2.72964     19.72231     34.53342         5     0.748     0.459  72.15   0
       271    189.8613     87.9219 300.2247473 +22.4601072     198.7378     69.97612      1.317     3.98    -2.659056     19.72231     32.93555         5     0.836     0.543 -35.91   0
       272    549.0470     86.3959 300.3369586 +22.5673218     293.2537     69.88713      1.241     2.56    -2.228009     19.72231      44.1637         7     0.717     0.677  -0.54   0
       273    626.0079     84.0508 300.3616789 +22.5897042      3566.62     69.90494      1.348     2.60    -2.269233     19.72231     452.4973        24     1.095     0.987  86.63   0
       274    400.8463     83.0755 300.2919200 +22.5219598     956.9791     69.90494      1.427     3.55    -2.712628     19.72231     117.2285        15     1.158     0.830  87.63   0
       275    667.2623     81.5786 300.3753274 +22.6013514     487.8826     69.86932      1.388     2.65    -2.401455     19.72231     71.60864         9     0.924     0.651  38.51   0
       276    736.9745     78.7263 300.3979663 +22.6214111     400.4974     69.92274      2.200     4.27    -2.844022     19.72231     26.54959         6     1.544     0.337 -72.12   0
       277    683.0384     77.2726 300.3816374 +22.6048392     314.5844     69.86932      1.276     3.06    -2.421867     19.72231     43.10993         7     0.703     0.695   6.05   0
       278    150.0584     75.6136 300.2163702 +22.4446401     347.5874     69.88713      1.178     3.09    -2.683645     19.72231     55.73846         9     0.887     0.694  68.43   0
       279    953.0145     74.8595 300.4665537 +22.6849863     352.1975     69.86932      1.340     4.04    -2.635114     19.72231     48.13104         8     1.034     0.549  48.86   0
       280    721.5187     72.9319 300.3950311 +22.6151169     216.6904     70.01169      1.003     2.56     -2.71152     19.72231     45.24968         6     0.759     0.500  89.10   0
       281    670.3324     68.9296 300.3803862 +22.5986359     1554.659     69.94054      1.338     2.62    -2.203637     19.72231     193.1766        17     1.008     0.879  68.23   0
       282    311.2100     69.3767 300.2684853 +22.4911606     148.0862     69.90494      1.067     2.66    -2.686476     19.72231     46.20275         6     0.929     0.585 -28.69   0
       283    685.3197     67.5366 300.3855057 +22.6027246     511.1328     70.01169      1.638     5.82    -2.318652     19.72231     60.71764        11     1.402     0.679  38.59   0
       284    756.7042     60.4007 300.4100566 +22.6220524     837.2635     69.78019      1.220     2.57    -2.844022     19.72231     127.3877        13     1.015     0.777  78.29   0
       285    694.7726     53.6857 300.3929421 +22.6015751     405.8271     69.90494      1.269     3.49     -2.27036     19.72231       58.009        11     1.067     0.704  87.71   0
       286    500.4637     53.1247 300.3326285 +22.5432075     673.6895     69.95834      1.329     2.69    -2.387929     19.72231     76.73463        10     0.858     0.726  12.08   0
       287     72.9341     53.0589 300.1997238 +22.4150405     446.1758     69.94054      1.500     3.17    -2.719074     19.72231     48.81871         9     0.797     0.760 -26.53   0
       288    404.2179     51.1597 300.3033198 +22.5138038     378.2857     69.92274      1.274     2.86    -2.739763     19.72231     63.75196        10     0.895     0.733  28.92   0
       289    786.6248     49.5662 300.4228929 +22.6278979     332.0679     69.92274      1.291     3.50    -2.844022     19.72231     41.41814         6     0.863     0.483  87.15   0
       290    175.5873     41.2726 300.2354399 +22.4424361     2383.561     69.92274      1.375     2.36    -2.843816     19.72231     283.6807        22     1.134     0.905  75.33   0
       291    743.7758     41.8404 300.4120483 +22.6128460     335.9173     69.94054      1.236     2.59    -2.844022     19.72231     50.19783         8     0.791     0.658 -40.89   0
       292    736.5498     33.2000 300.4125992 +22.6081985      485.413      69.8515      1.281     3.33    -2.844022     19.72231     74.48308        10     1.056     0.659 -74.34   0
       293    291.6905     33.2937 300.2741174 +22.4749486     815.1428       70.065      1.454     3.22    -2.714012     19.72231      98.5343        12     0.994     0.786 -72.07   0
       294    774.5915     28.4387 300.4259952 +22.6182213     517.8831     69.92274      1.690     5.15    -2.844022     19.72231     40.79209        11     1.080     0.845  73.85   0
       295    794.6281     24.6767 300.4334583 +22.6231393     1424.215     69.90494      1.316     2.49    -2.844022     19.72231     182.8078        18     1.055     0.861  80.14   0
       296    177.9960     20.0868 300.2430582 +22.4370760     709.9039     69.83368      1.343     2.57    -2.932174     19.72231     88.55466        11     0.942     0.686 -85.37   0
       297    969.7435     17.9694 300.4902207 +22.6736337     482.1013     69.92274      1.296     2.63    -2.635114     19.72231      72.3485        10     0.925     0.669  30.15   0
       298    743.0187     17.1897 300.4198062 +22.6055335     552.0327     69.86932      1.260     2.44    -2.844022     19.72231      85.1605         9     0.833     0.679   1.38   0
