#   1 NUMBER                 Running object number                                     
#   2 X_IMAGE                Object position along x                                    [pixel]
#   3 Y_IMAGE                Object position along y                                    [pixel]
#   4 ALPHA_J2000            Right ascension of barycenter (J2000)                      [deg]
#   5 DELTA_J2000            Declination of barycenter (J2000)                          [deg]
#   6 FLUX_APER              Flux vector within fixed circular aperture(s)              [count]
#   7 FLUXERR_APER           RMS error vector for aperture flux(es)                     [count]
#   8 FLUX_RADIUS            Fraction-of-light radii                                    [pixel]
#   9 FWHM_IMAGE             FWHM assuming a gaussian core                              [pixel]
#  10 BACKGROUND             Background at centroid position                            [count]
#  11 THRESHOLD              Detection threshold above background                       [count]
#  12 FLUX_MAX               Peak flux above background                                 [count]
#  13 ISOAREA_IMAGE          Isophotal area above Analysis threshold                    [pixel**2]
#  14 A_IMAGE                Profile RMS along major axis                               [pixel]
#  15 B_IMAGE                Profile RMS along minor axis                               [pixel]
#  16 THETA_IMAGE            Position angle (CCW/x)                                     [deg]
#  17 FLAGS                  Extraction flags                                          
         1    527.1185     16.5798 300.3609829 +22.5320915      842.405     70.17311      1.533     3.40     -2.14797     19.80806     96.88857        15     1.198     0.837  81.04   0
         2    632.3490     13.5961 300.3947050 +22.5627639     826.3427     70.20889      1.600     3.68    -2.060045     19.80806      79.6338        15     1.038     0.997  38.67   0
         3    452.7797      7.4337 300.3408186 +22.5071867     1436.187     70.20889      1.736     3.09    -2.089458     19.80806      135.685        21     1.154     1.031 -52.19  16
         4     99.8898      5.2238 300.2318372 +22.4007562     807.7999     69.88625      1.402     2.92    -2.253397     19.80806     108.5011        11     0.897     0.795  43.50  16
         5    583.4274      2.1638 300.3831826 +22.5448220     373.6551     59.05859      1.433     3.59    -2.084975     19.80806     46.49615         5     1.024     0.363  -4.39  16
         6    567.7506   1009.4175 300.0510072 +22.8291880     910.3375     70.24464      1.076     1.90    -4.666232     19.80806     174.0757        12     0.863     0.708  67.67   0
         7    244.6019   1022.6899 299.9461964 +22.7359313     952.5176     59.69296      4.021     8.87     1.996658     19.80806     39.67614        19     1.810     1.213 -26.14  27
         8    240.0245   1021.1638 299.9452709 +22.7341189     1236.214     66.27151      6.837    14.55     2.607755     19.80806     45.66466        28     2.898     2.031 -57.86  19
         9    242.0168   1017.3965 299.9471167 +22.7336383     984.7341     70.13731      5.063     6.74     2.046514     19.80806     32.07809        11     1.711     0.744  65.10  19
        10    230.8918   1019.9095 299.9428415 +22.7310156     1340.405     69.86828      8.132    13.85     3.848126     19.80806      45.9383        32     2.625     2.031  27.65  25
        11    137.1439   1021.4925 299.9132020 +22.7032985     1229.099     65.06699      9.775    13.64     11.75553     19.80806     42.48517        21     2.721     1.904 -75.65  26
        12    115.0351   1023.2776 299.9057542 +22.6971654     626.6664     56.76038      4.050     4.90     12.15044     19.80806     52.54727         5     0.997     0.681 -48.15  25
        13    117.5358   1004.4324 299.9126667 +22.6925203     1501.535     70.20889     15.662    24.45      9.14113     19.80806      50.9705        79     5.742     2.890 -65.97  19
        14    106.1315   1007.6516 299.9080768 +22.6900149     1590.842       70.191     19.173    28.31     9.795215     19.80806     45.18674       102     7.247     3.070  74.92  27
        15     83.7132    986.2258 299.9080906 +22.6771421     2370.691     70.15522     15.046    31.59     4.423597     19.80806     61.45947       239     6.254     4.429  14.77  19
        16     86.8700    973.3703 299.9132560 +22.6744094     1975.883     70.20889      9.565    22.09     3.044595     19.80806     52.78929       112     6.019     2.251 -10.17   3
        17     86.9788   1012.5741 299.9005264 +22.6856684     3154.543       70.191     17.027    53.76     8.607493     19.80806     69.75931       772    11.788     6.804  42.93  27
        18     69.1790   1021.5198 299.8920865 +22.6828801     2062.277     64.93178     10.573    18.85      5.89965     19.80806      57.3174        80     3.652     2.703  46.08  27
        19     53.0536   1021.5884 299.8870573 +22.6780530       830.65     64.69933      4.130     5.51     2.380099     19.80806     34.39446         9     1.801     0.475 -39.16  18
        20    461.5192   1005.8764 300.0191098 +22.7962733     624.3606      70.3161      1.022     2.33    -4.843945     19.80806     100.4843         8     0.761     0.669  84.61   0
        21    392.2827   1004.0015 299.9981878 +22.7749416     3804.902     70.11942      1.136     1.93    -4.911459     19.80806     719.8664        23     0.962     0.861  72.56   0
        22    237.5476   1012.9831 299.9471649 +22.7310314     848.4477       70.191      6.291     7.39     2.319148     19.80806      34.0723        10     1.510     1.012  50.57   1
        23    424.5689    990.9971 300.0124622 +22.7809121     228.8679       70.191      1.130     3.69    -4.847675     19.80806     37.13705         6     0.790     0.495 -89.41   0
        24    938.4276    982.4254 300.1752420 +22.9327000     1261.259     70.17311      1.006     1.88    -4.487871     19.80806     201.4687        13     0.814     0.724  67.80   0
        25    727.3842    971.3904 300.1130831 +22.8662064     440.1911     70.13732      1.522     3.39    -4.502961     19.80806     87.07495        10     1.346     0.658  66.55   0
        26    170.9151   1010.8364 299.9271618 +22.7103952      757.661       70.191      5.247     6.09      9.16888     19.80806     30.29626         5     1.384     0.753   1.53   0
        27    762.0956    965.5277 300.1258023 +22.8749427     560.1904      70.3161      0.973     1.76    -4.456033     19.80806      139.188         8     0.720     0.632  49.58   0
        28    784.2462    959.2789 300.1347361 +22.8797979     6621.475     70.20889      1.083     1.77    -4.392651     19.80806     1265.155        24     0.940     0.835  79.58   0
        29    829.9218    959.4291 300.1489162 +22.8935472     280.1539     70.20889      0.980     2.72    -4.338537     19.80806     60.20959         5     0.804     0.526 -45.27   0
        30    975.0440    958.8300 300.1943389 +22.9369147      349.373     70.24464      1.290     1.98    -4.588489     19.80806     55.76232         7     0.681     0.651  14.49   0
        31     95.7493    951.0799 299.9232694 +22.6706941     326.0562     70.20889      1.310     2.90    0.5981381     19.80806     50.42956         7     0.699     0.689  36.02   0
        32    489.5941    947.7067 300.0467814 +22.7880317     416.9086     70.10151      1.380     3.59    -4.673701     19.80806     45.47321         6     0.833     0.538 -48.61   0
        33     85.6790    942.7553 299.9228518 +22.6652839        144.9       70.191      1.121     3.57    -1.178596     19.80806      40.3145         5     0.874     0.421  43.38   0
        34    792.6389    941.2951 300.1432052 +22.8771582     766.2524       70.191      1.069     2.05    -4.304965     19.80806     148.2848        11     0.798     0.726  28.79   0
        35    975.7635    940.1850 300.2006334 +22.9317805     330.9489     70.20889      0.872     2.11    -4.591068     19.80806     65.60991         5     0.718     0.411 -79.36   0
        36    645.1989    938.5846 300.0981743 +22.8321312     278.8165     70.06567      1.541     2.61    -4.503915     19.80806     33.83096         5     0.705     0.466 -17.66   0
        37    830.7711    934.9772 300.1571412 +22.8867880     345.9287     70.20889      1.145     2.51    -4.237041     19.80806     98.03542         8     0.850     0.703  18.53   0
        38    879.3074    925.7934 300.1752543 +22.8987157      296.157     70.11942      1.035     2.38    -4.248847     19.80806     68.19212         8     0.825     0.622  81.85   0
        39    730.7974    925.2303 300.1291735 +22.8539925      425.994     70.17311      1.106     1.78    -4.476871     19.80806     96.27408         6     0.665     0.565  78.65   0
        40    443.3612    921.7253 300.0408577 +22.7667022     2379.255     70.17311      1.128     2.04    -4.610705     19.80806     385.8749        19     0.961     0.836  79.36   0
        41    742.0675    922.2113 300.1336661 +22.8565088     225.8365     70.22677      1.115     2.12    -4.444496     19.80806     56.89135         6     0.708     0.543  42.83   0
        42    221.8525    910.5290 299.9756403 +22.6969663     261.7962       70.191      1.582     2.14    -3.784339     19.80806     42.79843         5     0.693     0.462  21.38   0
        43    168.3791    907.5828 299.9599857 +22.6800580      508.442       70.191      1.262     2.43    -3.012889     19.80806     82.15726         8     0.844     0.640 -89.74   0
        44    145.8425    904.5215 299.9539813 +22.6724103     928.0836       70.191      1.097     1.97    -3.069796     19.80806     154.3928        13     0.866     0.791 -26.50   0
        45   1017.3242    893.0549 300.2289333 +22.9307207      1233.58     70.24464      1.053     1.75    -4.633757     19.80806     268.3201        12     0.799     0.695  41.59   0
        46     20.3180    894.4586 299.9182766 +22.6318111       229.41     70.28038      1.176     3.50    -4.871692     19.80806     38.55886         5     0.737     0.479  14.24   0
        47    677.1429    892.5586 300.1231009 +22.8285201      297.835       70.191      1.437     5.10    -4.261366     19.80806     31.91933         8     1.103     0.666 -59.95   0
        48    971.5497    891.5414 300.2151543 +22.9165576     1192.155     70.26251      1.001     1.88    -4.452099     19.80806     206.2968        14     0.849     0.757 -27.73   0
        49    755.1993    885.6081 300.1496700 +22.8499504     436.7388     70.02983      1.149     1.95     -4.26478     19.80806     69.34826         6     0.661     0.588  63.36   0
        50    623.2543    879.6192 300.1105360 +22.8086358     2648.019       70.191      1.135     1.95    -4.170867     19.80806     461.0753        20     0.996     0.858  81.01   0
        51    112.8810    880.4675 299.9515715 +22.6556169     236.5153      70.3161      1.110     2.96     -3.77395     19.80806     50.16379         8     0.872     0.630 -61.88   0
        52    989.1131    879.7986 300.2244520 +22.9184553     252.0097     70.13731      1.341     3.91    -4.485372     19.80806     39.65438         5     0.824     0.532  50.51   0
        53    425.6467    876.6190 300.0500287 +22.7484539     250.0874     70.24464      1.098     3.07    -4.312863     19.80806     59.46035         6     0.850     0.476  86.81   0
        54    173.6095    873.8419 299.9725909 +22.6719632     923.9163     70.20889      1.216     2.32    -3.881861     19.80806     149.0877        11     0.843     0.774 -10.29   0
        55    643.6685    872.2280 300.1192962 +22.8126431     420.3795       70.191      1.254     3.11    -4.117422     19.80806     66.18394         8     0.906     0.603 -80.52   0
        56    192.7202    871.1673 299.9793985 +22.6769378     270.4932       70.191      1.292     1.90    -4.007936     19.80806     59.74171         6     0.669     0.608  28.03   0
        57    799.2915    859.3045 300.1719646 +22.8556342     2497.083     70.38749      1.101     1.88    -4.167338     19.80806     442.9398        19     0.941     0.836 -89.22   0
        58   1016.1131    859.3243 300.2395340 +22.9206762     574.0575     70.33395      1.054     1.75    -4.513808     19.80806     140.9116         9     0.758     0.636 -78.08   0
        59    207.6414    853.7391 299.9897056 +22.6764264     212.2504       70.191      0.975     2.47    -4.121428     19.80806     46.83384         5     0.727     0.434  69.49   0
        60    516.4116    852.0869 300.0862460 +22.7686707      274.049     70.15522      1.041     2.79    -4.230971     19.80806     60.68401         8     0.836     0.634 -39.20   0
        61    162.9328    850.0453 299.9770175 +22.6619383      552.627     70.20889      1.131     2.02     -4.08136     19.80806     129.5263         9     0.768     0.678  55.14   0
        62    312.4785    842.2370 300.0260295 +22.7046170     31291.49     70.17311      1.173     2.06     -4.11614     19.80806      4643.88        67     1.172     1.055  61.51   0
        63    577.9792    845.1292 300.1076683 +22.7851562      283.368     70.20889      1.092     2.76    -4.126631     19.80806     45.53561         6     0.731     0.564  38.51   0
        64    570.2930    841.1143 300.1065827 +22.7816978     943.6699     70.38749      1.278     2.31    -4.138303     19.80806     141.4879        13     0.900     0.804  48.92   0
        65    983.1508    840.0793 300.2355196 +22.9052673     636.3833     70.20889      1.136     2.15     -4.23042     19.80806     115.0074         9     0.789     0.700   2.24   0
        66    240.6668    840.5901 300.0042460 +22.6825782     191.0498     70.20889      0.893     3.68    -4.134254     19.80806     37.09685         5     0.946     0.437  15.56   0
        67    599.1713    837.0567 300.1168906 +22.7892017     526.1312     70.20889      1.105     2.70    -4.087387     19.80806     93.98731        10     0.939     0.687  43.12   0
        68    610.0076    835.3654 300.1208138 +22.7919689     422.9893     70.20889      1.110     2.34    -4.070775     19.80806     57.04889         7     0.702     0.646  41.67   0
        69    715.7094    831.6481 300.1549318 +22.8226224     386.5934     70.22677      1.310     3.87    -4.146726     19.80806     61.14305         7     0.991     0.616 -10.72   0
        70    362.1484    819.4466 300.0488864 +22.7129997     18244.27     70.24464      1.227     2.19    -3.914264     19.80806      2563.38        48     1.104     1.058  75.85   0
        71    753.0699    821.7733 300.1697802 +22.8309993     461.6646     70.20889      1.151     2.38     -4.16589     19.80806     83.41145         9     0.881     0.623  59.61   0
        72    376.4435    820.0069 300.0531490 +22.7174525     1051.251     70.22677      1.169     2.19    -3.986643     19.80806     180.8135        13     0.876     0.821  74.22   0
        73    885.0359    814.9526 300.2131131 +22.8686297     1588.821     70.22677      1.138     1.87    -4.080485     19.80806     334.4267        14     0.859     0.744   7.63   0
        74    373.2258    814.0855 300.0540750 +22.7147889     297.1698       70.191      1.050     2.34    -3.939145     19.80806     58.59897         6     0.732     0.607 -21.68   0
        75    643.1861    811.2723 300.1389810 +22.7950157     481.9325     70.20889      1.077     2.02    -4.070775     19.80806     107.2117         9     0.807     0.642 -79.95   0
        76    244.3133    811.4352 300.0148648 +22.6753185     498.7555       70.191      1.274     2.37    -4.117863     19.80806     62.19603         7     0.763     0.590  74.26   0
        77     49.3875    806.8720 299.9557998 +22.6154591     278.8334     70.22677      1.197     3.54    -4.337626     19.80806     50.48759         7     0.844     0.615  63.75   0
        78    490.3347    805.9088 300.0931582 +22.7476022      537.812     70.33395      1.429     3.63    -4.183517     19.80806     55.74706        13     1.017     0.852  21.00   0
        79    891.2797    802.9634 300.2189598 +22.8670617     355.1686     70.15522      1.135     2.57    -4.050848     19.80806     57.49712         7     0.717     0.646 -50.20   0
        80    348.2206    802.1812 300.0501732 +22.7038686     96.23557     70.20889      0.869     3.78    -3.772569     19.80806     35.40734         5     0.874     0.469  43.76   0
        81    436.1831    801.2333 300.0778348 +22.7300059     341.7887       70.191      1.235     2.76    -4.166382     19.80806     53.92647         5     0.818     0.451  46.80   0
        82     77.6840    800.7165 299.9665887 +22.6221967     239.1208     70.33395      0.979     2.45    -4.175189     19.80806     58.22779         5     0.727     0.434  73.50   0
        83    242.1880    795.9270 300.0192495 +22.6702358     306.2593     70.22677      1.302     2.89    -4.109907     19.80806     46.58078         7     0.779     0.694 -32.82   0
        84    535.4189    784.0796 300.1142870 +22.7548748     413.9977     70.20889      1.380     2.66    -4.100393     19.80806     58.61448         5     0.682     0.613 -24.24   0
        85    951.4141    780.2260 300.2451006 +22.8785702     2756.966     70.22677      1.119     1.87    -3.928013     19.80806     470.7365        23     1.089     0.806 -81.92   0
        86    556.9948    781.6013 300.1218071 +22.7606396     790.3542     70.02983      1.281     2.61    -4.085757     19.80806     111.7868        10     0.897     0.708  54.86   0
        87    476.6227    780.8259 300.0970526 +22.7362940     262.4694     70.17311      0.906     2.35    -4.053391     19.80806     40.31565         5     0.691     0.466  74.93   0
        88    939.8043    771.5593 300.2443011 +22.8726010     991.5497     70.22677      1.114     2.01    -3.907578     19.80806     172.9193        11     0.803     0.742  72.52   0
        89    302.9343    766.0815 300.0478381 +22.6799231     602.0401      70.3161      1.459     2.50      -4.0484     19.80806       86.175        10     0.876     0.739 -65.23   0
        90    766.0576    763.1453 300.1928995 +22.8180745     1485.936     70.26251      1.218     2.26    -4.119261     19.80806     213.5705        16     0.916     0.856 -10.72   0
        91    970.7986    761.7578 300.2571518 +22.8790816     954.7817     70.20889      1.092     1.68     -3.91798     19.80806     210.5391        12     0.869     0.707  34.48   0
        92    151.9259    750.0748 300.0061197 +22.6299875     379.8816     70.29824      1.363     2.79    -4.098056     19.80806      71.3512         7     0.940     0.513  57.15   0
        93    884.6578    739.9258 300.2374035 +22.8469835     85840.41     70.26251      1.199     2.03    -3.956409     19.80806     14394.63       108     1.208     1.125  70.37   0
        94    917.4357    732.7662 300.2499480 +22.8547578     225.8291     70.28038      1.057     2.65    -3.827312     19.80806     38.08165         5     0.704     0.465 -71.14   0
        95    737.1743    740.3188 300.1913286 +22.8028603     469.6203       70.191      1.251     3.16      -4.1166     19.80806     52.96574         7     0.707     0.684  33.64   0
        96    571.0764    729.0088 300.1432965 +22.7497810      898.163     70.17311      1.313     2.55    -3.900599     19.80806     120.7508        12     0.887     0.800 -27.28   0
        97    752.1131    726.0687 300.2006163 +22.8032525     5560.763     70.33395      1.291     2.26    -4.062034     19.80806     791.0919        34     1.149     1.020  65.69   0
        98    253.8712    721.4927 300.0470909 +22.6524101     2740.205     70.35181      1.274     2.22    -4.010741     19.80806     421.7327        19     0.971     0.896  61.06   0
        99    335.9748    719.5025 300.0732590 +22.6764902     674.2471     70.13731      1.398     2.63    -3.763391     19.80806     85.63647        12     0.995     0.720 -89.79   0
       100    544.0590    714.8691 300.1394875 +22.7376179     564.2573     70.22677      1.382     2.96    -3.833153     19.80806     63.24626         9     0.926     0.628  33.05   0
       101    535.7061    707.0800 300.1394215 +22.7328771     1769.725     70.33395      1.329     2.49    -3.746845     19.80806     252.8994        18     0.988     0.926  59.75   0
       102    525.9299    701.0153 300.1383518 +22.7282039     895.2745     70.22677      1.395     2.79    -3.679602     19.80806     103.8575        13     0.957     0.829 -27.97   0
       103    919.3428    697.8093 300.2619120 +22.8452948     430.1453       70.191      1.409     5.29    -3.631359     19.80806     45.39355         9     0.986     0.803 -50.51   0
       104    189.2874    697.2204 300.0349154 +22.6260600     306.4123     70.13732      1.147     2.23     -3.86168     19.80806     56.55983         6     0.715     0.537  41.23   0
       105    203.8690    695.6943 300.0399422 +22.6300012     228.3271     70.35181      1.143     2.23    -3.855773     19.80806     60.54261         6     0.703     0.614 -58.76   0
       106    229.2123    692.3996 300.0488886 +22.6366666     231.1826     70.02983      1.178     3.53    -3.832859     19.80806     43.03763         7     0.838     0.633  76.46   0
       107    972.5629    691.7697 300.2804663 +22.8595177     177.6603     70.22677      1.028     1.88    -3.578027     19.80806     53.45934         5     0.642     0.485  75.75   0
       108    260.6082    692.1562 300.0587246 +22.6460234      308.016     70.22677      1.392     3.57    -3.838558     19.80806     40.27846         6     0.718     0.666  47.91   0
       109    450.7063    690.6484 300.1183207 +22.7026554     1039.547     70.24464      1.370     2.58    -3.606412     19.80806      159.172        15     0.949     0.912 -52.51   0
       110    104.8887    685.7499 300.0124278 +22.5974271     11389.09     70.20889      1.267     2.16    -3.788139     19.80806     1789.568        42     1.120     1.048  64.99   0
       111     25.7965    687.3395 299.9873508 +22.5741272     558.6998       70.191      1.412     2.88    -4.474769     19.80806     65.28045         9     0.981     0.618 -45.35   0
       112    535.6981    685.9286 300.1462973 +22.7268077     584.5848     70.35181      1.362     2.32    -3.579899     19.80806     79.64472         9     0.814     0.678 -33.44   0
       113    953.7105    671.9598 300.2810313 +22.8481779     480.5789     70.20889      1.065     2.24    -3.442161     19.80806      90.1876         8     0.774     0.602 -61.70   0
       114    820.5322    670.4465 300.2400186 +22.8078101      215.345       70.191      1.168     3.82    -3.721535     19.80806     28.79096         6     1.018     0.411 -72.27   0
       115     50.8243    669.6631 300.0008689 +22.5765796     878.8444       70.191      1.615     4.47    -4.158441     19.80806     88.45195        16     1.345     0.818 -82.44   0
       116    116.9728    670.1873 300.0212411 +22.5965962      295.199     70.20889      1.170     3.12    -3.711156     19.80806     42.21624         5     0.796     0.490  49.96   0
       117    893.7571    664.4048 300.2648007 +22.8280334     590.0849     70.22677      1.584     2.74    -3.631205     19.80806     66.50489         9     0.867     0.702 -87.62   0
       118    455.8920    658.8351 300.1302782 +22.6950877     386.8881     70.17311      1.253     2.93    -3.388391     19.80806     61.50999         8     0.812     0.655 -46.93   0
       119    604.0145    657.0715 300.1769418 +22.7390272     245.1865     70.20889      1.206     2.60    -3.334529     19.80806      45.1656         5     0.653     0.542 -89.55   0
       120    651.1203    656.0327 300.1919434 +22.7528608     188.0143       70.191      1.134     3.54    -3.521228     19.80806     39.01758         6     0.901     0.470  59.99   0
       121    621.7380    655.3821 300.1830080 +22.7438596     366.2834     70.17311      1.520     4.47    -3.377928     19.80806     38.35621         7     0.821     0.724  76.38   0
       122    499.9957    654.8038 300.1453092 +22.7071664     466.4474     70.04775      1.316     3.07    -3.333766     19.80806     59.99209        11     0.932     0.796 -42.05   0
       123    933.5169    649.9415 300.2818962 +22.8358019      1930.01     70.29825      1.201     2.10    -3.442161     19.80806      288.718        19     0.982     0.917 -70.79   0
       124    465.6002    650.1431 300.1361242 +22.6955081     917.6526     70.11942      1.319     2.45    -3.320296     19.80806     126.6963        14     1.007     0.770  66.39   0
       125     27.6707    643.9465 300.0020406 +22.5622564     2884.376     70.20889      1.257     2.16    -4.183939     19.80806     444.7321        21     1.022     0.904  63.35   0
       126    328.9392    636.9706 300.0979076 +22.6507145     5446.945     70.24464      1.351     2.41    -3.508198     19.80806     743.3179        33     1.153     1.050  54.05   0
       127    451.3291    633.9377 300.1369536 +22.6865773     5303.478     70.24464      1.376     2.60    -3.231401     19.80806     675.7126        29     1.110     1.038  66.53   0
       128    862.8495    627.6040 300.2671345 +22.8082012     1201.763       70.191      1.251     2.40    -3.776671     19.80806     165.0782        14     1.050     0.743  81.35   0
       129    947.4787    624.9859 300.2943625 +22.8328221     7064.827     70.22677      1.212     2.19    -3.442161     19.80806     988.1329        31     1.028     0.965  64.10   0
       130    511.9235    623.5427 300.1591839 +22.7017780     6756.252     70.24464      1.380     2.65    -3.083049     19.80806     817.1542        31     1.121     1.074 -71.35   0
       131    239.5249    619.0527 300.0759399 +22.6187360     833.4224     70.20889      1.389     2.72    -3.712161     19.80806     105.6816        12     1.029     0.711  52.54   0
       132    681.6760    619.4096 300.2133640 +22.7515171     237.9359       70.191      1.251     4.02    -3.477936     19.80806     34.63243         5     0.960     0.482  -6.65   0
       133    486.1941    616.7226 300.1533960 +22.6921014     236.0175     70.11942      1.234     2.54    -3.068578     19.80806     44.07759         6     0.711     0.614  73.68   0
       134    443.6187    611.7224 300.1417772 +22.6778915     2495.085     70.20889      1.379     2.62    -3.101049     19.80806     329.6726        23     1.085     0.988 -87.05   0
       135    786.2818    611.5837 300.2484869 +22.7806430     316.6647       70.191      1.101     2.53    -3.421586     19.80806     62.22314         9     0.845     0.701  26.29   0
       136    421.7823    610.3772 300.1354227 +22.6709528     793.0429       70.191      1.559     3.32    -3.124497     19.80806     93.42661        15     1.128     0.913 -69.00   0
       137    175.9965    609.7623 300.0592200 +22.5969999     326.8726     70.24464      1.256     3.20    -3.707634     19.80806     51.70849        10     0.868     0.808  37.22   0
       138    863.2383    606.9523 300.2739697 +22.8023887     954.3657     70.22677      1.408     2.66    -3.758241     19.80806     115.6447        15     0.988     0.874 -10.64   0
       139    743.9548    604.4645 300.2376170 +22.7659063     425.6347     70.22677      1.326     2.92    -3.611951     19.80806     63.64171         9     0.867     0.739  78.03   0
       140    560.1577    599.1790 300.1821133 +22.7092597     117860.2     70.24464      1.407     2.72     -2.85304     19.80806     12242.47       135     1.368     1.331  83.43   0
       141    246.2965    599.3792 300.0844395 +22.6151282      2129.23     70.11942      1.379     2.62    -3.605666     19.80806     228.4235        23     1.083     1.037  60.72   0
       142    812.1375    595.3607 300.2618156 +22.7837391     277.1158     70.20889      1.212     3.41    -3.311923     19.80806     33.66024         5     0.763     0.440  18.01   0
       143    450.8682    579.9136 300.1543718 +22.6709425     1498.146     70.29825      1.459     2.85    -3.013105     19.80806     190.1165        20     1.443     0.946  83.56   0
       144    847.6104    565.4152 300.2826021 +22.7857775     1014.541     70.11942      1.323     2.66    -3.356676     19.80806     121.1197        16     1.088     0.828 -79.35   0
       145    719.0317    563.2461 300.2432532 +22.7466010     1389.217     70.24464      1.367     2.73    -3.080839     19.80806     170.8557        18     1.030     0.975  13.55   0
       146    963.2659    560.0801 300.3203836 +22.8189155     335.4963      70.3161      1.254     4.31    -3.407745     19.80806     45.12229         7     0.784     0.673 -87.35   0
       147    506.2802    559.3186 300.1783042 +22.6816596     449.9431     70.35181      1.363     4.47    -2.818951     19.80806     48.73915        10     1.011     0.852  -1.44   0
       148    976.0264    556.9030 300.3253945 +22.8218277     759.9166     70.13731      1.235     1.98    -3.405638     19.80806     136.8377        12     1.086     0.653  70.81   0
       149    848.0586    555.7324 300.2858890 +22.7831317     1331.741     70.24464      1.463     3.25    -3.294318     19.80806     147.2767        18     1.210     0.876  84.38   0
       150    961.9254    556.3566 300.3211759 +22.8174443     424.7227       70.191      1.380     2.73    -3.404936     19.80806     50.51625         7     0.802     0.609  29.41   0
       151    601.0903    553.6420 300.2096541 +22.7084719     352.6089     70.20889      1.333     4.95    -2.538282     19.80806     46.76379         9     1.095     0.699  39.10   0
       152    885.9760    550.5913 300.2993760 +22.7930227      2597.94     70.20889      1.376     2.59    -3.371529     19.80806      328.867        24     1.120     0.998 -51.56   0
       153    547.0364    546.3026 300.1952163 +22.6901516     224.7809     70.20889      1.381     3.88    -2.617807     19.80806     34.96622         5     0.853     0.506  50.43   0
       154    118.1842    541.2700 300.0635214 +22.5600078     589.1124     70.22677      1.390     3.55    -3.378944     19.80806     59.87793        12     1.029     0.842  45.69   0
       155    977.7762    541.0850 300.3310813 +22.8178091     433.4899       70.191      1.269     2.57    -3.395661     19.80806     61.95636         7     0.700     0.656  10.21   0
       156    719.0004    525.3126 300.2555718 +22.7357027     339.8066     70.10151      1.760     3.86    -2.817952     19.80806     32.97225         5     0.837     0.510  52.03   0
       157    659.7241    521.2032 300.2384494 +22.7167475     403.9947     70.11942      1.511     3.58    -2.479564     19.80806     45.22563         8     0.905     0.712 -22.89   0
       158    973.9542    513.3960 300.3388883 +22.8087106      288.258       70.191      1.368     3.91     -3.38237     19.80806     49.60418         9     0.967     0.834  11.68   0
       159    719.9573    513.5518 300.2596917 +22.7326135     595.2775     70.22677      1.660     3.21    -2.796372     19.80806     56.46158         8     0.874     0.649   7.16   0
       160    877.4642    509.6594 300.3100258 +22.7787170     569.9376     70.24464      1.338     3.24    -3.167021     19.80806     63.75648        13     1.011     0.846 -86.96   0
       161    861.9691    505.8993 300.3064189 +22.7729924     403.9748       70.191      1.391     3.53    -3.096327     19.80806      50.0794         8     0.948     0.599 -67.24   0
       162    606.1916    504.0393 300.2273615 +22.6957665     1865.376     70.22677      1.463     3.04    -2.416521     19.80806     172.5462        22     1.105     1.071  74.51   0
       163     82.1347    495.8043 300.0670980 +22.5361507     245.1715     70.22677      1.182     2.94    -3.307363     19.80806     40.47215         5     0.765     0.503  49.76   0
       164   1017.2960    482.7158 300.3623721 +22.8128859     826.7184     70.38749      1.231     2.25    -3.419536     19.80806     118.8402        12     0.921     0.718  64.35   0
       165    975.8308    481.5312 300.3498279 +22.8001200     558.6686       70.191      1.174     2.80    -3.370408     19.80806     78.74289        11     0.960     0.708 -71.33   0
       166    889.5124    482.2736 300.3226794 +22.7744635     371.3957     70.35181      1.159     3.35     -3.10694     19.80806     48.89001         5     0.742     0.438 -66.28   0
       167    716.5624    477.8674 300.2702295 +22.7213512      595.042       70.191      1.495     3.57    -2.692126     19.80806     68.02641        12     1.044     0.819  49.97   0
       168    220.8663    476.3732 300.1165089 +22.5722229     387.9215       70.191      1.373     3.60    -2.872084     19.80806     43.53431         8     0.874     0.655 -66.02   0
       169    283.0618    472.1704 300.1372043 +22.5896829     2174.238     70.22677      1.449     2.93    -2.762913     19.80806     229.3015        25     1.145     1.061  68.70   0
       170   1015.9923    470.1454 300.3660499 +22.8088840     2541.244     70.20889      1.304     2.43    -3.406336     19.80806     355.7936        25     1.065     0.999  22.79   0
       171    230.3645    466.9911 300.1225085 +22.5723828     4369.306     70.20889      1.415     2.71    -2.883861     19.80806     524.4507        30     1.192     1.033  70.30   0
       172    371.0756    461.1671 300.1681423 +22.6129359      2722.05     70.20889      1.465     2.81    -2.802402     19.80806     275.0477        28     1.219     1.058  75.05   0
       173    995.9157    461.1607 300.3627088 +22.8002870     1106.733     70.17311      1.268     2.62    -3.358335     19.80806     142.9027        13     0.940     0.781  86.51   0
       174    615.2003    457.6599 300.2452348 +22.6851561     10532.21     70.15522      1.508     3.00    -2.387398     19.80806     1076.039        43     1.245     1.202  69.86   0
       175    632.9321    458.0815 300.2506178 +22.6905944     415.0246      70.3161      2.048     4.83    -2.389364     19.80806     34.68726         6     1.234     0.535 -12.74   0
       176    948.7936    440.0007 300.3548919 +22.7800877      482.541     70.02983      1.385     2.73    -3.199658     19.80806     67.52872         9     0.844     0.789 -78.55   0
       177    485.8640    439.6536 300.2108345 +22.6411982     201.9518     70.24464      1.157     3.35    -2.575764     19.80806     33.88703         5     0.772     0.420  20.19   0
       178    169.9926    437.9917 300.1131697 +22.5459470     1201.375     70.06567      1.474     2.99    -3.171083     19.80806     133.6625        21     1.136     1.058  67.49   0
       179    555.9158    427.0805 300.2367163 +22.6585999     3805.256     70.35181      1.482     2.96    -2.398167     19.80806      395.581        27     1.189     1.078  77.16   0
       180    969.2859    427.2509 300.3654225 +22.7825657     588.0133     70.20889      1.296     2.89     -3.21602     19.80806     80.45789        13     1.023     0.773  82.17   0
       181    270.9680    426.5917 300.1482512 +22.5729801     318.7552     70.20889      1.354     4.74    -2.889402     19.80806     46.39681         8     0.965     0.854  87.66   0
       182    128.6983    420.0970 300.1061536 +22.5284213     383.4473     70.38749      1.583     3.70    -3.312207     19.80806     51.90018         6     1.131     0.390  76.86   0
       183    669.5695    417.5374 300.2751953 +22.6899406     267.3551     70.22677      1.397     3.94     -2.57981     19.80806     31.09669         5     0.938     0.518 -45.23   0
       184    760.2023    416.1745 300.3038636 +22.7167206     689.9129     70.15522      1.489     2.88    -2.829692     19.80806     72.02042        10     0.951     0.696  15.50   0
       185    462.6024    413.5659 300.2120718 +22.6267345     3617.562     70.17311      1.528     2.82    -2.582711     19.80806     397.5038        30     1.232     1.121  73.27   0
       186    854.3583    407.6296 300.3359739 +22.7424884     863.4211     70.22677      1.500     3.45    -2.843948     19.80806      83.0385        15     1.071     0.894 -86.24   0
       187    951.5035    408.0018 300.3661315 +22.7717073     295.8144     70.11942      1.224     4.19    -3.079507     19.80806     38.51628         6     0.933     0.536 -18.02   0
       188    447.2319    402.0905 300.2110176 +22.6188310     264.0264     70.15522      1.313     3.86    -2.601226     19.80806     47.44776         5     0.856     0.500 -48.36   0
       189    827.5050    395.5351 300.3315348 +22.7309665     294.2402     70.33395      1.266     3.75    -2.676593     19.80806     34.69289         6     0.992     0.407 -71.30   0
       190    349.9900    392.7164 300.1838199 +22.5869711     1518.406     70.15522      1.535     2.90    -2.700949     19.80806     154.6153        21     1.167     1.040  73.61   0
       191     68.8131    390.3497 300.0972149 +22.5019163     659.8624     70.26251      1.396     2.25    -3.110093     19.80806     86.31016        10     0.806     0.750 -25.80   0
       192    319.4272    382.1963 300.1777341 +22.5747838     17207.26     70.17311      1.498     2.92    -2.723755     19.80806     1872.932        53     1.309     1.204  73.91   0
       193    854.1738    379.3575 300.3450992 +22.7343124     683.6978     70.22677      1.312     3.19    -2.679256     19.80806     88.21521        13     1.029     0.843  60.57   0
       194     15.8672    370.1900 300.0873210 +22.4802429     2863.436     70.20889      1.384     2.55    -2.814548     19.80806     348.9413        26     1.161     1.007 -85.56   0
       195    193.3474    368.5475 300.1429800 +22.5330388     211.0622     70.24464      1.408     4.55    -3.029268     19.80806     29.13412         6     1.216     0.484  45.44   0
       196    769.3892    368.2742 300.3222831 +22.7057183     296.7496     70.22677      1.260     4.02    -2.595174     19.80806     39.20172         6     0.875     0.528 -53.04   0
       197    418.2002    367.5732 300.2131975 +22.6002173     350.9192     70.17311      1.684     5.24    -2.626245     19.80806     32.19632         7     0.901     0.861 -37.46   0
       198    729.7968    361.6507 300.3121019 +22.6919486     1047.711     70.20889      1.473     3.18     -2.59855     19.80806     107.1845        17     1.062     0.964 -85.27   0
       199    944.8043    354.2564 300.3814990 +22.7542588     361.3006     70.17311      1.243     3.42     -2.69961     19.80806     45.32925         6     0.753     0.561 -42.88   0
       200    391.4942    346.7990 300.2116376 +22.5862453     1296.024     70.10151      1.699     3.97    -2.628527     19.80806     113.0585        19     1.235     1.006  73.86   0
       201    830.5135    339.0415 300.3508193 +22.7156410     308.3672       70.191      1.428     3.71    -2.525841     19.80806     39.23273         8     0.823     0.699  -5.12   0
       202    712.2217    336.9295 300.3146562 +22.6795810     291.5189     70.22677      1.660     6.15    -2.542648     19.80806      31.8539         7     1.172     0.909 -53.41   0
       203    467.5282    325.8171 300.2421004 +22.6030272     605.3618     70.20889      1.588     2.95    -2.585835     19.80806      85.4178        10     0.948     0.856  24.63   0
       204    712.1169    317.5667 300.3209108 +22.6739888     1174.287     70.17311      1.531     3.47    -2.540291     19.80806     120.5207        19     1.202     0.959  29.33   0
       205    973.3139    311.7828 300.4041794 +22.7505956     1813.263     70.15522      1.343     2.51    -2.691202     19.80806     225.1477        21     1.146     0.957  24.84   0
       206    420.8177    301.9094 300.2353325 +22.5821568     472.8604     70.13731      1.403     2.74    -2.620669     19.80806     50.64571         5     0.761     0.501 -34.16   0
       207    126.7640    296.2652 300.1457624 +22.4923255     306.7575     70.20889      1.397     3.22    -2.823488     19.80806     53.17742         7     0.937     0.656  76.15   0
       208     95.6320    295.7191 300.1362696 +22.4828268       781.45     70.20889      1.638     4.67    -2.841902     19.80806      78.2499        17     1.327     0.974 -75.38   0
       209    989.1341    292.2569 300.4154517 +22.7497234      233.567     70.26251      1.184     2.92    -2.576408     19.80806     48.61504         6     0.757     0.584 -87.89   0
       210    179.7453    288.3405 300.1647948 +22.5059494     291.4283     70.26251      1.305     3.46    -2.733465     19.80806     36.17986         6     0.715     0.646  76.02   0
       211    783.8701    279.1292 300.3557397 +22.6844528     388.4913     70.28038      1.527     3.08    -2.456386     19.80806     59.91499         7     0.761     0.668   7.41   0
       212    881.8580    268.0227 300.3898778 +22.7106223     1218.709     70.20889      1.443     3.07    -2.537007     19.80806     127.9547        19     1.079     0.961  60.04   0
       213    300.7999    265.5177 300.2098260 +22.5357162     1204.795      70.0836      1.520     3.13    -2.428835     19.80806      160.806        18     1.136     0.935  72.91   0
       214    378.5722    260.7785 300.2355459 +22.5576819     572.8472     70.20889      1.624     4.16    -2.420497     19.80806     54.34044        10     0.880     0.867  80.97   0
       215    195.4393    253.0227 300.1811353 +22.5005253     395.8038     70.24464      1.453     3.93     -2.41042     19.80806     47.52056         6     0.824     0.635  61.93   0
       216    732.9103    249.5099 300.3494810 +22.6606731       866.62     70.36965      1.511     3.17    -2.504098     19.80806      113.338        16     1.074     0.963  51.63   0
       217    798.2352    249.3650 300.3698771 +22.6802067     234.6557     70.28038      1.179     2.27    -2.292085     19.80806     41.65908         5     0.692     0.460  15.94   0
       218   1004.3168    241.6420 300.4366173 +22.7397240     459.3466     70.17311      1.231     3.08    -2.209845     19.80806     68.70392        10     0.923     0.810  30.96   0
       219    737.6971    241.4264 300.3535958 +22.6597855     319.4576     70.13732      1.354     4.45    -2.490477     19.80806     39.00192         6     0.917     0.613  66.83   0
       220    657.8152    240.2390 300.3291049 +22.6355043     720.4541     70.22677      1.435     3.61    -2.565507     19.80806     77.57163        12     1.090     0.739  82.89   0
       221    583.9587    232.3121 300.3086855 +22.6110900     628.0958     70.20889      1.418     2.64    -2.639327     19.80806     69.63843        10     0.876     0.712 -53.16   0
       222    853.0003    231.5205 300.3927333 +22.6914882     850.0359      70.0836      1.493     3.05    -2.468816     19.80806     86.78748        16     1.091     0.888  36.81   0
       223    865.2952    230.7300 300.3968214 +22.6949445     511.9102      70.3161      1.610     2.70    -2.531602     19.80806     61.74532         7     0.863     0.546 -61.44   0
       224    981.8024    220.7370 300.4363825 +22.7269720     572.0647     70.20889      1.295     3.54    -2.213215     19.80806     82.72862        11     1.115     0.671 -82.33   0
       225      5.7969    217.6213 300.1337209 +22.4334683       413.32     70.15522      1.776     4.99    -2.874573     19.80806     40.96827         5     1.011     0.696  87.20  16
       226    216.2345    214.4155 300.2001273 +22.4956859     461.9543     70.20889      1.498     3.16     -2.05292     19.80806     54.80917         9     0.890     0.675 -73.05   0
       227     77.8427    209.3970 300.1587618 +22.4527278     1207.352     70.22677      1.453     3.21    -2.447164     19.80806     134.1488        20     1.215     0.937 -81.15   0
       228    900.7402    205.8857 300.4159319 +22.6984232     301.5502      70.3161      1.384     4.70    -2.450333     19.80806     43.40665         8     1.012     0.621  84.42   0
       229     27.3710    206.0695 300.1441681 +22.4366289     336.8576     70.20889      1.264     2.82    -2.631186     19.80806      58.4935         7     0.842     0.620  14.57   0
       230    235.2698    202.6386 300.2098648 +22.4980161     3154.927     70.17311      1.475     2.61    -2.016406     19.80806     370.2978        28     1.214     1.065  76.92   0
       231     19.4227    196.9072 300.1446732 +22.4316158     669.5577     70.13731      1.287     3.01    -2.554333     19.80806     83.29351        11     1.002     0.704  61.97   0
       232    218.7473    193.2586 300.2077738 +22.4903685     325.4509     70.26251      1.278     3.79    -2.035597     19.80806     51.68417         6     1.057     0.391  78.85   0
       233    879.1058    183.6613 300.4164015 +22.6855556       2011.5     70.29825      1.459     2.88    -2.379385     19.80806      226.631        23     1.119     1.017  65.35   0
       234    982.7449    182.4140 300.4491139 +22.7162387     1688.678     70.20889      1.335     2.58    -2.117007     19.80806      221.212        20     1.037     0.968  15.59   0
       235    429.3677    179.2343 300.2778086 +22.5495048     276.5446     70.24464      1.422     4.09    -2.355225     19.80806     42.02343         7     1.025     0.467 -82.41   0
       236    353.2444    171.0231 300.2567984 +22.5243228     469.0802     70.26251      2.178     4.19    -2.239527     19.80806     35.45338         6     0.903     0.556  -0.64   0
       237    407.8097    167.2358 300.2749965 +22.5395964     316.2132     70.20889      1.863     5.46    -2.292099     19.80806      33.7114         6     1.290     0.652  89.57   0
       238    480.0951    166.3347 300.2977750 +22.5610090     1020.584     70.33395      1.553     4.25    -2.425529     19.80806     99.36199        15     1.222     0.787 -82.23   0
       239     16.6259    167.3027 300.1534105 +22.4222847      193.764     70.15522      1.145     4.43     -2.19227     19.80806     29.56487         5     0.803     0.715  28.03   0
       240    254.1331    146.3867 300.2339796 +22.4875297     3364.483     70.20889      1.441     2.99    -2.047096     19.80806     362.9395        26     1.182     1.033  85.20   0
       241    105.3110    145.9977 300.1878642 +22.4427798     363.1241     70.11942      1.235     3.13    -2.111334     19.80806     43.26918         7     0.750     0.633  89.03   0
       242    225.6835    140.3981 300.2270804 +22.4772787     338.8175     70.11942      1.351     3.51    -2.032815     19.80806     31.81647         5     1.072     0.332  20.66   0
       243     15.6079    136.3149 300.1631477 +22.4130899     260.2612     70.13732      1.278     3.50    -2.118574     19.80806     36.73083         5     0.770     0.459 -74.48   0
       244    500.0953    131.6145 300.3152627 +22.5570338      3705.13     70.13731      1.582     3.08    -2.290107     19.80806     363.0855        32     1.246     1.187  88.43   0
       245    385.6349    131.4772 300.2797015 +22.5226815     359.3703     70.17311      1.394     4.10    -2.253454     19.80806     37.34567        10     0.985     0.755   0.13   0
       246    556.9462    125.6679 300.3348834 +22.5723656     321.5152     70.22677      1.696     4.67    -2.329632     19.80806     30.25246         5     1.029     0.600 -71.87   0
       247    752.2880    120.6925 300.3973194 +22.6294699      603.178     70.36965      1.915     5.59     -2.09746     19.80806     43.19039         9     1.249     0.706  63.42   0
       248    844.7328    120.0956 300.4263147 +22.6569909     338.8009     70.33395      1.583     4.36    -2.146844     19.80806     36.38655         7     1.036     0.523  26.45   0
       249    193.1389    115.4851 300.2250488 +22.4603680     176.5838      70.3161      1.260     4.22    -2.070141     19.80806       43.519         6     0.965     0.556 -69.48   0
       250    628.4473    111.6049 300.3617023 +22.5897536     3566.885       70.191      1.535     2.98    -2.209893     19.80806     408.0805        30     1.213     1.143  68.55   0
       251    403.3944    110.7095 300.2919621 +22.5220429     874.4856     70.11942      1.538     3.46    -2.234429     19.80806     92.25871        16     1.162     0.925  33.75   0
       252    669.4343    109.0581 300.3752900 +22.6013034     504.0571     70.22677      1.453     4.48    -2.233994     19.80806     52.68869        11     1.127     0.706  16.51   0
       253    152.2439    103.0765 300.2163674 +22.4445414     284.3582       70.191      1.504     5.00    -2.120137     19.80806     42.94428         8     0.953     0.743 -70.28   0
       254    955.5198    102.2535 300.4666345 +22.6850418      324.682     70.24464      1.173     3.13    -2.005721     19.80806     49.48342         6     0.705     0.643  53.95   0
       255    672.6359     96.3721 300.3804022 +22.5986178     1603.555     70.22677      1.638     3.43    -2.180987     19.80806     168.1939        23     1.214     1.108  46.34   0
       256    687.1677     94.9633 300.3853843 +22.6025671     464.7898     70.22677      1.406     2.32    -2.163021     19.80806     65.11824         5     0.774     0.460 -29.12   0
       257    759.0235     87.9019 300.4100548 +22.6220649     946.5486     70.13731      1.528     4.06    -2.103739     19.80806     86.71397        16     1.188     0.959  51.67   0
       258    697.1699     81.1168 300.3929906 +22.6015852     579.0102     70.22677      1.769     3.07     -2.15385     19.80806     63.31211         9     0.911     0.815  17.66   0
       259    502.7722     80.5401 300.3326637 +22.5431676     705.8094     70.20889      1.543     3.12    -2.061454     19.80806     75.10071        15     1.034     0.914  53.20   0
       260     75.4405     79.9764 300.2000024 +22.4148755     385.5266     70.24464      1.632     3.97     -2.14462     19.80806     48.98119         6     1.095     0.413  74.21   0
       261    406.7149     78.6780 300.3033849 +22.5138406     609.4888      70.3161      1.585     4.49    -2.207296     19.80806     55.35992        13     1.070     0.975  -3.89   0
       262    178.0231     68.9706 300.2354391 +22.4424845     2064.115     70.20889      1.425     2.83    -2.002881     19.80806     245.8393        24     1.195     0.997  59.55   0
       263    746.2029     69.1712 300.4121368 +22.6128417     396.7049     70.17311      1.763     4.69    -2.116995     19.80806     43.71107         8     0.955     0.713 -23.72   0
       264    294.0210     60.9329 300.2740978 +22.4749604     667.4323       70.191      1.418     3.33    -2.147592     19.80806     84.19183        13     1.027     0.873  82.53   0
       265    738.9607     61.0149 300.4125264 +22.6083282     545.9478     70.22677      1.430     4.78    -2.122577     19.80806     63.08198        13     1.297     0.736  16.08   0
       266    777.5036     56.6157 300.4259595 +22.6186092     440.0208     70.11942      1.679     4.26    -2.125368     19.80806     34.78561         6     1.066     0.485  82.67   0
       267    700.7997     55.7218 300.4023579 +22.5953754     355.1112      70.0836      1.617     5.00    -2.156959     19.80806     34.39972         6     0.898     0.789 -69.97   0
       268    797.0474     52.2869 300.4334523 +22.6232189     1188.648       70.191      1.365     2.63    -2.128856     19.80806     147.6632        20     1.142     0.937  30.62   0
       269    502.6777     50.9830 300.3422208 +22.5346497     238.6057     70.20889      1.315     5.70    -2.064451     19.80806     32.06128         8     1.020     0.896  34.60   0
       270    180.3335     47.5732 300.2430964 +22.4370358     728.2952       70.191      1.721     5.64    -1.902383     19.80806     72.93112        15     1.388     0.817  88.52   0
       271    971.8581     45.5883 300.4901089 +22.6736421     418.6673     70.17311      1.441     3.65    -1.996761     19.80806     58.47166        10     1.041     0.754  13.92   0
       272    745.7170     44.9675 300.4198355 +22.6057403     552.0642       70.191      1.481     3.69     -2.13374     19.80806     70.47935        10     0.926     0.797  29.62   0
       273    598.1229     29.6321 300.3788498 +22.5571170     468.9294       70.191      1.660     4.83    -2.035248     19.80806     51.15019        12     1.143     1.038 -76.72   0
       274    207.5847     27.1878 300.2581750 +22.4393559     226.7445     70.15522      1.515     3.23    -1.356845     19.80806     30.52058         5     0.733     0.453 -70.42   0
       275    760.6793     24.4046 300.4311650 +22.6043121     555.7764     70.11942      1.633     4.37    -2.148392     19.80806     45.05312        10     0.925     0.818  66.24   0
       276    569.7669     22.7921 300.3722416 +22.5466556     1128.715     70.20889      1.496     2.98    -2.120135     19.80806     122.3102        13     1.016     0.826  79.14   0
       277    292.7746     20.2729 300.2868960 +22.4629128      426.387     70.24464      1.366     4.16     -2.09884     19.80806     57.96111         9     1.055     0.703 -76.19   0
       278      7.0649     18.8996 300.1985759 +22.3768396     463.7397     70.29824      1.289     3.16    -2.238078     19.80806     62.07409        10     0.910     0.737  76.87   0
       279    151.0588   1021.2717 299.9175960 +22.7074169     1323.386     65.91056      6.646    10.85     11.70552     19.80806     41.69969        25     1.924     1.705 -17.28  26
       280    659.2744   1018.6609 300.0764843 +22.8593160     3961.134     70.24464      1.134     2.04    -4.528147     19.80806      627.901        26     0.988     0.889  44.16  16
       281     99.4315    991.4720 299.9112638 +22.6833682     1392.812     70.20889     12.396    11.69     7.085141     19.80806     72.01468        31     3.054     1.485  89.41   3
       282    250.6270   1012.9012 299.9512560 +22.7349376      232.874     70.15522      1.093     2.93    0.5651874     19.80806     49.11735         7     0.804     0.608 -70.80   0
