#   1 NUMBER                 Running object number                                     
#   2 X_IMAGE                Object position along x                                    [pixel]
#   3 Y_IMAGE                Object position along y                                    [pixel]
#   4 ALPHA_J2000            Right ascension of barycenter (J2000)                      [deg]
#   5 DELTA_J2000            Declination of barycenter (J2000)                          [deg]
#   6 FLUX_APER              Flux vector within fixed circular aperture(s)              [count]
#   7 FLUXERR_APER           RMS error vector for aperture flux(es)                     [count]
#   8 FLUX_RADIUS            Fraction-of-light radii                                    [pixel]
#   9 FWHM_IMAGE             FWHM assuming a gaussian core                              [pixel]
#  10 BACKGROUND             Background at centroid position                            [count]
#  11 THRESHOLD              Detection threshold above background                       [count]
#  12 FLUX_MAX               Peak flux above background                                 [count]
#  13 ISOAREA_IMAGE          Isophotal area above Analysis threshold                    [pixel**2]
#  14 A_IMAGE                Profile RMS along major axis                               [pixel]
#  15 B_IMAGE                Profile RMS along minor axis                               [pixel]
#  16 THETA_IMAGE            Position angle (CCW/x)                                     [deg]
#  17 FLAGS                  Extraction flags                                          
         1    580.7039     10.8275 300.3953368 +22.5287382     714.5076     70.00739      1.834     5.05    -1.175324     19.77137     62.80771        16     1.517     1.092  12.36   0
         2    370.3431      2.6704 300.3325174 +22.4633459      4011.86     61.40211      1.764     4.09    -1.888731     19.77137     344.2213        32     1.495     1.165   1.56  24
         3    790.9164   1013.9750 300.1347016 +22.8798767     6383.587     70.04312      1.354     2.41    -4.035196     19.77137     843.8633        38     1.151     1.120 -16.15   0
         4    116.1056   1023.3005 299.9217206 +22.6798629     684.6036     56.67731      6.850     8.98    -1.311531     19.77137     37.28423        15     2.780     0.809  23.54  26
         5    101.8501   1022.6931 299.9174902 +22.6754041     659.5286     59.68727      3.206     4.93    -1.322497     19.77137     28.62665         7     1.163     0.592 -53.74  24
         6     94.9796   1022.8398 299.9153082 +22.6733811     625.8298     58.92796      3.073     5.51    -1.413742     19.77137     37.09055         8     1.027     0.834  68.44  25
         7     89.0962   1023.8430 299.9131539 +22.6719000     406.9647     53.49826      2.521     3.83    -1.649523     19.77137     42.65446         6     1.228     0.343  -5.89  25
         8    836.7274   1013.9251 300.1489929 +22.8936121     204.6284     70.13236      1.190     3.79     -3.99012     19.77137     37.05014         5     0.814     0.508 -40.49   0
         9    982.1260   1013.4384 300.1944779 +22.9371038     346.0199     70.02526      1.277     2.47    -5.087209     19.77137     47.65604         5     0.722     0.430  25.21   0
        10    102.7305   1005.9018 299.9232330 +22.6708582     486.3561     70.20367      1.345     2.57    -1.832327     19.77137     55.59336         8     0.806     0.634 -45.00   0
        11    842.3098   1001.1015 300.1549102 +22.8916077     238.8268      70.2571      1.496     3.90    -4.041501     19.77137      35.9881         6     1.349     0.323  75.37   0
        12    799.2991    995.8662 300.1432126 +22.8771968     776.0482     70.16802      1.334     2.87    -4.072708     19.77137     86.18414        12     0.964     0.775  69.62   0
        13     92.6610    997.0225 299.9229972 +22.6652877     318.5954     70.06098      1.285     3.83    -2.230766     19.77137     35.12802         5     0.889     0.473 -88.16   0
        14    837.7235    989.4720 300.1572692 +22.8868940     439.7058     70.16802      1.184     3.00    -4.097105     19.77137     61.22549         7     0.928     0.480  -9.83   0
        15    885.7902    979.9828 300.1753414 +22.8985952     396.9549     70.02526      1.584     3.46    -4.390882     19.77137     57.38149         5     1.313     0.263  49.10   0
        16    737.0664    979.4673 300.1291659 +22.8538122     505.3913     70.13236      2.030     4.77     -3.96263     19.77137      47.8193         9     1.153     0.639  53.45   0
        17    450.1236    976.3071 300.0408674 +22.7667504     2437.046     70.22148      1.450     2.69    -4.711774     19.77137     262.3395        26     1.143     1.076  62.30   0
        18    748.0623    976.6158 300.1335201 +22.8562946      274.354     70.04312      1.370     4.76     -3.98903     19.77137      45.8839         9     1.027     0.626  50.83   0
        19    175.3492    962.3741 299.9599710 +22.6802099     453.2255     70.09668      1.247     3.06     -3.17793     19.77137      59.6647         9     0.921     0.696  -8.80   0
        20     83.8219    960.6629 299.9320931 +22.6522138     184.5708     70.06098      1.070     3.31    -3.374628     19.77137     43.84624         5     0.764     0.692 -62.63   0
        21    152.5308    959.0560 299.9539614 +22.6724021     903.0244     70.09668      1.362     2.69    -3.264031     19.77137      123.817        16     1.064     0.912  20.46   0
        22    798.6946    952.3164 300.1572094 +22.8645185     1162.255      70.2571      0.736     1.01     -4.10317     19.77137     518.6174         5     0.506     0.463 -11.62   0
        23   1023.4697    947.6368 300.2288061 +22.9306168     882.9393     55.63032      1.039     2.52    -4.416701     19.77137      168.473        10     0.918     0.635  88.20  24
        24    978.2012    946.2556 300.2151381 +22.9166405     1207.478     70.00739      1.236     2.34     -4.51508     19.77137     175.9357        14     0.888     0.823  42.65   0
        25    184.1693    940.7509 299.9697533 +22.6766633     154.7297     70.11452      1.239     4.27    -3.838276     19.77137     29.94934         6     0.782     0.665  66.77   0
        26    761.7352    940.2133 300.1496359 +22.8499531     307.8345     70.04312      1.452     5.20    -4.086832     19.77137     34.45193        10     1.110     0.688 -15.86   0
        27    629.8846    934.3224 300.1104892 +22.8086860     2807.766     70.18584      1.507     2.88    -4.146668     19.77137     298.3218        25     1.146     1.077  26.31   0
        28    432.1424    931.4883 300.0498695 +22.7484985     322.4503     70.15019      1.136     3.44    -4.363376     19.77137     49.13849         5     1.002     0.341  85.28   0
        29    180.4327    928.5430 299.9725673 +22.6720418     783.2751     70.09668      1.331     2.94    -4.211764     19.77137     99.07874        13     0.962     0.842 -57.91   0
        30    650.4716    926.8641 300.1193283 +22.8127264     477.9576     70.11452      1.510     4.48    -4.092016     19.77137     49.45389         9     0.999     0.777 -35.42   0
        31    199.6979    925.3438 299.9795959 +22.6769133     336.9641     70.16802      1.670     4.58    -4.231767     19.77137     33.85204         6     0.937     0.665  31.07   0
        32   1022.7764    914.0916 300.2395147 +22.9207773     735.6832      59.2244      1.280     3.13    -4.219046     19.77137     101.5706        11     0.949     0.758 -35.91  24
        33    805.8704    913.8719 300.1719654 +22.8556389     2355.997     70.15019      1.434     2.79    -4.140304     19.77137     263.6966        25     1.134     1.068  85.31   0
        34    214.4982    908.8144 299.9895776 +22.6766223      426.123     69.98952      1.819     5.52    -4.278383     19.77137     35.58479         9     1.338     0.643 -56.62   0
        35    169.4914    905.1347 299.9767892 +22.6620454     639.8897     70.20367      1.627     3.44    -4.238708     19.77137     72.18202        12     0.997     0.948  68.17   0
        36    319.0821    896.8538 300.0259835 +22.7046107     30849.38     70.11452      1.509     2.89    -4.319162     19.77137     2897.229        79     1.382     1.316  56.56   0
        37    577.0314    895.7030 300.1066101 +22.7817402     907.3709     70.04312      1.668     3.50    -4.129783     19.77137     68.93781        15     1.028     0.966  49.02   0
        38    989.7401    894.4599 300.2356042 +22.9052310     577.0612     70.15019      1.419     2.99    -4.324535     19.77137     57.38342        12     0.980     0.780 -53.61   0
        39    605.7439    891.6241 300.1168768 +22.7891896      492.183     70.07883      1.534     3.90    -4.082581     19.77137     52.90821        11     0.943     0.900  63.74   0
        40      5.3450    891.4614 299.9302535 +22.6088004     505.7066     70.00739      1.565     3.37    -4.404699     19.77137      53.2865         8     0.821     0.772  72.67  16
        41    721.9251    886.1096 300.1548524 +22.8224796     265.6928      70.2393      1.317     4.36    -4.096987     19.77137      38.8969         6     0.789     0.687  10.35   0
        42    759.9242    876.6453 300.1697712 +22.8311671      454.879     70.06098      1.653     3.21    -4.101806     19.77137     48.87446         7     0.837     0.670 -56.69   0
        43    368.8033    874.0340 300.0488749 +22.7130011     17833.09     70.07883      1.587     3.09    -4.236684     19.77137      1615.52        59     1.379     1.296  64.47   0
        44    383.1908    874.4861 300.0532024 +22.7174516     1178.016     70.00739      1.595     3.58    -4.229587     19.77137     99.82751        20     1.194     1.040  53.01   0
        45    891.7135    869.5020 300.2131669 +22.8686595     1656.349      70.2393      1.451     2.79    -4.277338     19.77137     166.6358        21     1.097     1.006  39.18   0
        46    380.4976    868.7437 300.0542343 +22.7149961     309.1762     70.16802      1.430     3.47    -4.212698     19.77137     42.36456         5     0.801     0.435  68.49   1
        47    649.3710    865.8417 300.1388548 +22.7948878     407.8482     70.09668      1.405     5.12    -4.078333     19.77137     51.03778        10     0.968     0.765  -1.48   0
        48    251.3808    865.8367 300.0150335 +22.6753823     483.7866     70.09668      1.306     4.24    -4.350354     19.77137     53.51453         7     0.874     0.586  55.63   0
        49    496.8447    861.1227 300.0929114 +22.7477466     506.0693     70.06097      1.611     5.84    -4.214484     19.77137     50.02813        14     1.398     0.979 -35.67   0
        50     55.5994    861.7189 299.9555419 +22.6153807     361.7281     69.95377      2.008     3.46    -4.382651     19.77137     31.39633         5     0.752     0.459  73.28   0
        51    898.0813    857.4124 300.2190881 +22.8670990     241.4906     70.06098      1.055     3.47     -4.21447     19.77137     45.43159         5     0.754     0.462  16.64   0
        52     84.8166    855.5734 299.9666172 +22.6223989     315.8353     70.09668      1.193     4.12    -4.263756     19.77137     38.27088         6     0.940     0.515 -39.42   0
        53    541.6254    838.7512 300.1141306 +22.7547729      371.235     70.09668      1.564     5.92    -4.096367     19.77137     29.93583        11     1.239     0.796  43.73   0
        54    957.9583    834.9183 300.2450793 +22.8786015     2655.514     70.04312      1.447     2.72    -4.170445     19.77137     289.4615        26     1.176     1.071  54.60   0
        55    563.8412    836.2605 300.1218563 +22.7607273     630.0126     70.06098      1.530     4.27    -4.094474     19.77137     65.89315        15     1.170     0.919  32.09   0
        56    946.5156    826.1160 300.2443768 +22.8726418     998.3763     70.20367      1.402     2.97    -4.072529     19.77137     106.9624        17     1.101     0.925  77.36   0
        57    309.3572    820.6870 300.0477544 +22.6798506     560.7892     70.07883      1.549     3.77    -4.302911     19.77137     75.72725        12     1.212     0.838  22.54   0
        58    772.7991    817.5515 300.1930202 +22.8180693     1453.651     70.07883      1.724     4.19    -3.843655     19.77137     102.6883        26     1.377     1.171   4.69   0
        59    977.4933    816.2310 300.2572541 +22.8790943     1003.379     70.00739      1.527     3.06    -4.117738     19.77137     98.73408        18     1.130     0.932  82.91   0
        60    158.8652    805.0001 300.0060827 +22.6301505     351.1745     70.06097      1.470     3.60    -4.203538     19.77137     48.94498         6     0.777     0.679  66.88   0
        61    855.4140    803.2191 300.2234300 +22.8387404     350.1781     70.04312      1.664     3.49    -3.678402     19.77137     24.99515         5     0.780     0.451  71.76   0
        62    891.2197    794.5451 300.2374140 +22.8469906     84595.44     70.06098      1.574     3.07    -3.711926     19.77137     7101.538       110     1.429     1.364  46.04   0
        63    744.1489    794.6921 300.1915349 +22.8029113      442.369     70.13236      1.686     5.99    -3.966058     19.77137     38.29235        11     1.186     0.852  78.33   0
        64    577.6882    783.5101 300.1433361 +22.7497483     1005.086      70.2393      1.764     4.20    -4.014113     19.77137     71.42975        20     1.262     1.054  12.70   0
        65    758.7661    780.7139 300.2006381 +22.8032846     5244.027     70.04312      1.645     3.35     -3.79562     19.77137     416.8766        39     1.333     1.242   9.17   0
        66    260.4508    776.1322 300.0470497 +22.6523866     2936.821     70.06098      1.771     3.53    -4.327977     19.77137     229.5271        37     1.438     1.321  32.05   0
        67    342.9510    774.2579 300.0733109 +22.6766239     639.9951     70.13236      1.529     3.57    -4.260369     19.77137     63.87864        11     1.003     0.726 -65.72   0
        68    551.0089    769.1003 300.1397208 +22.7376059     431.9172     69.95377      1.720     5.16    -3.909349     19.77137     38.42769         9     1.208     0.715   1.50   0
        69    542.1395    761.6099 300.1393976 +22.7327945     1809.237     70.04312      1.807     3.61    -3.877077     19.77137     159.5307        27     1.330     1.216  35.19   0
        70    532.8076    755.5961 300.1384501 +22.7282679     857.9541       69.918      1.867     3.87    -3.859343     19.77137     66.41534        16     1.148     0.958  -4.47   0
        71    210.3274    750.7268 300.0397365 +22.6300480     373.7147     70.13236      1.603     5.01    -4.226595     19.77137     28.81597         7     1.054     0.673  78.82   0
        72    457.3842    745.2071 300.1183597 +22.7026473     1057.481     70.00739      1.829     4.70     -3.96919     19.77137     87.81125        24     1.382     1.204  41.19   0
        73    979.5893    746.2025 300.2806998 +22.8596109      335.925      69.9001      1.654     4.14    -3.765073     19.77137     38.81577         5     0.909     0.538  38.10   0
        74    111.4698    740.4956 300.0123471 +22.5974212     11126.11     70.20367      1.666     3.05    -3.654636     19.77137     1033.947        50     1.410     1.255  66.31   0
        75    542.1998    740.4522 300.1463012 +22.7267415      606.545     70.02526      1.835     6.42    -3.777093     19.77137     53.26788        15     1.280     0.905  -1.62   0
        76    959.9561    726.6031 300.2809552 +22.8480941     588.2142     70.09668      1.601     4.75    -3.705193     19.77137     49.95306        17     1.195     1.099  87.37   0
        77     57.4803    724.4674 300.0007910 +22.5766078     915.5596     70.18585      1.900     5.37    -3.624351     19.77137      63.0442        19     1.630     0.816 -81.91   0
        78     32.2739    742.2868 299.9871651 +22.5741430     458.6411     70.22148      1.678     3.91    -3.676022     19.77137     39.65396         7     0.977     0.572  66.79   0
        79    899.5135    718.9940 300.2645861 +22.8277828       581.85     70.00739      1.973     6.92    -3.687547     19.77137     39.78637         9     1.602     0.888 -12.19   0
        80    462.5851    713.8011 300.1301964 +22.6951979     583.9935     69.93588      2.072     5.42    -3.799093     19.77137     41.46758         8     1.320     0.629  62.34   0
        81    657.9530    710.4801 300.1920912 +22.7528761     297.1554     70.09668      1.564     4.87      -3.4741     19.77137     32.36701         6     1.088     0.617 -28.14   0
        82    507.1331    709.0225 300.1456134 +22.7071979     400.1322     70.06097      1.836     5.48    -3.623649     19.77137     37.30763         9     1.231     0.687  49.07   0
        83    940.0911    704.5087 300.2819501 +22.8357911     1961.165      70.2393      1.685     3.36    -3.690509     19.77137     161.4424        25     1.279     1.106  80.83   0
        84    472.0043    704.6744 300.1360965 +22.6954065      1045.78     69.98952      1.836     4.72    -3.733837     19.77137     85.92032        23     1.372     1.189 -12.34   0
        85     34.2703    698.7455 300.0019502 +22.5622618     2837.522     70.11452      1.602     2.92    -3.635905     19.77137     290.0919        25     1.220     1.057  70.09   0
        86    335.6414    691.6649 300.0979105 +22.6507391     5196.131     70.04312      1.828     3.81    -3.985288     19.77137     373.2282        38     1.438     1.303  68.83   0
        87    457.9186    688.6212 300.1369361 +22.6865724      5077.18     70.04312      1.832     3.86    -3.707407     19.77137     363.0064        40     1.459     1.333  49.49   0
        88    223.1354    685.4494 300.0649544 +22.6151753     269.5826     70.11452      1.632     4.70    -4.116999     19.77137     26.49748         6     1.045     0.599 -68.41   0
        89    869.2311    681.9824 300.2671883 +22.8080716     1015.762     70.06098      1.690     3.93    -3.678196     19.77137     76.94442        17     1.176     0.968  65.50   0
        90    954.0236    679.6187 300.2943923 +22.8328196     7135.265     70.07883      1.630     3.28    -3.694931     19.77137     569.6644        44     1.330     1.305  87.19   0
        91    518.4557    678.1037 300.1591958 +22.7017235     6646.102     70.16802      1.878     3.97    -3.384614     19.77137     437.1518        42     1.432     1.376  64.98   0
        92    246.2727    673.7345 300.0759571 +22.6187632     831.4723     70.11452      2.127     4.06    -4.088978     19.77137     67.41449        14     1.055     0.974  47.00   0
        93    450.2010    666.2803 300.1418023 +22.6778455     2438.797     69.97165      1.942     4.34     -3.56548     19.77137     155.7221        31     1.461     1.251  54.00   0
        94    792.6144    666.3965 300.2483808 +22.7806169     485.6256     69.93588      1.653     4.12    -3.584846     19.77137     44.16417         5     0.992     0.488   1.73   0
        95    428.5387    664.8386 300.1355317 +22.6709299     789.8288     70.07883      1.972     5.65    -3.555699     19.77137     54.57384        16     1.303     1.158 -10.85   0
        96    183.3720    664.5187 300.0594044 +22.5972319     359.5984     70.09668      1.566     4.00     -3.75719     19.77137     34.15007         6     0.947     0.483 -89.02   0
        97    869.5154    661.6552 300.2738896 +22.8023188     927.6516     70.15019      1.887     4.55    -3.668332     19.77137      62.7917        19     1.246     1.139 -19.78   0
        98    750.1622    658.6292 300.2376806 +22.7656531      497.335     70.09668      1.866     6.70    -3.552811     19.77137     36.44112        12     1.428     0.882  28.28   0
        99    566.7142    653.8625 300.1821020 +22.7092481     115665.5     70.20367      1.892     4.05    -3.097573     19.77137     7330.962       155     1.689     1.637  21.10   0
       100    253.0929    654.0542 300.0844785 +22.6151663     2051.074     70.13236      1.770     3.56    -3.983693     19.77137     177.8443        27     1.340     1.181  89.42   0
       101    457.3744    634.4128 300.1543994 +22.6708539     1528.952     70.07883      1.992     6.03    -3.245646     19.77137     84.37595        23     1.487     1.183  83.33   0
       102    854.0433    620.0215 300.2826092 +22.7857211     969.2357     70.13236      1.805     4.94    -3.630055     19.77137      73.9644        23     1.318     1.281  -9.09   0
       103    725.3381    617.8201 300.2432208 +22.7464891      1377.47     70.04312      1.851     4.86    -3.387833     19.77137     96.24266        27     1.393     1.321 -80.15   0
       104    982.5510    611.3784 300.3254857 +22.8217683     705.3661     70.07883      1.643     5.34    -3.707969     19.77137     57.03876        14     1.108     0.928  58.00   0
       105    854.3653    610.2006 300.2859037 +22.7829968     1338.985     70.04312      2.017     4.87    -3.624247     19.77137     83.29853        26     1.535     1.161  79.78   0
       106    968.5891    611.1124 300.3212181 +22.8175063     490.6885     70.02526      1.752     4.83    -3.688571     19.77137     37.92287         6     1.690     0.391 -19.20   0
       107    608.6705    609.1223 300.2097154 +22.7089938      345.523     70.18584      1.991     5.11    -2.965117     19.77137     33.26496         7     1.098     0.673 -78.23   0
       108    892.5577    605.1927 300.2994375 +22.7930103     2455.263     70.09668      1.781     3.72    -3.608783     19.77137     161.4929        30     1.322     1.234  11.91   0
       109    124.7968    596.6430 300.0632772 +22.5601765     485.9008     70.09668      1.633     5.58    -3.536352     19.77137     42.16978        11     1.041     0.842  20.34   0
       110    984.3681    595.3992 300.3312492 +22.8177220      449.593     70.04312      1.590     5.91    -3.632843     19.77137     39.34384        11     1.190     0.825 -76.14   0
       111    665.9399    576.1114 300.2382836 +22.7166961     428.5799     70.15019      2.375     6.27    -3.173558     19.77137     35.95759         8     1.270     0.870  69.67   0
       112    727.0692    567.9709 300.2599709 +22.7326933     480.0338     70.06097      1.940     4.70    -3.366029     19.77137     39.51336         5     1.356     0.527  75.11   0
       113     36.1414    566.4674 300.0455491 +22.5248991     663.1899     70.11452      0.733     1.03    -3.190491     19.77137     295.1796         5     0.557     0.346 -85.15   0
       114    884.2328    564.1024 300.3102047 +22.7787102     470.7338     70.06098      1.730     5.26    -3.362744     19.77137     60.39734        14     1.343     1.114  59.86   0
       115    867.4960    560.5810 300.3061325 +22.7726805     431.1358     69.98952      2.226     3.82    -3.323776     19.77137     30.80789         6     0.986     0.424  72.73   0
       116    612.5413    558.8972 300.2272527 +22.6957355     1864.466     70.15019      1.986     4.82    -2.986497     19.77137     106.7977        30     1.464     1.292 -88.08   0
       117   1023.4088    537.1267 300.3623745 +22.8126792     596.3939     55.96659      1.298     3.63    -3.422831     19.77137     76.63081        11     1.225     0.573  82.06  24
       118    982.2247    536.5058 300.3497314 +22.8001568     546.2431     70.00739      1.647     4.38    -3.338261     19.77137      47.0398        15     1.117     0.948  13.85   0
       119    895.4913    537.0220 300.3225195 +22.7743055     245.6317     70.00739      1.591     4.79    -3.179862     19.77137     29.73563         5     1.253     0.518 -37.90   0
       120    723.6390    532.7512 300.2703536 +22.7215498     523.9835     70.11452      1.750     5.79    -3.269353     19.77137     40.57256         9     1.141     0.828 -55.73   0
       121    289.7240    526.8041 300.1372443 +22.5896574     2204.779     69.98952      2.053     4.17    -3.059545     19.77137     140.0649        35     1.479     1.428  14.62   0
       122   1022.4294    524.7952 300.3660784 +22.8088417     2372.375     60.84958      1.617     3.67    -3.473269     19.77137     202.7501        25     1.270     1.078  81.86  24
       123    236.9951    521.7303 300.1225009 +22.5723742     4319.369     70.04312      1.890     3.86    -3.210651     19.77137     319.8933        46     1.609     1.379 -84.14   0
       124    377.8074    515.7568 300.1682281 +22.6129230     2688.004     70.09668      2.072     4.52    -2.730633     19.77137     165.0233        35     1.468     1.412  68.82   0
       125   1002.2743    515.6617 300.3627613 +22.8001761     1258.146     70.11452      1.869     4.49    -3.398314     19.77137     81.36638        20     1.236     1.094  88.47   0
       126    621.7543    512.4102 300.2452350 +22.6851510     10701.62     70.09668      2.051     4.52    -2.830074     19.77137     598.7065        64     1.636     1.611   7.77   0
       127    955.4442    494.9132 300.3549019 +22.7801774     346.3191     70.06098      1.634     4.18    -2.976703     19.77137     41.90472         6     1.008     0.496  87.84   0
       128    176.5124    492.8089 300.1131030 +22.5459206     1116.098     70.00739      1.908     4.33    -2.930448     19.77137      96.9587        21     1.355     1.229  78.45   0
       129    562.3813    481.8604 300.2366804 +22.6585697      3643.98     70.04312      2.084     4.70    -2.603546     19.77137     193.2493        41     1.587     1.420  59.04   0
       130    975.5560    481.8905 300.3654069 +22.7824628     712.5906     70.07883      1.863     5.03     -3.12631     19.77137     50.77816        11     0.992     0.906  49.50   0
       131    765.3305    471.0524 300.3033991 +22.7163294       790.14     70.07883      2.419     4.40    -2.753632     19.77137      53.4273        10     1.338     0.646  56.00   2
       132    469.1316    468.1798 300.2121044 +22.6266684     3400.167     70.06098      2.037     4.72    -2.074847     19.77137     224.5634        41     1.557     1.482  45.81   0
       133    860.9048    462.7115 300.3358948 +22.7425862      759.243      70.2571      2.275     7.35    -2.540467     19.77137     40.00531        18     1.343     1.125  87.94   0
       134    958.5013    462.5835 300.3663641 +22.7718027      364.879     69.98952      1.853     3.84     -2.79804     19.77137     37.32737         6     1.068     0.395 -72.04   0
       135    356.6206    447.5533 300.1838062 +22.5869901     1319.351     70.13236      1.936     4.48    -2.245711     19.77137     88.82565        26     1.395     1.291  84.77   0
       136     75.2201    445.2524 300.0970865 +22.5018689     704.8419     70.06098      1.759     4.27    -2.850653     19.77137     68.26192        13     1.116     0.944  10.42   0
       137    326.0095    436.9915 300.1777184 +22.5747732     16505.24     69.97165      2.033     4.35    -2.296909     19.77137      1118.01        68     1.702     1.535  68.56   0
       138    859.9740    434.7046 300.3447072 +22.7342595     530.7806     70.02526      1.829     5.32    -2.496008     19.77137     49.87093        10     1.137     0.852  12.58   0
       139     22.3730    424.9460 300.0872705 +22.4801776      2860.16     70.11452      1.799     3.36    -2.641785     19.77137     247.9768        37     1.434     1.335 -72.51   0
       140    736.2477    416.0490 300.3122140 +22.6918084     1093.697     70.11452      2.137     6.63    -2.487423     19.77137     68.45441        23     1.516     1.208  74.81   0
       141    399.1970    401.5371 300.2120025 +22.5865553     877.5396     70.07883      1.953     6.67    -2.137148     19.77137     53.92303        14     1.637     0.763 -85.88   2
       142    396.6997    400.6113 300.2115264 +22.5855402     738.0686     69.98952      2.139     5.07    -2.139562     19.77137     56.74618         8     1.226     0.656 -69.27   3
       143    474.1779    380.5486 300.2421507 +22.6030219     687.6713     70.07883      2.201     7.33    -2.424664     19.77137     52.04683        15     1.569     0.959 -78.93   0
       144    718.6630    372.5397 300.3208732 +22.6740363     1066.758     70.11452      1.966     5.43    -2.472841     19.77137     63.58119        22     1.371     1.153  78.20   0
       145    979.7159    366.4258 300.4042280 +22.7505210     1775.187     70.06098      1.890     4.62    -2.481323     19.77137     122.9735        28     1.378     1.234  83.81   0
       146    102.0484    350.8292 300.1360985 +22.4828332     797.1957     70.09668      1.978     5.50    -2.518749     19.77137     60.85151        15     1.289     1.003 -75.11   0
       147    132.4659    350.6707 300.1456007 +22.4919173     396.4037     70.11452      1.757     5.10     -2.51712     19.77137     40.28313         6     1.206     0.611  37.15   0
       148    888.2208    322.6778 300.3899113 +22.7105290      1139.61     70.07883      2.021     5.43    -2.460077     19.77137     75.56138        24     1.436     1.263  17.22   0
       149    307.6915    320.6487 300.2098198 +22.5358810     1153.275     70.11452      1.857     4.67    -1.952085     19.77137     78.93481        22     1.480     1.053 -54.19   2
       150    304.7201    319.9782 300.2091136 +22.5347971     277.8245     70.04312      1.091     2.91    -1.946535     19.77137     52.26007         5     0.767     0.511 -71.48   3
       151    385.7206    315.7907 300.2356658 +22.5578940     543.8837     70.04312      2.013     5.00     -2.19726     19.77137     36.36884         7     1.130     0.626 -31.57   0
       152    786.3572    314.6890 300.3607576 +22.6777052     296.8507     70.07883      1.604     4.62    -2.465078     19.77137     28.01513         6     1.084     0.559 -35.43   0
       153    202.1157    308.2662 300.1810191 +22.5006497     343.7687     70.18584      1.488     3.43    -2.324002     19.77137     39.76026         5     1.003     0.339 -41.45   0
       154    739.5392    304.1730 300.3495858 +22.6606504     970.6969     70.07883      2.111     5.39     -2.40165     19.77137     61.12164        19     1.421     1.071  48.39   0
       155   1010.7917    296.8720 300.4365151 +22.7398344     380.1255     70.06098      1.808     5.62    -2.523935     19.77137     39.85301        10     1.120     0.794  73.56   0
       156    664.1331    294.9069 300.3291066 +22.6353839     678.2629     70.22148      1.888     5.80    -2.445678     19.77137     49.30591        15     1.354     1.108  48.35   0
       157    590.7778    286.5571 300.3089759 +22.6109930     567.8274     70.13236      2.351     6.37    -2.518786     19.77137     33.72928        13     1.416     0.805 -73.29   0
       158    859.1981    286.4409 300.3926342 +22.6914159     654.6757     70.07883      1.756     5.26    -2.411025     19.77137     54.77987        15     1.208     1.060  71.70   0
       159    872.2736    286.1926 300.3967908 +22.6952626     415.9705     70.02526      1.594     5.28    -2.423157     19.77137     38.51375        10     1.490     0.528 -20.47   0
       160    988.0095    275.7721 300.4362624 +22.7269425     655.7444     70.07883      2.044     6.00    -2.546667     19.77137     49.24472        13     1.447     0.986 -35.44   0
       161    830.0486    275.9527 300.3869549 +22.6796661      977.891     70.11452      0.442   -10.59    -2.423769     19.77137     896.9667         5     0.309     0.301  33.07   0
       162     84.5236    263.6772 300.1589586 +22.4525650     1300.889     70.16802      2.100     7.97    -2.460213     19.77137     85.07918        26     1.508     1.291 -25.27   0
       163    907.3295    260.3460 300.4161137 +22.6983362      472.131     70.11452      1.995     6.13    -2.524165     19.77137     32.47155         9     1.162     0.908   2.10   0
       164    241.6487    257.2977 300.2098596 +22.4978806     3199.481     70.11452      2.068     4.38    -1.973229     19.77137     208.2921        39     1.567     1.489  54.42   0
       165     25.8421    252.0634 300.1445018 +22.4316207     685.9764     70.07883      1.622     4.16    -2.253734     19.77137     64.77644        14     1.164     0.896 -17.83   0
       166    885.4618    238.4741 300.4163988 +22.6854962     1884.648     70.11452      1.940     4.28    -2.508909     19.77137     121.2043        30     1.419     1.331  33.53   0
       167    989.1742    237.0026 300.4492161 +22.7161432     1598.295     70.02526      1.998     4.66      -2.5966     19.77137     121.5418        25     1.507     1.108 -85.69   0
       168    125.6106    223.5560 300.1847508 +22.4533796     323.2733     70.07883      1.161     4.08    -2.126592     19.77137     38.01192         6     1.069     0.445 -34.55   0
       169    486.6953    221.4139 300.2977309 +22.5610721     949.3305     70.00739      2.304     6.17     -2.50198     19.77137     51.79115        19     1.281     1.220 -45.96   0
       170    230.2776    218.0318 300.2190738 +22.4831965     300.6016     70.06098      1.680     4.69    -1.932519     19.77137     28.03424         5     0.923     0.677  67.08   0
       171    260.6379    201.3092 300.2339413 +22.4875027     3330.585     70.06098      2.009     4.20     -1.96473     19.77137     221.5239        41     1.579     1.423  87.94   0
       172    110.9089    200.5759 300.1876431 +22.4423723     394.6747     70.00739      1.775     7.29    -2.136712     19.77137     34.63136         9     1.470     1.013  39.48   0
       173    506.5160    186.3091 300.3152965 +22.5569301     3565.325     70.22148      2.154     4.80    -2.225327     19.77137     212.4564        43     1.660     1.522 -56.63   0
       174    759.0241    175.6798 300.3973805 +22.6295597     446.6211     70.06098      2.145     5.78    -2.331183     19.77137     28.41313         7     1.291     0.728 -44.62   0
       175    557.6683    169.5087 300.3366726 +22.5674380     266.5838     70.20367      1.754     4.89    -2.073045     19.77137     26.40981         6     0.963     0.703  25.53   0
       176    634.8357    166.4568 300.3616902 +22.5896915     3459.853     70.09668      2.053     4.40    -1.994061     19.77137     207.1258        40     1.556     1.457  80.06   0
       177    409.0000    165.5747 300.2916828 +22.5217355      838.584     70.02526      1.976     5.23    -2.159239     19.77137     57.86343        10     1.131     0.682  73.82   2
       178    676.5286    164.1796 300.3754143 +22.6015326      423.216     70.07883      1.528     4.90    -2.046439     19.77137     41.16533        10     1.096     0.934 -70.97   0
       179    158.9054    157.9478 300.2163945 +22.4445355     309.4388     70.15019      1.582     5.00    -1.931051     19.77137     40.62119         6     1.012     0.700  14.68   0
       180    679.1812    151.2595 300.3804343 +22.5986141     1600.623     70.02526      2.045     4.98    -2.041659     19.77137     103.0352        28     1.466     1.338  52.36   0
       181    694.2219    149.8816 300.3855665 +22.6027254     515.2922     70.04312      2.284     5.40    -2.099001     19.77137     33.14372         7     1.146     0.717 -65.34   0
       182    765.4139    142.9811 300.4099857 +22.6220744     1007.841     70.04312      2.238     6.04    -2.304558     19.77137     58.66951        19     1.370     1.176 -19.33   0
       183    704.4441    136.2253 300.3931834 +22.6018633     329.1245     70.09668      1.445     3.43    -2.127629     19.77137     29.16084         5     0.745     0.456  70.44   0
       184    508.9718    135.6772 300.3324958 +22.5431194     668.0254     70.07883      2.201     6.22    -2.012511     19.77137     48.97544        12     1.240     1.027 -55.42   0
       185    184.6096    123.7058 300.2354963 +22.4424150     2169.398     70.02526      1.949     4.24    -1.888727     19.77137     152.1469        32     1.452     1.341  88.21   0
       186    746.2124    116.7060 300.4125309 +22.6087675     465.7479     70.00739      1.987     4.22    -2.230863     19.77137      43.2109         6     1.038     0.490 -30.54   0
       187    300.5395    116.0207 300.2740311 +22.4749782     808.7108     70.02526      2.105     6.34    -2.155581     19.77137     49.31929        17     1.340     1.069 -65.38   0
       188    783.4564    110.5592 300.4261307 +22.6181589     492.6258     70.06098      2.266     5.78    -2.278424     19.77137     32.32924         8     1.351     0.695 -65.36   0
       189    803.4260    107.1809 300.4334502 +22.6231702     1211.916     70.09668      2.182     5.21    -2.294716     19.77137     80.78131        25     1.386     1.308  -0.44   0
       190    187.2625    103.2279 300.2429662 +22.4373308     488.1047     70.07883      1.552     5.43    -1.864036     19.77137     44.36724        10     1.079     0.772 -65.17   0
       191    751.8800     99.7881 300.4197872 +22.6056018     539.4133     70.06098      2.251     6.95    -2.213809     19.77137     36.83853        10     1.444     1.002 -70.96   0
       192    605.0781     84.4508 300.3790392 +22.5572043     619.0587     70.07883      2.474     8.39    -1.835318     19.77137     32.93551        12     1.715     1.147  26.18   0
       193    214.1847     82.0224 300.2582153 +22.4393163     337.1661     70.07883      1.560     4.36    -1.888559     19.77137     23.46222         5     1.051     0.516  53.34   0
       194    576.2777     77.6959 300.3722639 +22.5466316     1015.508     70.20367      1.980     5.31    -1.781072     19.77137     78.92216        22     1.419     1.268   4.26   0
       195     14.1869     74.1028 300.1986430 +22.3770487     368.6993     69.97165      1.725     4.18    -1.822154     19.77137     31.54344         5     1.394     0.358 -83.44   0
       196    533.5046     71.3497 300.3610075 +22.5319883     705.9331     70.15019      2.126     7.54    -1.711569     19.77137     40.77616        16     1.338     1.190 -37.11   0
       197    638.8286     68.5592 300.3947057 +22.5627506     778.6284     70.09668      2.260     7.78    -1.883916     19.77137     48.90013        20     1.558     1.144 -78.90   0
       198    459.2493     62.1006 300.3408980 +22.5070732     1200.349     70.13236      2.044     5.71    -1.711518     19.77137     73.51658        26     1.524     1.370  50.51   0
       199    106.6986     59.9327 300.2319783 +22.4007338     834.4832     70.16802      1.939     4.47    -1.635029     19.77137     64.91959        17     1.293     0.969  83.73   0
       200    167.4006     41.9082 300.2566888 +22.4137652     538.1398     69.95377      1.783     5.63    -1.998856     19.77137     42.61329        10     1.249     0.771  30.62   0
       201    742.8263     21.6988 300.4423041 +22.5804370      583.882     70.02526      1.979     5.17    -2.159308     19.77137     53.25924        10     1.303     0.749  -9.61   0
       202    646.7268     21.0550 300.4125779 +22.5514612     1558.584     70.07883      2.073     4.96    -1.832221     19.77137     88.68079        30     1.544     1.314  -1.23   0
       203    768.9064   1020.0632 300.1258607 +22.8750169     642.1451     69.36116      1.353     2.92    -3.956159     19.77137     88.21503        11     0.987     0.727 -16.33  16
