#   1 NUMBER                 Running object number                                     
#   2 X_IMAGE                Object position along x                                    [pixel]
#   3 Y_IMAGE                Object position along y                                    [pixel]
#   4 ALPHA_J2000            Right ascension of barycenter (J2000)                      [deg]
#   5 DELTA_J2000            Declination of barycenter (J2000)                          [deg]
#   6 FLUX_APER              Flux vector within fixed circular aperture(s)              [count]
#   7 FLUXERR_APER           RMS error vector for aperture flux(es)                     [count]
#   8 FLUX_RADIUS            Fraction-of-light radii                                    [pixel]
#   9 FWHM_IMAGE             FWHM assuming a gaussian core                              [pixel]
#  10 BACKGROUND             Background at centroid position                            [count]
#  11 THRESHOLD              Detection threshold above background                       [count]
#  12 FLUX_MAX               Peak flux above background                                 [count]
#  13 ISOAREA_IMAGE          Isophotal area above Analysis threshold                    [pixel**2]
#  14 A_IMAGE                Profile RMS along major axis                               [pixel]
#  15 B_IMAGE                Profile RMS along minor axis                               [pixel]
#  16 THETA_IMAGE            Position angle (CCW/x)                                     [deg]
#  17 FLAGS                  Extraction flags                                          
         1    725.6152     11.1426 300.4302452 +22.5836116     342.9721     70.25291      2.144     4.50    -2.119126     19.82553     27.39776         5     1.331     0.432 -58.76   0
         2    163.0849      6.7816 300.2566688 +22.4137817     773.4712     70.21709      1.561     3.42    -2.213728     19.82553     78.04604        14     1.063     0.907  69.06  16
         3     82.8171   1008.1645 299.9063315 +22.6768536     2004.497     70.27081     11.073    20.00     3.350205     19.82553     50.64833        72     4.521     2.458  65.09  19
         4    394.5601   1023.3492 299.9982557 +22.7748614      3041.92     56.47737      1.000     1.96    -4.962364     19.82553     574.1308        16     0.902     0.709   5.26  24
         5    119.3824   1021.9970 299.9131823 +22.6918038     1340.139     62.98406      5.611    10.36     7.211353     19.82553     45.30969        17     2.229     1.341  68.66  27
         6    104.9140   1022.0850 299.9086603 +22.6874811     839.4885     62.72392      6.832     8.72     7.255564     19.82553     36.03004        15     1.820     1.168  58.08  27
         7    111.8232   1022.7057 299.9106039 +22.6897352     791.7617     59.68242      4.300     6.31     7.358864     19.82553     37.23688        12     1.568     0.714 -34.46  27
         8    109.6331   1020.0729 299.9107811 +22.6883230     813.7779     69.44259      2.836     3.54     6.988527     19.82553     30.17877         5     1.135     0.319 -66.47  19
         9     98.1978   1002.3983 299.9129853 +22.6798241     1347.232     70.03774      9.970    11.08      4.73906     19.82553      52.8336        24     2.932     1.167  86.65  19
        10     69.8990   1021.1744 299.8980838 +22.6766975     1209.449     66.27305      7.301    11.37     2.320384     19.82553     44.52232        26     2.673     1.347  -2.76  27
        11     73.3110   1014.2601 299.9013948 +22.6757426     1774.308     70.34238      9.540    18.49      2.29505     19.82553     50.88481        67     3.586     2.649 -24.44  19
        12     87.9087   1020.2124 299.9039893 +22.6818344     2673.713      69.0976     15.442    26.48     5.433126     19.82553     62.30843       191     6.641     2.932 -13.47  27
        13     90.7428   1007.2966 299.9090753 +22.6789868     1999.307     70.34238     13.011    17.01     4.464595     19.82553     48.33215        71     3.191     2.519 -77.85  19
        14     83.0743    997.2972 299.9099500 +22.6738183     2041.877       70.396      9.289    19.55     2.252428     19.82553     46.95107        96     4.018     2.644 -64.16   3
        15     91.8678    993.0460 299.9140649 +22.6752431     1902.343     70.25291      8.711    15.01     2.974025     19.82553     51.73981        59     2.577     2.432  67.98   3
        16    940.7637   1002.0536 300.1752367 +22.9327089     1168.146     70.28871      1.076     1.79    -4.983806     19.82553     250.6416        11     0.736     0.724  66.59   0
        17    591.0740    999.7209 300.0670828 +22.8270966     270.0187     70.37813      1.371     3.92    -5.884022     19.82553     35.92443         6     0.954     0.461 -39.94   0
        18    730.1241    991.6283 300.1130064 +22.8665138     239.1685     70.27081      1.581     5.37    -5.102616     19.82553     45.95051        10     1.504     0.540  56.98   0
        19    427.0094   1010.1503 300.0126449 +22.7808239      280.223     70.27081      1.211     3.00    -5.251843     19.82553     51.82743         7     0.861     0.549  46.01   0
        20     98.3872    987.8228 299.9177901 +22.6757061     680.8186     70.25291      2.716     3.46     2.962034     19.82553     31.21474         5     0.765     0.453 -73.12   1
        21    764.3280    985.3787 300.1256938 +22.8749860     621.6621     70.27081      1.110     2.55    -5.032269     19.82553     96.49076         9     0.819     0.708  62.70   0
        22    786.6332    978.9367 300.1347391 +22.8798315     6443.477     70.27081      1.106     1.81    -5.026458     19.82553     1245.449        28     0.940     0.921  50.59   0
        23    832.2692    978.5757 300.1490731 +22.8934216     179.9992     70.27081      0.921     1.72    -5.033175     19.82553     71.61468         5     0.656     0.473  18.59   0
        24     97.7791    971.0439 299.9230643 +22.6707172     258.8429     70.32449      1.313     2.74    0.8042158     19.82553     49.01077         7     0.696     0.685  17.16   0
        25    491.8304    967.2056 300.0467909 +22.7879779     240.0409     70.27081      1.081     2.86    -5.560633     19.82553     48.26996         6     0.744     0.552 -38.93   0
        26     68.3029    964.3084 299.9161041 +22.6599305     84.77438     70.44958      1.090     3.88    -2.062457     19.82553     37.13599         6     0.871     0.517 -45.21   0
        27    795.1375    961.0291 300.1432193 +22.8772459     760.6812     70.28871      1.181     2.04    -5.028125     19.82553     141.9897        10     0.793     0.709   7.39   0
        28    978.1259    959.8184 300.2006375 +22.9317959     378.8581     70.27081      1.218     2.37    -5.102144     19.82553     56.94967         7     0.707     0.659 -37.95   0
        29    833.4930    954.2289 300.1573823 +22.8868034     388.7061     70.21709      0.939     2.81    -5.054974     19.82553     73.32768         7     0.846     0.585 -40.55   0
        30    942.1340    951.5461 300.1921114 +22.9186258     218.0581      70.3066      1.141     2.40    -5.095764     19.82553     41.69125         5     0.708     0.463 -20.02   0
        31    881.7311    945.4656 300.1752660 +22.8987611     193.6285     70.32449      1.066     3.27    -5.100204     19.82553     52.26672         6     0.844     0.592 -68.24   0
        32    733.0175    944.2913 300.1293214 +22.8538036     436.2178     70.19918      1.116     3.65    -5.134728     19.82553     73.95348         9     1.022     0.624  70.52   0
        33    445.6536    941.2724 300.0408708 +22.7666782     2483.513     70.27081      1.167     2.00     -5.23648     19.82553     391.4485        18     0.924     0.871   5.07   0
        34    744.1721    941.5449 300.1336894 +22.8563630     353.0273     70.27081      1.163     2.68    -5.116261     19.82553     56.59511         6     0.762     0.494   6.57   0
        35    170.7297    926.9944 299.9600629 +22.6800157     411.2391     70.23501      1.323     3.42    -4.139383     19.82553     71.88517         9     1.025     0.779  59.48   0
        36    147.9929    924.1845 299.9539148 +22.6723800     919.1325     70.19918      1.214     2.37    -4.261884     19.82553     160.4528        11     0.821     0.812 -14.12   0
        37   1019.6729    912.7935 300.2289020 +22.9307589     1196.458      70.0557      1.082     1.88    -5.249554     19.82553     223.7231        16     0.913     0.846  32.58  16
        38     22.6209    913.2034 299.9185573 +22.6315647     234.9052     70.23501      1.465     3.50     -4.65402     19.82553     26.36229         5     0.772     0.457 -74.75   0
        39    973.9930    911.1846 300.2151838 +22.9165974     1319.064     70.18126      1.174     1.82     -5.18928     19.82553     263.7423        13     0.904     0.714  66.66   0
        40    757.5224    905.0563 300.1497265 +22.8499008     362.9179      70.3066      1.060     2.11    -5.130292     19.82553     73.95152         6     0.725     0.489 -79.13   0
        41    625.6224    899.2906 300.1105347 +22.8086652     2793.324     70.19918      1.157     2.09    -5.119843     19.82553     431.9758        20     0.925     0.878  41.77   0
        42    115.3463    900.3385 299.9515368 +22.6557399     384.8122     70.32449      1.344     2.76    -4.720232     19.82553     47.93956         6     0.813     0.499 -41.10   0
        43    427.5855    896.4507 300.0498425 +22.7484030      525.934     70.28871      1.658     2.31    -5.196163     19.82553     74.03137         8     0.781     0.738 -33.24   0
        44    175.8226    893.1701 299.9726549 +22.6718537     704.0597     70.27081      1.138     2.42     -4.69588     19.82553     142.3963         9     0.870     0.632  38.68   0
        45    646.0463    891.6535 300.1193784 +22.8126042     383.4673      70.3066      1.062     2.53      -5.1061     19.82553     72.03665         7     0.787     0.593 -28.14   0
        46    194.7036    890.3006 299.9794546 +22.6767030     283.1104     70.46742      1.485     3.18    -4.635619     19.82553     43.22532         5     1.044     0.453 -86.59   0
        47   1018.4250    879.1353 300.2394700 +22.9207222      679.857     70.25291      1.139     2.59    -5.246933     19.82553     112.7208         8     0.867     0.613  51.48  16
        48    801.6194    878.9116 300.1719727 +22.8556295      2457.33     70.21709      1.198     2.07    -5.104144     19.82553     394.2161        18     0.973     0.826 -73.73   0
        49    210.3461    873.3670 299.9898260 +22.6765488     147.2154     70.28871      0.933     3.78    -4.714096     19.82553     43.96645         5     0.827     0.495  45.39   0
        50    518.6990    871.5309 300.0862958 +22.7686106     316.4951     70.36025      1.226     3.54    -5.138617     19.82553     58.58899         6     0.856     0.628  73.15   0
        51    165.1785    869.9894 299.9768928 +22.6620138     492.9933     70.25291      1.224     2.32    -5.172806     19.82553     83.04942         8     0.754     0.634 -72.41   0
        52    314.7634    861.8664 300.0260195 +22.7046115     30799.22     70.27081      1.277     2.09    -5.203569     19.82553     4951.771        70     1.194     1.136  69.65   0
        53    580.1621    864.6859 300.1076492 +22.7850957     317.2337     70.25291      1.208     3.47    -5.071424     19.82553     42.71506         5     0.783     0.445 -11.89   0
        54    572.4886    860.6110 300.1065874 +22.7816239     962.2412     70.21709      1.243     2.22    -5.070672     19.82553     136.8229        13     0.860     0.832  -6.50   0
        55    985.0728    859.6234 300.2354224 +22.9051192     512.9341      70.3066      1.148     2.29    -5.196436     19.82553     80.69739         9     0.836     0.642 -67.77   0
        56    242.7180    860.2317 300.0041597 +22.6825069     301.6704     70.27081      1.136     3.55     -4.80585     19.82553     36.82949         6     0.723     0.657  24.37   0
        57    601.7239    856.6887 300.1169626 +22.7892731     467.1345       70.396      1.153     3.08    -5.038604     19.82553     68.64654         8     0.873     0.619 -11.86   0
        58      1.1007    856.6720 299.9302753 +22.6089047     384.2553     53.45693      1.032     2.68    -5.014585     19.82553     84.76974         5     0.936     0.291 -85.07  24
        59    612.2264    855.0126 300.1207770 +22.7919442     375.0544     70.27081      1.343     2.68     -5.02677     19.82553     57.42558         8     0.877     0.683 -67.02   0
        60    718.3528    851.2259 300.1550498 +22.8227036     261.2637     70.28871      1.104     3.90    -5.069495     19.82553     55.35958         6     1.039     0.555 -68.23   0
        61    755.6685    841.5553 300.1698183 +22.8311245     534.2678     70.23501      1.302     2.85    -5.018978     19.82553     61.72854        10     0.850     0.802 -53.64   0
        62    378.7246    839.5854 300.0531557 +22.7174291      1218.99     70.28871      1.291     2.38    -4.983396     19.82553     151.4254        15     1.006     0.805 -74.17   0
        63    364.4545    839.0871 300.0488809 +22.7130018     18082.55      70.3066      1.287     2.21    -4.945108     19.82553      2635.21        48     1.120     1.109  86.16   0
        64    887.3323    834.7174 300.2130628 +22.8686571     1481.278     70.37813      1.131     2.11    -4.862311     19.82553     221.5329        15     0.881     0.813 -75.89   0
        65    375.6538    833.7303 300.0541062 +22.7148284     464.6432      70.3066      1.746     2.56    -4.935139     19.82553     44.66278         5     0.725     0.441  71.84   0
        66    645.3713    830.7591 300.1389875 +22.7949331     554.4968     70.28871      1.376     2.48    -4.942881     19.82553     68.13828         9     0.847     0.648  19.91   0
        67    482.0481    830.5322 300.0882364 +22.7458513     224.7984     70.27081      1.156     2.77    -5.137347     19.82553     49.20656         5     0.702     0.621 -75.74   0
        68    246.9017    830.8250 300.0150294 +22.6753347     489.5298     70.21709      1.234     2.58    -4.727741     19.82553     74.93532         9     0.912     0.630  74.13   0
        69    492.3926    825.6788 300.0930338 +22.7475645     489.6317     70.19918      1.391     3.85    -5.120252     19.82553     64.62481        12     1.063     0.894 -64.37   0
        70     51.0928    826.5684 299.9555913 +22.6153003     301.3659     70.19918      1.355     4.44    -5.014585     19.82553     42.86032         6     0.869     0.645 -25.91   0
        71     79.8143    820.5646 299.9664632 +22.6222084      200.048     70.27081      1.196     4.43    -5.014585     19.82553     37.71792         6     0.958     0.581 -70.02   0
        72    438.3325    820.5768 300.0778782 +22.7298738     234.2101     70.25291      1.069     3.50    -5.008513     19.82553     38.22428         5     0.750     0.471 -14.91   0
        73    871.0574    816.8114 300.2138184 +22.8586362     138.0105     70.23501      0.886     2.87    -4.700791     19.82553     40.21907         5     0.879     0.614 -27.68   0
        74    244.9733    815.2843 300.0194870 +22.6703010     319.7444     70.27081      1.159     2.80    -4.657554     19.82553     38.39179         7     0.704     0.678 -80.29   0
        75    537.7335    803.5487 300.1143417 +22.7548259     313.8157     70.28871      1.260     3.94    -5.059696     19.82553     45.20407         7     0.846     0.661  79.11   0
        76    559.3638    801.2764 300.1218119 +22.7606656      883.611     70.23501      1.409     3.17    -5.017017     19.82553     89.33143        13     0.994     0.877  22.12   0
        77    953.6760    799.8953 300.2450729 +22.8785569     2385.688     70.41386      1.142     1.94    -4.808926     19.82553     428.4438        18     0.901     0.836 -51.63   0
        78    641.2955    796.0442 300.1490152 +22.7837506     188.7314     70.28871      1.306     5.65    -4.822692     19.82553     30.94678         6     1.274     0.706 -80.67   0
        79    942.3107    791.2785 300.2443340 +22.8726750     1046.599       70.396      1.136     1.88    -4.680833     19.82553     194.5988        11     0.774     0.735  -9.94   0
        80    848.4011    791.5807 300.2149690 +22.8445989     107.6896     70.19918      0.928     3.91    -4.583085     19.82553     25.86907         5     1.009     0.433 -75.44   0
        81    305.3322    785.4290 300.0479603 +22.6798665     519.2777     70.25291      1.353     3.38    -4.632904     19.82553     61.33841         7     0.863     0.563  45.37   0
        82    768.2876    782.5341 300.1929549 +22.8179727     1438.706     70.36025      1.249     2.26    -4.709918     19.82553     201.7805        15     0.950     0.835  47.13   0
        83    973.2082    781.4285 300.2571708 +22.8791117     999.2639     70.27081      1.057     2.12    -4.891321     19.82553     168.5503        12     0.833     0.725 -75.04   0
        84    154.1550    769.8410 300.0060548 +22.6300014     380.8177     70.34237      1.234     3.65    -4.895221     19.82553     50.61483         7     1.015     0.561  85.90   0
        85    886.9054    759.5577 300.2373866 +22.8469538     85494.02     70.28871      1.255     2.14    -4.567776     19.82553     12447.76       112     1.228     1.201  88.44   0
        86    739.2815    760.0687 300.1912300 +22.8028244     431.8923     70.37813      1.442     4.10    -4.703188     19.82553     51.48199         7     0.796     0.604  75.32   0
        87    919.6266    752.3079 300.2499432 +22.8546844     155.4181     70.21709      0.943     3.39    -4.570383     19.82553     38.69416         5     0.746     0.445 -71.45   0
        88    573.3986    748.7519 300.1432683 +22.7498093     995.0492     70.25291      1.442     2.91    -4.628727     19.82553     109.4603        15     1.024     0.898 -80.81   0
        89    754.4402    745.7448 300.2006111 +22.8032604     5635.503     70.25291      1.311     2.40    -4.667193     19.82553     680.8509        36     1.140     1.075  54.63   0
        90    256.0792    741.2692 300.0470177 +22.6524177     2782.156     70.37813      1.377     2.74    -4.586204     19.82553     300.5569        24     1.113     1.009  87.33   0
        91    338.2797    739.4117 300.0731727 +22.6765636     586.9797     70.25291      1.328     3.14    -4.633736     19.82553     77.08492        12     1.039     0.755  59.15   0
        92    214.1757    736.6320 300.0355046 +22.6385062     246.2486     70.27081      1.053     2.59    -4.529096     19.82553     35.95024         5     0.736     0.432 -21.12   0
        93    546.5438    734.7915 300.1394526 +22.7377459     333.2832     70.25291      1.166     3.53    -4.566725     19.82553     41.42508         7     0.923     0.613 -41.48   0
        94    537.9908    726.8010 300.1393904 +22.7328870     1915.453      70.0916      1.395     2.69    -4.513686     19.82553     225.2498        22     1.077     1.026  74.59   0
        95    528.3509    720.4854 300.1384451 +22.7281825     780.5618     70.25291      1.322     2.68    -4.475366     19.82553      99.0167        14     0.923     0.889 -78.62   0
        96    921.5707    718.0176 300.2617042 +22.8454218      199.487     70.25291      1.224     4.96    -4.456062     19.82553     36.89433         8     1.144     0.609 -15.09   0
        97    191.8723    717.0620 300.0349401 +22.6261989     483.3424      70.3066      1.347     2.01     -4.46995     19.82553     67.05074         6     0.706     0.542 -42.06   0
        98    205.8724    715.1330 300.0399173 +22.6298497     406.5431      70.3066      1.314     3.85    -4.487335     19.82553     54.27407         9     0.910     0.870  51.51   0
        99    231.4982    712.2338 300.0488229 +22.6367127     252.2909     70.25291      1.024     2.25    -4.519068     19.82553     56.02489         5     0.692     0.472  70.92   0
       100    974.9789    711.3047 300.2805365 +22.8595067     233.9818     70.18126      1.045     2.40    -4.594506     19.82553     48.79438         7     0.721     0.651 -12.14   0
       101    453.1840    710.3344 300.1183624 +22.7027135     1061.729     70.25291      1.423     3.13    -4.507756     19.82553     114.2172        15     1.015     0.923  -6.36   0
       102    552.6229    710.2310 300.1493332 +22.7325237     328.1525     70.27081      1.352     3.51     -4.33978     19.82553     30.48158         5     0.807     0.441 -72.72   0
       103    107.0949    705.4331 300.0123874 +22.5974073     11507.16     70.25291      1.327     2.43    -4.361909     19.82553     1382.151        43     1.179     1.074 -77.55   0
       104     27.8120    706.7815 299.9873298 +22.5739822     428.8272     70.23501      1.400     3.35     -4.48307     19.82553     51.36174         8     0.891     0.667 -85.25   0
       105    538.0024    705.4752 300.1463305 +22.7267723     643.4107     70.18126      1.619     3.71    -4.319763     19.82553      61.7188        10     0.958     0.719 -68.09   0
       106    955.7628    691.5798 300.2809619 +22.8480814      602.575     70.28871      1.197     2.96    -4.434067     19.82553     101.7262        10     0.948     0.766  48.18   0
       107     53.0278    689.6653 300.0007253 +22.5766503     859.8602     70.25291      1.739     4.98    -4.308953     19.82553      74.9913        16     1.448     0.727 -87.51   0
       108    822.7054    689.6135 300.2401347 +22.8076216     286.1714     70.19918      1.440     4.61    -4.474156     19.82553     40.87405         8     0.963     0.626  15.42   0
       109    895.8256    684.2360 300.2646683 +22.8280028     371.3514     70.28871      1.204     2.61    -4.327052     19.82553     66.19268         8     0.880     0.608   2.95   0
       110    890.9692    682.9741 300.2635652 +22.8261843     164.0606     70.27081      1.107     3.74    -4.337408     19.82553     24.00878         5     1.019     0.394  31.03   0
       111    458.2135    678.6164 300.1302426 +22.6951243     534.0309     70.21709      1.531     3.62    -4.263539     19.82553      56.7285         9     0.912     0.687  71.04   0
       112    652.8910    674.7625 300.1920778 +22.7524275     377.4408     70.25291      1.437     4.11    -4.272349     19.82553       40.441         6     0.786     0.615 -83.72   0
       113    623.5207    674.6256 300.1829793 +22.7435778     411.2411     70.27081      1.593     5.22    -4.113382     19.82553     39.68476         7     0.988     0.778 -38.90   0
       114    502.5397    674.4207 300.1453964 +22.7072218     567.0472     70.21709      1.580     4.69    -4.153628     19.82553     51.05899        10     1.008     0.766 -88.27   0
       115    467.9319    669.8825 300.1361059 +22.6955351     941.0773     70.37813      1.395     3.55    -4.192122     19.82553     107.3312        14     1.142     0.800 -89.24   0
       116    935.7909    669.5306 300.2819075 +22.8357620      1950.97     70.25291      1.317     2.40    -4.205563     19.82553      243.693        22     1.049     0.962  -2.35   0
       117     29.8717    663.6559 300.0019932 +22.5622412     2905.329     70.28871      1.348     2.39    -4.128847     19.82553     407.8471        26     1.128     0.989 -82.46   0
       118    974.9097    659.2255 300.2974537 +22.8445294     122.4998     70.19918      0.973     3.16    -4.408692     19.82553     39.85034         7     0.847     0.596  26.67   0
       119    331.2676    656.6163 300.0979201 +22.6507147     5203.895     70.27081      1.420     2.62    -4.465171     19.82553     572.7967        31     1.162     1.094  81.41   0
       120    453.6078    653.6385 300.1369326 +22.6865766     5159.944     70.28871      1.492     2.82    -4.109595     19.82553      543.706        36     1.235     1.139  78.24   0
       121    865.1325    647.2520 300.2671312 +22.8081805     1115.669     70.28871      1.321     2.97    -4.294186     19.82553     130.3094        16     1.067     0.867 -61.78   0
       122    949.7009    644.6099 300.2943479 +22.8327750     6992.434     70.18126      1.255     2.34    -4.228853     19.82553     928.6096        34     1.121     1.007  89.76   0
       123    514.2098    643.1614 300.1591924 +22.7017546     6581.167     70.27081      1.460     2.88    -3.877146     19.82553     663.0646        37     1.212     1.146  69.82   0
       124    241.6647    638.8063 300.0758602 +22.6187109     694.6796     70.23501      1.352     2.61    -4.345828     19.82553     105.4952        14     1.006     0.802  74.95   0
       125    445.9314    631.3959 300.1417772 +22.6778920     2522.855     70.23501      1.499     2.90    -4.027523     19.82553     244.2971        24     1.155     1.060  43.03   0
       126    788.4564    631.1702 300.2484712 +22.7805723     366.6844     70.28871      1.288     2.71    -4.388518     19.82553     55.38496         6     0.717     0.597 -50.98   0
       127    424.2122    629.6864 300.1355778 +22.6708842     777.6964     70.21709      1.671     3.66     -4.15756     19.82553      69.2811        15     1.166     0.873  59.15   0
       128    178.5202    629.3130 300.0593264 +22.5970321     365.5894     70.43172      1.218     2.93    -4.265764     19.82553     50.82544         8     0.868     0.665  48.30   0
       129    865.5078    626.6215 300.2739567 +22.8023690        981.2     70.19918      1.547     2.94    -4.221911     19.82553     89.92096        15     1.018     0.875 -46.53   0
       130    562.4545    618.8817 300.1820993 +22.7092615     116655.3     70.32449      1.531     2.92    -3.690954     19.82553     12490.82       146     1.454     1.408 -66.63   0
       131    746.1936    623.8878 300.2376750 +22.7658082     429.3524     70.18126      1.320     4.48    -4.357755     19.82553      55.4301         8     0.985     0.666  64.72   0
       132    248.5424    619.0145 300.0844326 +22.6150997     2081.894     70.23501      1.447     2.66    -4.269574     19.82553     272.3535        22     1.076     1.040 -10.45   0
       133    814.8362    615.0249 300.2619390 +22.7838466     332.1577     70.28871      1.580     5.00    -4.338963     19.82553      29.9073         6     0.947     0.746  26.60   0
       134    453.0947    599.4788 300.1543824 +22.6708842     1556.534     70.37813      1.605     3.38    -3.793718     19.82553     141.2089        24     1.393     1.035 -83.93   0
       135    849.7864    585.1242 300.2825500 +22.7857390     1083.138     70.28871      1.391     2.91    -4.027545     19.82553     111.9531        15     0.987     0.900 -56.55   0
       136    721.1997    582.9152 300.2432121 +22.7465503     1438.271     70.14541      1.465     3.03    -3.991903     19.82553       148.35        19     1.096     0.991  49.04   0
       137    965.6245    579.6822 300.3204232 +22.8188991     411.4429     70.23501      1.449     3.91    -3.694742     19.82553     47.53863         7     0.962     0.576 -66.86   0
       138    508.4461    578.8451 300.1783098 +22.6815700     346.6022      70.3066      1.422     4.67    -3.463141     19.82553      37.4587         8     1.007     0.615  17.21   0
       139    978.4722    576.6252 300.3254225 +22.8218716      814.967     70.28871      1.265     2.30    -3.561531     19.82553     109.8101        12     0.857     0.786  78.85   0
       140    964.0587    575.8232 300.3211896 +22.8173213     475.3745     70.27081      1.449     2.88    -3.650668     19.82553      48.3894         8     0.819     0.704   9.51   0
       141    850.0609    575.0582 300.2859080 +22.7829305     1335.968     70.34237      1.648     5.45    -3.951201     19.82553     136.9601        19     1.609     0.805  78.76   0
       142    603.5716    573.6789 300.2095921 +22.7086218     408.3429     70.28871      1.986     3.87    -3.459499     19.82553     34.08084         6     0.935     0.635 -24.77   0
       143    888.2932    570.2430 300.2993875 +22.7930086     2445.489     70.28871      1.373     2.62    -3.888217     19.82553     271.3459        24     1.148     1.041 -11.77   0
       144    120.5061    561.2030 300.0634457 +22.5600859     616.0677     70.18126      1.316     2.95    -3.762591     19.82553     73.88739         7     0.887     0.498 -86.87   0
       145    980.1042    560.5308 300.3311634 +22.8177373     399.7453       70.396      1.272     2.43    -3.257818     19.82553     75.90303         8     0.855     0.617  58.78   0
       146    720.4254    544.7419 300.2553800 +22.7353582     383.2462     70.27081      1.640     3.44    -3.691506     19.82553     30.13929         5     0.780     0.439 -69.41   0
       147    662.0550    540.7687 300.2384958 +22.7167143     340.3813     70.28871      1.296     3.20    -3.609455     19.82553     41.58667         7     0.703     0.693  61.17   0
       148    722.6166    533.1300 300.2598367 +22.7326811     419.9992     70.28871      1.514     3.91    -3.678362     19.82553     37.26332         9     0.917     0.694  21.29   0
       149    879.7477    529.4061 300.3099988 +22.7787179     493.4506     70.25291      1.284     2.61    -3.645861     19.82553     68.33688         9     0.789     0.758  70.06   0
       150    863.7573    525.4918 300.3062879 +22.7728005     435.9903     70.27081      1.644     5.09    -3.640699     19.82553     37.92583         9     0.920     0.796 -13.32   0
       151    608.4805    523.8614 300.2273129 +22.6957940     1929.528     70.36025      1.640     3.15    -3.229182     19.82553     173.3617        25     1.228     1.136  88.75   0
       152    968.8905    521.9961 300.3401932 +22.8033063     211.5782     70.18126      1.296     3.67    -3.070877     19.82553      33.5704         5     0.651     0.596  -0.36   0
       153   1019.5381    502.4789 300.3623283 +22.8128757      771.783     70.34238      1.318     2.67    -2.505303     19.82553     90.94476        12     0.904     0.788  62.60  16
       154    891.4556    502.2641 300.3224690 +22.7744307     239.9054     70.32449      1.069     3.43     -3.49543     19.82553     45.00237         5     0.755     0.451  69.62   0
       155    977.9608    501.0085 300.3498422 +22.7999946     462.4692     70.28871      1.259     2.95    -2.926111     19.82553     72.92726         9     0.948     0.700 -70.98   0
       156    718.7672    497.5896 300.2701887 +22.7213218     698.5662     70.27081      1.681     4.39     -3.63843     19.82553     56.85386        15     1.188     0.979  47.20   0
       157    223.2919    496.4457 300.1164244 +22.5723669     376.6534     70.27081      1.143     3.81    -3.470734     19.82553     44.30386         6     0.914     0.455 -89.68   0
       158    285.3460    491.8192 300.1372137 +22.5896619     2113.035     70.25291      1.556     3.02    -3.318862     19.82553      230.503        25     1.234     1.061  38.87   0
       159   1018.1954    489.7054 300.3660609 +22.8088030     2354.792     70.18126      1.289     2.49    -2.558293     19.82553     320.7274        22     1.021     0.959  79.27  16
       160    232.6003    486.6237 300.1225086 +22.5723430     4289.884     70.19918      1.525     2.73    -3.403329     19.82553     517.8392        31     1.236     1.117  81.69   0
       161    373.3325    480.7219 300.1681742 +22.6128779     2822.796     70.37813      1.611     3.09    -3.149509     19.82553      310.961        30     1.293     1.128  73.63   0
       162    998.1604    480.8149 300.3627028 +22.8002452     999.1606     70.28871      1.259     2.41    -2.738093     19.82553     138.3984        13     0.893     0.830  24.70   0
       163    617.5040    477.3564 300.2452348 +22.6851492      10488.5     70.28871      1.643     3.27    -3.186194     19.82553     935.4374        50     1.332     1.295  48.79   0
       164    635.4522    477.5703 300.2507526 +22.6905926      582.664     70.28871      2.108     5.84    -3.317444     19.82553     36.23145         8     1.215     0.791 -53.50   0
       165    951.0065    459.8260 300.3548220 +22.7800851     307.1308     70.27081      1.441     3.43     -3.08904     19.82553     46.44009         6     0.751     0.568  40.81   0
       166    172.2519    457.6216 300.1131802 +22.5459127     1131.424     70.27081      1.425     2.84    -3.413002     19.82553     136.0592        19     1.174     0.954 -81.89   0
       167    558.1238    446.7645 300.2366929 +22.6585598     3804.351     70.23501      1.627     3.42    -2.958037     19.82553     340.3238        34     1.363     1.188  86.72   0
       168    971.6462    446.7103 300.3655183 +22.7825010     670.8668     70.25291      1.322     2.73    -3.004235     19.82553     86.02109        12     0.919     0.818  71.00   0
       169    762.6368    435.6565 300.3039765 +22.7166869     553.9174     70.27081      1.431     3.73    -3.439081     19.82553      61.4455        12     0.979     0.934 -85.42   0
       170    464.7841    433.0979 300.2120908 +22.6266433     3519.304     70.18126      1.657     3.35    -3.030446     19.82553     308.2568        34     1.320     1.236  77.39   0
       171    856.6021    427.0640 300.3360431 +22.7423821     680.9672     70.28871      1.469     3.56    -3.156044     19.82553     73.31011        16     1.138     0.889 -71.74   0
       172    953.8923    427.5165 300.3662196 +22.7716662     348.4547     70.44958      1.286     3.75    -3.064253     19.82553     41.31619         6     0.811     0.498  -3.88   0
       173    352.3894    412.5596 300.1838073 +22.5870349     1418.629     70.27081      1.585     3.19    -3.070801     19.82553     148.9157        20     1.125     1.037  81.33   0
       174     70.7382    409.7165 300.0972107 +22.5017048     566.8657     70.36025      1.325     2.97    -3.276264     19.82553     77.88471        11     0.995     0.744  43.74   0
       175    321.6931    401.9061 300.1777242 +22.5747690     17020.49     70.43172      1.621     3.25     -2.99169     19.82553     1563.792        60     1.433     1.300 -89.32   0
       176    856.0029    398.9405 300.3449929 +22.7341228     804.9386     70.25291      1.580     4.59    -3.097666     19.82553     78.50018        17     1.212     1.029  18.80   0
       177     18.1018    389.7958 300.0873368 +22.4801924     2723.256     70.16334      1.463     2.91    -2.916216     19.82553     299.8815        26     1.252     1.015  82.26   0
       178    732.0394    381.3609 300.3120849 +22.6919202     1070.233     70.34237      1.623     3.38    -3.261683     19.82553     96.34525        18     1.120     0.990   5.68   0
       179    393.8688    366.2249 300.2117559 +22.5861787     1339.764     70.27081      1.765     4.46     -3.03342     19.82553     92.40448        23     1.481     1.019  71.10   0
       180    832.4505    358.6244 300.3507496 +22.7154818     371.7474     70.28871      1.570     3.77    -3.113985     19.82553     60.41127         6     0.993     0.411  16.46   0
       181    470.0850    345.6134 300.2421564 +22.6031193     614.2262     70.21709      1.755     4.71    -3.050054     19.82553      53.7611        12     1.168     0.827 -83.90   0
       182    714.5756    337.1772 300.3209965 +22.6739942     1269.863     70.23501      1.619     3.73    -2.918068     19.82553     121.4955        19     1.203     1.041  83.73   0
       183    975.5723    331.4316 300.4041899 +22.7505481     1945.386     70.27081      1.529     2.86     -3.28727     19.82553      190.986        24     1.187     1.026  73.43   0
       184    423.1205    321.5361 300.2353663 +22.5821233     321.6189     70.37813      1.971     5.89     -2.80179     19.82553     29.95305         6     1.053     0.928   1.14   0
       185    128.8277    315.5441 300.1458361 +22.4921242     283.6718     70.27081      1.606     4.99    -2.755816     19.82553     37.47217         7     1.147     0.614  84.85   0
       186     97.7931    315.6569 300.1361598 +22.4828441     681.9514     70.27081      1.564     3.74    -2.769938     19.82553      72.7641        14     1.074     0.909   9.76   0
       187    992.9756    311.9756 300.4159345 +22.7501689     249.5243     70.23501      1.568     3.31    -3.250953     19.82553     31.89671         4     1.023     0.311  38.73   2
       188    182.3159    308.3048 300.1648039 +22.5060956      339.105     70.44958      1.736     4.35    -2.658715     19.82553     31.84486         6     0.816     0.670 -20.30   2
       189    883.9976    287.6148 300.3898731 +22.7105217     1262.212     70.10954      1.599     3.31    -2.998453     19.82553     124.4573        20     1.234     0.991 -74.51   0
       190    302.9360    285.3254 300.2097522 +22.5356842     1312.446      70.3066      1.666     3.25     -2.47583     19.82553     123.8757        21     1.127     1.117  43.16   0
       191    380.6778    280.1974 300.2355889 +22.5575277     590.2164     70.18126      1.844     4.40    -2.506918     19.82553     57.38544        13     1.161     1.001  14.96   0
       192    782.6271    279.7451 300.3608423 +22.6778881     355.4624     70.27081      1.436     3.39    -2.843689     19.82553     47.09792         5     0.944     0.419  73.38   0
       193    197.7245    272.9727 300.1810627 +22.5005795     330.9578     70.25291      1.255     2.33    -2.579145     19.82553     54.21012         7     0.691     0.673  66.54   0
       194    735.2265    269.1534 300.3495164 +22.6606411     934.6825      70.3066      1.681     4.00    -2.401812     19.82553     87.36153        17     1.135     1.048  48.09   0
       195    799.5352    268.9012 300.3696305 +22.6798384     403.0906     70.36025      1.913     5.16    -2.951037     19.82553     32.59653         7     1.205     0.625  43.10   0
       196    219.0631    265.5816 300.1900930 +22.5048596     264.5644     70.23501      1.359     3.77    -2.554465     19.82553     36.12746         6     0.828     0.492   2.64   0
       197    739.1108    261.1839 300.3533135 +22.6595153     442.6371     70.19918      1.603     5.30    -2.430924     19.82553     38.21114        10     1.004     0.791 -83.26   0
       198    659.6263    260.2695 300.3288582 +22.6354325     747.9543     70.27081      1.582     4.67    -2.477076     19.82553      68.8153        14     1.179     0.920 -86.66   0
       199   1006.8063    261.1165 300.4367613 +22.7396911     532.4408     70.19918      1.372     3.99    -3.188433     19.82553     58.58614         8     0.875     0.627 -49.06   0
       200    586.6113    252.2073 300.3087454 +22.6112322     562.5062     70.14541      1.815     5.42    -2.381644     19.82553     47.09195        10     1.303     0.637 -57.25   0
       201    855.2540    251.4639 300.3926527 +22.6915210     835.6558      70.3066      1.589     3.78     -2.73321     19.82553     76.02233        15     1.176     0.854  11.88   0
       202    867.4639    250.2560 300.3968499 +22.6948316     533.0024     70.32449      1.649     5.65    -2.718385     19.82553     51.32098        10     1.069     0.841   9.41   0
       203    983.8962    240.4203 300.4363369 +22.7268798     678.2494     70.18126      1.413     3.10    -3.173621     19.82553     80.60347        13     1.008     0.839 -47.12   0
       204    218.0840    234.1171 300.2000026 +22.4955356     416.3607       70.396      1.513     4.18    -2.563029     19.82553     38.60574         9     0.823     0.764  48.62   0
       205     80.0378    229.0755 300.1587528 +22.4526762     1293.901     70.21709      1.559     3.39    -2.628304     19.82553     131.6675        23     1.192     1.168 -19.12   0
       206    903.2811    225.3032 300.4161132 +22.6983887     416.5214       70.396      1.678     5.80    -2.916107     19.82553     44.90548         9     1.221     0.775 -53.26   0
       207    237.4390    222.2000 300.2098857 +22.4979206     3309.219     70.25291      1.638     3.11      -2.5561     19.82553     309.0685        32     1.357     1.160 -88.30   0
       208     21.5268    216.6863 300.1446043 +22.4315658     783.3112       70.396      1.456     3.09    -2.750537     19.82553     92.83796        14     1.056     0.824 -69.97   0
       209    220.6764    212.9187 300.2076888 +22.4902289     428.2614     70.37813      1.512     3.21    -2.579149     19.82553      49.6181         7     0.945     0.617  -1.15   0
       210    881.3564    203.3533 300.4164049 +22.6855121     2041.327      70.3066      1.554     3.11    -2.644364     19.82553     213.0616        23     1.199     1.070 -79.66   0
       211    984.9189    202.1883 300.4490664 +22.7161944     1562.402     70.25291      1.436     2.84    -2.972494     19.82553     177.0694        20     1.062     0.996  69.92   0
       212    430.9872    199.2219 300.2775213 +22.5493628     334.9426     70.25291      1.459     3.79    -2.471842     19.82553     27.26977         5     0.824     0.500 -52.98   0
       213    355.7316    190.4496 300.2569639 +22.5242804     377.7795     70.27081      1.708     4.38    -2.539732     19.82553     26.46149         7     0.992     0.551 -58.28   0
       214    120.9506    187.8891 300.1848275 +22.4531318     310.5518     70.27081      1.438     5.36    -2.589476     19.82553     38.82631         7     1.149     0.707  79.24   0
       215    482.2398    186.1392 300.2977112 +22.5609704     976.8629     70.27081      1.692     4.19    -2.536258     19.82553     78.53309        18     1.152     1.063  -6.64   0
       216    410.2481    186.5016 300.2751991 +22.5394923     218.7794      70.3066      1.272     4.86    -2.457536     19.82553     30.47854         7     1.057     0.634  20.40   0
       217    256.3872    166.1088 300.2339787 +22.4875022       3235.4     70.21709      1.595     3.16    -2.611977     19.82553     302.3862        29     1.248     1.171  50.96   0
       218    107.0428    165.4673 300.1877835 +22.4425251     475.9129     70.25291      1.724     5.19    -2.583754     19.82553     37.76564         8     0.960     0.793  44.10   0
       219    885.2582    162.2165 300.4309721 +22.6748556     267.6499     70.25291      1.753     5.39    -2.552397     19.82553     24.94528         6     1.215     0.676 -52.03   0
       220     17.9771    156.1349 300.1631521 +22.4131277     276.8475     70.25291      1.578     4.56    -2.540141     19.82553     29.44946         5     1.194     0.494 -69.91   0
       221    502.3129    151.3732 300.3152389 +22.5570017     3633.052     70.25291      1.709     3.38    -2.536877     19.82553      342.142        33     1.330     1.208  88.38   0
       222    387.6332    151.1756 300.2796294 +22.5225678     470.2375     70.27081      1.732     5.68    -2.465538     19.82553     40.27286        10     1.093     0.830  57.87   0
       223    755.0978    140.8869 300.3973386 +22.6297364     377.1815     70.43172      1.813     4.51    -2.422438     19.82553      39.5438         6     1.036     0.558 -81.75   0
       224    630.6695    131.2933 300.3617037 +22.5896998     3714.222       70.396      1.694     3.37    -2.480699     19.82553      345.874        32     1.270     1.242  51.60   0
       225    405.7681    130.5344 300.2919671 +22.5220767     672.1139     70.27081      1.574     3.44    -2.412756     19.82553     104.9473        15     1.100     1.025  77.02   0
       226    671.8758    128.9077 300.3753074 +22.6013609      525.737     70.41386      1.827     3.12    -2.397538     19.82553     59.91227         9     0.952     0.770  51.70   0
       227    687.9887    124.5930 300.3817248 +22.6049485     407.3667     70.14541      1.480     4.05    -2.373209     19.82553     43.20335         6     0.996     0.490   2.46   0
       228    154.7985    122.9700 300.2164075 +22.4446521     387.9063     70.23501      1.439     4.32    -2.455502     19.82553     44.46605         8     1.048     0.640 -54.51   0
       229    957.7928    122.0095 300.4666296 +22.6850177     211.7083     70.12748      1.277     3.91    -2.532188     19.82553      35.5998         7     0.818     0.705  21.55   0
       230    674.7270    116.1404 300.3803378 +22.5985462     1612.722      70.3066      1.660     3.33    -2.343011     19.82553     158.7393        25     1.289     1.133  63.24   0
       231    690.0480    114.8604 300.3855240 +22.6027686     568.7419     70.32449      2.217     5.25    -2.332863     19.82553      40.8071        10     0.988     0.789 -63.76   0
       232    761.1477    107.4850 300.4100611 +22.6219483     975.5881     70.28871      1.692     4.13     -2.28521     19.82553     91.55943        21     1.345     1.024  75.49   0
       233    699.1505    100.9492 300.3928720 +22.6014976     475.5804      70.3066      1.693     4.24    -2.274112     19.82553      42.7123         9     0.965     0.878  -9.84   0
       234    504.9719    100.3001 300.3326374 +22.5431275       651.09     70.18126      2.018     5.09    -2.519981     19.82553     44.72014        12     1.103     0.973  79.75   0
       235     77.7999    100.6736 300.1997229 +22.4151580      423.416     70.14541      1.674     3.57    -2.173062     19.82553      38.4501         5     0.935     0.393 -84.78   0
       236    408.5917     98.3803 300.3032774 +22.5136883     538.1971     70.23501      1.809     4.86    -2.372569     19.82553     53.95086        11     1.105     0.955  26.91   0
       237    747.8040     89.4766 300.4117472 +22.6127750      387.336     70.18126      1.595     3.73    -2.230147     19.82553     40.67775         7     0.914     0.728  89.39   0
       238    180.3533     88.6675 300.2354756 +22.4424692      2251.52     70.25291      1.645     2.94    -2.392977     19.82553     233.6721        27     1.225     1.156 -52.49   0
       239    296.1386     80.8945 300.2739826 +22.4749552     748.8748     70.36025      1.698     3.81    -2.329361     19.82553     73.43279        16     1.253     0.952  71.79   0
       240    741.4092     80.9798 300.4125119 +22.6084172     499.6838     70.25291      1.510     3.96    -2.216279     19.82553     47.21506        10     0.894     0.837 -47.10   0
       241    779.0972     76.0809 300.4258410 +22.6182978     470.9949       70.396      2.156     6.84    -2.207611     19.82553     30.94326        10     1.372     0.957 -59.24   0
       242    799.2495     72.0853 300.4334154 +22.6231850     1340.067     70.25291      1.672     3.30    -2.200677     19.82553     113.8022        22     1.204     1.118  17.64   0
       243    505.2091     70.6646 300.3423252 +22.5346847     370.9718     70.25291      1.838     3.83    -2.368147     19.82553     35.67633         5     0.892     0.551  51.14   0
       244    182.4769     67.5089 300.2429988 +22.4370317     572.7664     70.41386      1.569     4.15    -2.339841     19.82553     60.03976        13     1.109     0.958  45.59   0
       245    973.9538     65.1081 300.4901291 +22.6734934     445.3103     70.28871      1.530     4.50    -2.258289     19.82553     48.10855         9     1.228     0.913 -76.07   0
       246    747.5078     64.9160 300.4196226 +22.6056266     529.3549     70.44958      1.686     5.04    -2.188542     19.82553     42.82859         9     1.163     0.707   1.58   0
       247    600.2162     49.7489 300.3786780 +22.5571433     506.3109     70.27081      1.792     4.15    -1.813281     19.82553     44.85549        10     1.002     0.825 -20.27   0
       248    762.7292     44.5593 300.4309672 +22.6043339      450.675     70.23501      1.657     4.80    -2.153872     19.82553     50.26128         7     1.062     0.616  21.94   0
       249    571.8864     42.5564 300.3721928 +22.5465885     1073.804     70.25291      1.676     3.85    -1.969738     19.82553     94.27422        17     1.175     0.978  42.45   0
       250    294.8879     40.4750 300.2867043 +22.4629731     284.8669       70.396      1.436     4.87    -2.222579     19.82553     36.89834         8     0.889     0.754 -47.16   0
       251      9.5730     38.6922 300.1986405 +22.3769045     350.3535     70.21709      1.384     4.56    -2.146365     19.82553     47.30339         9     1.094     0.755 -79.84   0
       252    529.1179     36.3975 300.3608800 +22.5320039     724.5776     70.18126      1.721     4.66    -2.176079     19.82553      66.8194        17     1.260     1.044 -67.18   0
       253    634.8493     33.3946 300.3947641 +22.5628192     664.6844     70.25291      1.531     4.09    -1.777531     19.82553     74.59724        12     1.182     0.829   1.58   0
       254    230.3470     32.2354 300.2693154 +22.4412575     341.8726     70.28871      1.363     2.26    -2.206092     19.82553     44.73933         5     0.702     0.451  73.55   0
       255    278.8196     29.7605 300.2851843 +22.4550791     280.8235      70.3066      1.480     4.05    -2.202451     19.82553     34.97212         6     0.828     0.565  44.11   0
       256    454.8972     26.8284 300.3408904 +22.5070134      1226.76     70.21709      1.752     3.98    -2.105701     19.82553     89.64795        22     1.305     1.088 -85.41   0
       257    102.1305     25.3700 300.2317049 +22.4008403     842.1277     70.27081      1.528     2.97     -2.15407     19.82553     80.41798        13     0.962     0.829 -74.78   0
       258    101.7978   1010.3292 299.9115208 +22.6831775     1281.542     70.21709      7.776     7.92     5.747099     19.82553     65.99447        18     2.267     1.017 -83.44  17
