#   1 NUMBER                 Running object number                                     
#   2 X_IMAGE                Object position along x                                    [pixel]
#   3 Y_IMAGE                Object position along y                                    [pixel]
#   4 ALPHA_J2000            Right ascension of barycenter (J2000)                      [deg]
#   5 DELTA_J2000            Declination of barycenter (J2000)                          [deg]
#   6 FLUX_APER              Flux vector within fixed circular aperture(s)              [count]
#   7 FLUXERR_APER           RMS error vector for aperture flux(es)                     [count]
#   8 FLUX_RADIUS            Fraction-of-light radii                                    [pixel]
#   9 FWHM_IMAGE             FWHM assuming a gaussian core                              [pixel]
#  10 BACKGROUND             Background at centroid position                            [count]
#  11 THRESHOLD              Detection threshold above background                       [count]
#  12 FLUX_MAX               Peak flux above background                                 [count]
#  13 ISOAREA_IMAGE          Isophotal area above Analysis threshold                    [pixel**2]
#  14 A_IMAGE                Profile RMS along major axis                               [pixel]
#  15 B_IMAGE                Profile RMS along minor axis                               [pixel]
#  16 THETA_IMAGE            Position angle (CCW/x)                                     [deg]
#  17 FLAGS                  Extraction flags                                          
         1    327.9324      7.6166 300.2939942 +22.4782499     221.8119     70.13689      1.429     3.53    -2.673598     19.78775     32.13319         5     0.869     0.486   1.36   0
         2    595.2341      2.6502 300.3787683 +22.5569138     606.6707     61.39178      1.605     4.35    -2.600338     19.78775     57.62033        14     1.217     0.998  40.97  24
         3    828.2631      2.0174 300.4515529 +22.6265182      202.577     58.31446      1.280     5.05    -2.576184     19.78775      28.0952         6     1.216     0.594  28.52  24
         4    931.4551   1008.3431 300.1567254 +22.9465038     474.7238     70.19046      1.019     2.38    -6.067316     19.78775     95.23414         8     0.817     0.684  70.79   0
         5    643.9431   1022.4459 300.0625704 +22.8642774     5387.696     60.87941      1.016     1.66    -5.605636     19.78775     1124.903        23     0.886     0.821  -6.13  26
         6    638.3437   1023.8099 300.0603831 +22.8629879     1928.638     53.75278      0.761     1.68     -5.52632     19.78775     662.2438         9     0.774     0.431   1.30  27
         7    206.6643   1021.4453 299.9268972 +22.7326815     2915.568     65.17352     13.751    33.76     11.98987     19.78775     72.13851       270     6.924     5.017 -10.77  27
         8    171.8912   1012.6545 299.9189557 +22.7197165     1471.015     70.19046      7.464    11.33     20.44411     19.78775     46.62754        27     2.818     1.269  46.50  19
         9     81.8996   1021.2754 299.8881973 +22.6951467     1750.718     65.88101     15.032    22.63     20.23411     19.78775     47.15294       106     6.714     2.119   0.87  27
        10     65.7623   1010.0058 299.8868553 +22.6870700     2179.407     70.17261     14.954    29.92     10.53953     19.78775     54.13986       196     6.981     3.560  11.67  19
        11     82.1754    991.5280 299.8979676 +22.6867096     2725.636     70.17261     23.678    77.49       12.593     19.78775     65.47433      1335    14.134    11.788  84.78  26
        12    153.2882    994.8501 299.9189731 +22.7090272     812.7973     70.15475      3.365     5.14     18.51448     19.78775     38.98575         7     1.688     0.442  29.90   3
        13    656.6821    991.8778 300.0764894 +22.8593351     4090.574     70.24399      1.137     1.87    -5.591389     19.78775     785.7432        26     0.999     0.871  30.59   0
        14    244.0842   1012.9073 299.9413048 +22.7414765     5929.093      70.3153     10.369    36.10     2.764742     19.78775     131.0597       660    10.726     5.440  48.70  27
        15    132.1861    990.1647 299.9139436 +22.7013451     562.9342     70.13689      3.636     4.50     17.02531     19.78775     26.67371         5     0.787     0.730 -29.77   0
        16      3.0733   1007.8832 299.8680829 +22.6676234     809.2352     63.32079      6.151     6.90    -15.95127     19.78775     31.17456         9     1.460     0.914  47.35  25
        17    105.6441    981.3229 299.9085781 +22.6908379     1200.878     70.11902      3.686     3.50     13.97639     19.78775     34.51551         5     0.766     0.461  63.12   3
        18    536.3968    986.1959 300.0409006 +22.8216005     343.3346     69.94009      1.043     2.03    -5.633049     19.78775     56.30725         5     0.661     0.475  75.44   0
        19    225.3000   1021.1312 299.9327900 +22.7381898     3968.674     66.37366      7.781    26.85     6.611755     19.78775     79.10704       217     5.450     3.822  11.13  27
        20    181.3616   1022.2499 299.9187738 +22.7253104     1001.053     61.77834      7.174     9.90     19.98586     19.78775     47.48404        20     2.321     1.178  -0.61  27
        21    565.1972    982.6340 300.0510225 +22.8292248     1009.085     70.13689      1.077     1.64    -5.445821     19.78775     180.5281        12     0.777     0.724 -73.76   0
        22    742.2020    979.3483 300.1071988 +22.8814058     139.1143     70.11902      0.935     2.34    -5.646909     19.78775     49.59733         6     0.690     0.612 -82.33   0
        23    459.0133    979.1258 300.0191272 +22.7963416     549.1027     70.15475      0.973     1.61    -5.638554     19.78775     152.0612         9     0.688     0.650 -39.26   0
        24    389.7076    977.2515 299.9981823 +22.7749946     3863.863     70.19046      1.072     1.70    -5.740225     19.78775     806.0834        20     0.874     0.830 -80.57   0
        25    115.2650    977.0016 299.9129729 +22.6924907      1171.12     70.13689      9.081    10.21     12.79113     19.78775     42.22749        24     1.951     1.503 -23.96   0
        26    422.0115    964.2477 300.0124617 +22.7809670     262.7109     70.15475      1.229     1.76    -5.589644     19.78775     69.11781         5     0.779     0.431  -1.64   0
        27    935.7740    955.6528 300.1752270 +22.9326793     1264.792     70.15475      1.011     1.66    -5.832243     19.78775     264.8076        14     0.817     0.740  73.68   0
        28     82.0710    959.3247 299.9084180 +22.6774542     2317.144     70.20831     17.162    29.29     3.897938     19.78775     54.87342       205     7.580     3.141  -8.98   3
        29     82.1786    947.7539 299.9122176 +22.6741721     2190.552     70.19046     15.361    25.50    0.9995854     19.78775     94.40377       177     5.604     3.221 -20.05   3
        30    586.3243    952.8665 300.0672885 +22.8270307     326.2487     70.22615      1.264     1.78    -5.178548     19.78775     54.00035         5     0.683     0.434 -70.68   0
        31    724.3484    943.8184 300.1132053 +22.8658569     403.3596     70.11902      0.873     1.69    -5.321865     19.78775     88.00131         5     0.669     0.440 -68.83   0
        32    100.7198    942.4445 299.9197038 +22.6782216     1114.168     70.11902      9.631    10.63    0.8433008     19.78775     40.00348        20     2.026     1.553  -9.03   1
        33    759.5069    938.8668 300.1257673 +22.8749856       569.98     70.27966      0.996     1.94    -5.328249     19.78775     119.4481         8     0.676     0.659 -88.94   0
        34    781.6995    932.5121 300.1347486 +22.8798208     6573.021     70.29749      0.985     1.63    -5.327859     19.78775     1283.782        23     0.831     0.822 -70.05   0
        35    827.5069    932.5835 300.1489961 +22.8935836     280.8886     70.06539      1.107     3.20    -5.373641     19.78775      47.3974         6     1.056     0.511  61.17   0
        36    972.6298    931.7668 300.1944922 +22.9368776     59.46281     70.15475      0.817     1.78    -5.723213     19.78775     60.95757         5     0.677     0.440  67.27   0
        37    914.9307    926.0001 300.1783829 +22.9179178     219.3327     70.08327      0.944     2.39    -5.578465     19.78775     47.54115         5     0.770     0.464  23.11   0
        38     93.2645    924.5238 299.9232210 +22.6708481     656.0513     70.20831      1.942     4.49    -3.886857     19.78775     57.47582        11     1.271     0.723  61.84   0
        39    833.6414    920.4272 300.1548644 +22.8919357     121.5869     70.17261      1.042     2.66    -5.245946     19.78775     68.00679         5     0.746     0.404  27.08   0
        40    487.0056    920.8191 300.0468148 +22.7880291     250.7932     70.10114      1.184     2.32    -5.104693     19.78775     55.46646         6     0.838     0.458 -36.92   0
        41    790.3414    914.4565 300.1433178 +22.8772332     860.5425     70.20831      0.991     1.91    -5.206146     19.78775     167.8278        11     0.848     0.653 -44.54   0
        42    642.6308    911.5698 300.0982575 +22.8320855     287.1567     70.13689      1.079     3.44    -5.131066     19.78775     43.89517         5     0.750     0.456  18.93   0
        43    828.4102    907.9771 300.1572869 +22.8867941       527.77     70.13689      1.048     1.73    -5.129735     19.78775     99.91163         8     0.706     0.620  -6.75   0
        44    727.7153    898.0544 300.1291496 +22.8537387     492.1421     70.20831      1.266     3.86    -5.087999     19.78775     90.45325         8     1.277     0.448  28.00   0
        45    440.8634    894.9105 300.0408933 +22.7667491     2322.698     70.22615      1.088     1.74    -5.134454     19.78775     547.0786        19     0.946     0.767  58.01   0
        46    739.5147    895.7666 300.1335691 +22.8566225     329.2275     70.10114      1.048     2.86    -5.065308     19.78775     68.90485         7     0.752     0.710  35.35   0
        47    165.8820    880.6841 299.9600436 +22.6801010     396.1948     70.26183      1.086     1.98     -3.43478     19.78775     86.06998         7     0.691     0.602   9.76   0
        48    171.7755   1017.3548 299.9173894 +22.7210281     1568.257     70.15475      5.432    11.73     21.44571     19.78775     48.96716        26     2.805     1.365  77.67  19
        49    143.1324    877.6383 299.9539675 +22.6723951     965.3135     70.10114      1.085     1.88    -3.850026     19.78775     188.2073        11     0.833     0.662 -74.45   0
        50   1014.7366    866.3387 300.2289165 +22.9307225     1377.929     70.17261      1.112     1.91    -5.422185     19.78775     246.8473        13     0.846     0.729 -78.44   0
        51    969.0222    864.8969 300.2151321 +22.9166014     1184.296     70.06539      1.052     1.60    -4.972095     19.78775     301.5742        13     0.867     0.662  89.29   0
        52    175.1311    859.4250 299.9698344 +22.6767869       223.75     70.13689      1.020     2.40    -4.534214     19.78775     57.09579         7     0.804     0.584  77.93   0
        53    752.6708    858.6252 300.1497537 +22.8499129     329.5755     70.13689      1.186     2.06    -4.874804     19.78775     69.96532         5     0.682     0.449  20.59   0
        54    986.4808    853.5220 300.2242769 +22.9185710     237.7502     70.24399      1.093     4.11    -5.068743     19.78775      40.3144         5     1.204     0.401 -53.43   0
        55    620.7145    852.8768 300.1105355 +22.8086735     2778.287     70.24399      1.049     1.70    -4.996938     19.78775     604.0286        16     0.825     0.768  29.16   0
        56    423.0532    850.0537 300.0499505 +22.7485412     368.5399     70.17261      1.017     1.66     -4.99772     19.78775     98.41292         6     0.665     0.526  47.40   0
        57    171.0059    846.8845 299.9726331 +22.6719542     806.6719     70.06539      1.184     1.86    -4.550702     19.78775     168.9348        11     0.940     0.678  40.47   0
        58    641.1707    845.3726 300.1193454 +22.8126588     327.0622     70.11902      0.942     2.13    -5.055232     19.78775     94.09735         7     0.765     0.595  53.49   0
        59   1013.7225    832.6543 300.2395616 +22.9207477     695.8029     70.17261      1.013     2.06    -5.130759     19.78775     124.9468         8     0.695     0.632 -15.62   0
        60    796.6980    832.5033 300.1719682 +22.8556238     2409.572     70.31531      1.004     1.72    -4.630037     19.78775     449.9379        16     0.830     0.777  73.32   0
        61    528.1358    829.9298 300.0891887 +22.7743102     155.7279     70.17261      1.294     3.79    -4.918291     19.78775     30.55439         5     1.238     0.334  26.10   0
        62    204.9967    827.1083 299.9896280 +22.6764944     237.5237     70.02961      1.207     2.35    -4.566471     19.78775     54.99529         6     0.764     0.612  12.98   0
        63    513.5887    825.0745 300.0862419 +22.7685519     369.4793     70.15475      1.093     2.10    -4.892059     19.78775     62.08414         7     0.692     0.623  79.15   0
        64    160.1619    823.2175 299.9769639 +22.6619150     644.1389     70.13689      1.186     2.32    -4.600698     19.78775     109.7478        10     0.841     0.690  63.39   0
        65    309.8524    815.3578 300.0260395 +22.7046103     31221.17     70.13689      1.102     1.73    -4.649936     19.78775     6076.128        55     1.063     0.978  72.61   0
        66    575.6690    818.5184 300.1076937 +22.7853012      248.442     70.24399      1.137     2.91    -4.846224     19.78775     39.20425         5     0.705     0.479  16.12   0
        67    567.5630    814.1769 300.1065834 +22.7816235     904.0024     70.15475      1.060     1.96    -4.826657     19.78775     172.4076        12     0.825     0.736  30.34   0
        68    980.4579    813.1228 300.2355445 +22.9051669      491.055     70.17261      1.010     1.71    -4.784769     19.78775     114.5992         6     0.679     0.490 -78.90   0
        69    237.9381    813.3640 300.0043357 +22.6824467     309.1341     70.15475      1.085     1.95    -4.559106     19.78775     58.79237         5     0.694     0.430 -23.42   0
        70    596.5751    810.0481 300.1169563 +22.7891445     514.0912     70.13689      1.044     2.03    -4.801323     19.78775     114.8797         9     0.779     0.650 -28.39   0
        71    607.3030    808.6329 300.1207560 +22.7919574     320.5661     70.11902      0.981     2.90    -4.795356     19.78775     73.35503         6     0.750     0.528 -48.66   0
        72    712.8905    804.7669 300.1548883 +22.8225256     240.1894     70.10114      1.235     2.78    -4.731193     19.78775     52.78576         6     0.872     0.445  34.41   0
        73    750.4742    795.0475 300.1697556 +22.8310103     371.8122     70.13689      0.933     1.76    -4.415311     19.78775     100.9546         6     0.693     0.498 -86.54   0
        74    359.5581    792.5939 300.0488984 +22.7130057     18310.52     70.17261      1.057     1.88    -4.635722     19.78775     2883.754        45     1.043     0.978  53.69   0
        75    373.8976    793.1532 300.0531753 +22.7174705     1151.171     70.17261      1.076     1.92    -4.635722     19.78775     246.6314        13     0.899     0.760  11.58   0
        76    882.4695    788.2254 300.2130998 +22.8686384     1710.448     70.13689      0.977     1.67    -4.424526     19.78775     332.1988        13     0.754     0.736  34.59   0
        77    370.6039    786.8665 300.0541962 +22.7146791     392.6858     70.11902      1.112     2.25    -4.635722     19.78775     64.27024         5     0.724     0.419  64.73   0
        78    640.4729    784.2881 300.1390015 +22.7949250     638.1465     70.27966      1.111     2.13    -4.822027     19.78775     93.19588         9     0.779     0.668  65.89   0
        79    242.1403    784.2397 300.0151156 +22.6753599     558.2008     70.13689      1.089     2.45    -4.538885     19.78775     101.9049         8     0.827     0.638 -37.88   0
        80     46.5737    779.8123 299.9558041 +22.6153616     367.8353     70.13689      1.146     2.89    -4.982051     19.78775      56.6743         8     0.827     0.682  37.15   0
        81    487.5108    778.9987 300.0931175 +22.7475108     511.6038     70.08327      0.978     1.79    -4.717763     19.78775     116.0122         8     0.747     0.621 -37.77   0
        82    888.5804    775.9360 300.2190022 +22.8669430     251.6044     70.11902      0.978     1.79     -4.41919     19.78775     71.85664         6     0.707     0.492  86.03   0
        83    433.4642    774.3193 300.0778269 +22.7299486     274.3702     70.24399      1.063     3.01    -4.654573     19.78775     43.86395         7     0.835     0.617  15.00   0
        84    866.4381    770.7382 300.2137925 +22.8588113     290.7205     70.15475      1.230     3.40    -4.381854     19.78775     36.36798         5     0.742     0.450 -69.22   0
        85    239.3905    768.5208 300.0193739 +22.6700283     296.8142     70.10114      1.049     3.72    -4.528292     19.78775     55.74583         8     0.965     0.729  32.40   0
        86    532.7400    757.1982 300.1142814 +22.7548298     346.5058     70.10114      1.054     2.21    -4.623713     19.78775       71.883         6     0.680     0.614  78.48   0
        87    554.4581    754.7162 300.1218472 +22.7606343     767.1715     70.24399      1.007     2.02    -4.592852     19.78775     138.0966        10     0.798     0.647 -10.10   0
        88    948.9614    753.4704 300.2451311 +22.8785970     2646.689     70.10114      1.006     1.67     -4.54232     19.78775     557.1557        19     0.941     0.784   7.39   0
        89    474.4580    753.9677 300.0971984 +22.7364142     297.2318     70.15475      1.118     3.23    -4.666577     19.78775     51.76861         6     0.928     0.509 -15.13   0
        90    937.3492    744.9479 300.2442832 +22.8726686     962.9771     70.17261      1.030     1.78    -4.469825     19.78775     199.3048        10     0.733     0.677  -2.75   0
        91    300.3068    739.0106 300.0479055 +22.6798555     558.8168     70.08327      1.202     2.15    -4.532717     19.78775     83.08694        10     0.843     0.681   6.05   0
        92    763.5867    736.3400 300.1929364 +22.8180943     1319.841     70.10114      0.993     1.77    -4.332468     19.78775     261.2808        11     0.781     0.688  68.13   0
        93    968.3650    735.0049 300.2571864 +22.8791118     962.7343     70.13689      1.030     1.84    -4.612491     19.78775     183.5816        10     0.755     0.690  -2.34   0
        94    149.1354    723.1378 300.0060896 +22.6299197     342.8854     70.17261      1.108     1.91    -4.451756     19.78775     67.06661         6     0.698     0.534  34.31   0
        95    845.9152    721.9581 300.2232634 +22.8386542     433.1537     70.10114      1.175     2.27    -4.324233     19.78775     68.59352         7     0.820     0.522  47.37   0
        96    882.1221    713.1439 300.2374132 +22.8469795     86114.89     70.17261      1.088     1.64    -4.303848     19.78775     20248.93       106     1.106     1.062  75.73   0
        97    644.6298    717.1530 300.1621317 +22.7769086     129.8967     70.15475      0.835     1.64    -4.333698     19.78775     61.88247         5     0.672     0.424 -63.66   0
        98    734.3527    713.3862 300.1912959 +22.8027387     309.8875     70.13689      0.966     2.35    -4.305487     19.78775     66.11669         5     0.680     0.468  15.86   0
        99    914.9314    705.8533 300.2500102 +22.8547226     269.1365     70.15475      1.017     1.96     -4.25102     19.78775     74.49922         6     0.724     0.513  41.45   0
       100    568.5118    702.1691 300.1433104 +22.7497751     946.7658     70.11902      1.136     2.09    -4.271408     19.78775     161.2707        13     0.922     0.765 -57.85   0
       101    749.6385    699.2710 300.2006473 +22.8032715     5536.074     70.10114      1.075     1.80    -4.293247     19.78775     984.1575        30     1.076     0.896  63.81   0
       102    251.2321    694.6165 300.0470880 +22.6523950     2854.675     70.11902      1.117     1.97    -4.243889     19.78775      478.527        19     0.899     0.859 -65.13   0
       103    333.2287    692.7828 300.0731731 +22.6764814     650.7341     70.13689      1.149     1.90    -4.299133     19.78775       125.39        11     0.817     0.765  55.18   0
       104    541.7245    688.1269 300.1395400 +22.7377098     475.6977     70.20831      1.122     2.39    -4.174774     19.78775     70.27007         8     0.786     0.632  50.03   0
       105    533.1838    680.3411 300.1394138 +22.7329137      1905.23     70.10114      1.117     1.94    -4.178747     19.78775     348.5561        17     0.983     0.772  74.42   0
       106    523.1843    673.9481 300.1383809 +22.7280795     936.4018     70.13689      1.179     2.04    -4.216418     19.78775     146.5692        10     0.785     0.685  82.17   0
       107    916.6868    671.7097 300.2616604 +22.8454447     236.9836     70.29749      1.228     3.08    -4.085345     19.78775     46.04173         6     0.854     0.482 -43.65   0
       108    201.0117    668.4885 300.0399764 +22.6298278      244.808     70.08327      0.954     3.32    -4.153834     19.78775     67.59943         6     1.190     0.352  46.34   0
       109    226.9195    665.6744 300.0489421 +22.6367983     313.3723     70.24399      1.077     2.38    -4.134132     19.78775       63.912         7     0.679     0.674 -72.71   0
       110    969.9918    665.0803 300.2804335 +22.8595191     329.4318     70.08327      1.174     1.55    -4.037112     19.78775     85.88024         5     0.676     0.420  62.56   0
       111    448.1092    663.8264 300.1183145 +22.7026509     1148.842     70.08327      1.160     2.12    -4.362761     19.78775      183.804        11     0.854     0.718  59.29   0
       112    102.2210    658.9158 300.0123980 +22.5974240     11635.63     70.08327      1.186     2.01    -4.349119     19.78775     2013.379        42     1.069     0.990  76.29   0
       113   1023.6151    660.9534 300.2984960 +22.8744054     442.3098     54.86026      0.883     1.96     -4.02857     19.78775     102.0073         6     0.708     0.485 -85.58  24
       114     23.1191    660.5861 299.9872905 +22.5741505     405.2193     70.11902      1.212     2.86      -4.5546     19.78775     54.46107         7     0.797     0.611  21.73   0
       115    533.0176    658.9922 300.1463035 +22.7267384     525.9004     70.08327      1.113     2.13    -4.034831     19.78775     103.9625         9     0.753     0.704  34.01   0
       116    285.7957    650.4506 300.0721905 +22.6501051     201.4076     70.13689      1.020     2.66    -3.981506     19.78775     35.28107         5     0.709     0.471 -17.62   0
       117    950.8904    644.9716 300.2810165 +22.8480187     559.7888     70.11902      1.007     1.82    -4.021515     19.78775     139.3302         7     0.662     0.618  71.03   0
       118     48.1475    643.0334 300.0007680 +22.5766352     1045.204     70.15475      1.808     4.47    -4.453721     19.78775     97.72154        14     1.404     0.722 -87.94   0
       119    817.7595    643.2167 300.2400950 +22.8076058     215.6936     70.15475      0.957     2.32    -4.070154     19.78775     67.57581         5     0.840     0.406   5.56   0
       120    114.2503    643.4495 300.0211621 +22.5966021     290.2496     70.17261      0.927     2.18    -4.266608     19.78775        49.97         5     0.681     0.460  22.05   0
       121    496.3301    639.9106 300.1410914 +22.7102572     211.7749     70.29749      1.101     2.71    -4.043919     19.78775     42.37578         7     0.702     0.674 -51.90   0
       122    890.9689    637.6009 300.2647346 +22.8279406     450.7619     70.10114      1.186     3.46    -4.081179     19.78775     71.55956        10     1.100     0.602  31.81   0
       123    453.2743    631.7873 300.1303373 +22.6950092     345.8427     70.15475      1.023     1.81    -3.980611     19.78775     71.30256         6     0.662     0.542 -38.59   0
       124    601.1502    630.5104 300.1767681 +22.7390028     417.9973     70.13689      1.448     2.22    -3.874255     19.78775     58.09092         6     0.704     0.606  55.05   0
       125    648.0224    628.9050 300.1918818 +22.7526000     307.8123      70.0475      1.046     2.98    -3.891978     19.78775     44.01551         5     0.612     0.608  29.22   0
       126    618.9885    628.4907 300.1829776 +22.7437734     433.5684     70.08327      1.287     1.91    -3.869588     19.78775     55.39678         6     0.710     0.500   1.34   0
       127    497.4290    627.7111 300.1453992 +22.7070866     587.5909     70.11902      1.326     2.35    -3.903656     19.78775     81.75032         8     0.834     0.611  81.25   0
       128    462.8628    623.3201 300.1360726 +22.6954566     910.7061     70.24399      1.229     2.06    -3.871963     19.78775     157.3374        14     0.932     0.842 -45.56   0
       129    931.1006    623.0995 300.2819581 +22.8358054     1905.389     70.36874      1.032     1.66    -4.010344     19.78775     449.5865        13     0.790     0.719 -57.55   0
       130     24.8843    617.0545 300.0019890 +22.5622035      3117.35     70.20831      1.244     2.08    -4.487578     19.78775     518.7654        25     1.085     0.907  49.54   0
       131    326.3306    610.0723 300.0979176 +22.6506895      5247.08     70.20831      1.176     2.14    -3.812627     19.78775     786.8395        27     1.041     0.913  59.99   0
       132    448.7401    607.0569 300.1369658 +22.6865536     5173.304     70.20831      1.172     1.87     -3.69787     19.78775     989.9791        26     0.969     0.917  60.80   0
       133    860.3741    600.9448 300.2671161 +22.8082430     1068.978     70.13689      1.114     1.82    -3.930263     19.78775     210.6572        10     0.843     0.676 -85.03   0
       134    944.9779    598.2086 300.2943758 +22.8328157     7226.936     70.13689      1.103     1.74     -3.89532     19.78775     1524.516        29     0.958     0.861  64.91   0
       135    509.3557    596.6497 300.1592070 +22.7017517     6595.441     70.17261      1.131     2.06    -3.681391     19.78775     975.4805        29     1.035     0.910  61.13   0
       136    236.8444    592.2772 300.0758853 +22.6187301     737.2602     70.11902      1.178     2.06    -3.887838     19.78775     143.5154        14     0.964     0.766  77.97   0
       137    441.0063    584.8143 300.1417896 +22.6778517      2557.68     70.02961      1.224     2.14    -3.658922     19.78775     419.0441        21     0.986     0.886  68.48   0
       138    783.5872    584.6783 300.2484781 +22.7805530     356.2194     70.13689      1.060     2.21    -3.765728     19.78775     92.82514        10     0.895     0.670   2.35   0
       139    419.2800    583.3525 300.1355068 +22.6709142     677.1215     70.15475      1.061     2.04    -3.650179     19.78775     104.9725         9     0.762     0.660  84.63   0
       140    173.6344    582.9575 300.0592723 +22.5970853     458.6764     70.19046      1.246     2.62    -4.053933     19.78775      73.0785         9     0.846     0.676  35.37   0
       141    860.8154    580.0251 300.2740535 +22.8023676     859.7416     70.15475      1.222     2.55    -3.786857     19.78775     123.4654         9     0.795     0.694 -43.49   0
       142    557.6243    572.3399 300.1821289 +22.7092535     119288.6     70.11902      1.179     2.09    -3.690452     19.78775     17948.82       131     1.245     1.227 -26.80   0
       143    107.2335    579.9654 300.0396170 +22.5762951     145.1698     70.20831      1.204     4.27    -4.120903     19.78775     33.63937         6     1.122     0.462  62.59   0
       144    741.1437    577.1077 300.2377176 +22.7656545     447.0657     70.19046      1.139     2.07    -3.757651     19.78775     99.74408         8     0.783     0.611 -46.63   0
       145    243.7179    572.4210 300.0844748 +22.6150984     1963.538     70.10114      1.119     1.98    -3.773192     19.78775     332.1065        17     0.925     0.843  87.74   0
       146    809.2910    568.3691 300.2617870 +22.7835755     198.1597     70.08327      0.973     3.49    -3.742553     19.78775     51.80266         5     0.746     0.470  10.84   0
       147    589.1461    558.7540 300.1963553 +22.7148079      217.214     70.17261      1.865     4.09    -3.690627     19.78775     33.78687         6     1.162     0.411  61.92   0
       148    448.2104    553.0415 300.1543566 +22.6708963     1527.503     70.13689      1.307     2.60    -3.604709     19.78775     221.9686        20     1.400     0.802 -89.12   0
       149    292.5519    554.9634 300.1053271 +22.6247459     244.4772     70.17261      1.246     2.45    -3.664695     19.78775     41.43484         6     0.764     0.497  87.63   0
       150    765.1256    541.1829 300.2568633 +22.7625291     235.2398     70.13689      1.281     3.94    -3.711288     19.78775     30.89198         6     0.764     0.583  40.43   0
       151    845.2084    538.7647 300.2825999 +22.7858400     1093.115     70.13689      1.157     2.05    -3.584781     19.78775       203.41        14     0.919     0.870  40.17   0
       152    716.3410    536.3911 300.2432254 +22.7465279     1490.363     70.10114      1.125     2.09     -3.68978     19.78775     231.8633        13     0.841     0.779  75.66   0
       153     76.6506    537.1831 300.0440208 +22.5548480     190.3025     70.13689      1.334     4.16    -4.100254     19.78775     27.61621         6     1.597     0.310  22.03   0
       154    960.5880    533.2337 300.3203606 +22.8188297     205.8853     70.11902      1.124     3.45    -3.427666     19.78775     39.52736         5     0.727     0.473 -75.70   0
       155    621.1740    533.0148 300.2146898 +22.7170242     398.9627     70.15475      1.426     3.22    -3.680238     19.78775     45.81629         6     0.886     0.470  55.57   0
       156    503.7036    532.2809 300.1783677 +22.6815843     414.9111     70.26183      1.123     2.47    -3.639467     19.78775     60.05196         7     0.774     0.606  67.24   0
       157    973.6808    530.1835 300.3254339 +22.8218767     920.3835     70.13689      1.125     2.03    -3.425364     19.78775     148.0067        10     0.861     0.633 -20.12   0
       158    845.4550    529.1864 300.2857894 +22.7831629     1183.244     70.13689      1.074     1.91    -3.572572     19.78775     183.1219        12     0.804     0.748   8.74   0
       159    959.1362    529.4186 300.3211477 +22.8172986     353.2902     70.10114      0.958     2.43    -3.431386     19.78775     90.61527         6     0.854     0.492  -2.75   0
       160    598.9202    526.9878 300.2097207 +22.7086208      370.171     70.11902      1.381     2.96    -3.680597     19.78775     55.86181         7     0.892     0.489 -43.78   0
       161    844.0839    525.6954 300.2864966 +22.7817494     399.5051     70.31531      2.106     4.57    -3.571039     19.78775     45.32739         5     1.264     0.469 -28.26   0
       162    883.4838    523.8755 300.2993667 +22.7930352      2478.52     70.22615      1.107     1.87    -3.504461     19.78775     421.8065        17     0.885     0.838  86.48   0
       163    115.5666    514.6686 300.0634232 +22.5600736     539.7814     70.13689      1.088     2.57    -3.799545     19.78775     83.53809         8     0.761     0.723 -53.19   0
       164    975.2169    514.2822 300.3310802 +22.8177686     373.7563     70.10114      0.962     1.79    -3.431712     19.78775     78.53038         6     0.654     0.544  55.33   0
       165    108.2558    504.4661 300.0644671 +22.5549536     322.3015     70.19046      1.148     3.42    -3.707017     19.78775     39.38856         7     0.918     0.532  55.02   0
       166    715.9150    498.5408 300.2553919 +22.7355321     307.5721     70.24399      0.997     2.22      -3.5936     19.78775     64.83895         5     0.703     0.466  19.46   0
       167    657.2825    494.8166 300.2383436 +22.7168847     512.4658     70.10114      1.574     2.92     -3.67143     19.78775     70.67838        10     0.938     0.799 -21.75   0
       168    604.6666    496.2787 300.2214878 +22.7015284     255.0874     70.24399      1.414     3.43    -3.679959     19.78775     37.96792         5     0.762     0.445 -75.52   0
       169    935.5951    493.9861 300.3253223 +22.8000654     50.14603     70.01172      1.027     4.27    -3.486328     19.78775     23.48855         5     0.804     0.647   2.07   0
       170    717.7910    486.6116 300.2598520 +22.7326690     489.8266     70.02961      1.113     2.35    -3.557606     19.78775     81.71794         9     0.828     0.652 -80.63   0
       171    971.5779    486.6208 300.3389336 +22.8087310     344.1405     70.13689      0.999     2.35    -3.447057     19.78775     59.47983         6     0.778     0.485  -1.47   0
       172    874.9036    482.7122 300.3100678 +22.7786398     621.7704     70.31531      1.181     2.06    -3.513972     19.78775     120.6716         9     0.810     0.639 -82.47   0
       173    859.4230    479.0309 300.3064393 +22.7729431      448.965     70.11902      1.027     1.81    -3.513222     19.78775     84.65025         6     0.709     0.483  78.48   0
       174    603.5153    477.2867 300.2272997 +22.6957309     2027.021     70.26183      1.286     2.28    -3.630855     19.78775     275.2246        19     1.027     0.900  77.49   0
       175    963.8418    475.7030 300.3400689 +22.8032762     349.4295     70.13689      1.188     2.80    -3.467901     19.78775      51.4276         7     0.822     0.583 -26.42   0
       176    443.4250    464.0432 300.1817848 +22.6439210     298.3185     70.17261      1.437     4.78    -3.311988     19.78775     32.85469         7     0.898     0.722 -18.27   0
       177   1014.8659    456.0523 300.3623632 +22.8129164      726.681     70.17261      1.105     1.84     -3.45983     19.78775     150.9438         9     0.705     0.681 -56.23   0
       178    886.6819    455.8724 300.3224586 +22.7744591     409.9214     70.26183      1.149     2.05    -3.507808     19.78775      63.2688         6     0.705     0.536  41.19   0
       179    973.1354    454.8039 300.3497563 +22.8000558     604.1592     70.13689      1.080     1.77    -3.487783     19.78775     128.4012         7     0.646     0.625  46.55   0
       180    714.0771    450.9583 300.2702782 +22.7213172     683.0969     70.10114      1.247     1.87    -3.484208     19.78775     126.6337        12     1.015     0.757  64.98   0
       181    218.2281    449.5228 300.1164831 +22.5721979     384.5517     70.13689      1.278     2.60    -3.428921     19.78775     57.26035         8     0.899     0.578 -72.94   0
       182    280.5175    445.3313 300.1372048 +22.5896843     2177.682     70.24399      1.164     2.20    -3.240459     19.78775     325.3416        19     1.022     0.868  60.68   0
       183   1013.5335    443.4554 300.3660400 +22.8088973     2384.358     70.19046      1.028     1.93    -3.498404     19.78775      383.559        17     0.864     0.807  53.32   0
       184    227.8371    440.1222 300.1225228 +22.5723843     4309.162     70.10114      1.256     2.13    -3.411038     19.78775     685.7791        26     1.067     0.941  88.35   0
       185    368.5335    434.3023 300.1681525 +22.6129229     2712.262     70.22615      1.222     2.37    -3.110814     19.78775      378.779        21     1.005     0.929  66.26   0
       186    993.5432    434.3456 300.3627656 +22.8002910     1030.855     70.19046      1.096     2.07    -3.522155     19.78775     157.9442        14     0.937     0.775 -64.28   0
       187    612.7018    430.8667 300.2452390 +22.6851576     10599.11     70.22615      1.271     2.23    -3.085272     19.78775     1658.031        37     1.095     1.033  67.54   0
       188    629.5696    431.6217 300.2502450 +22.6904314     552.2205     70.13689      1.731     3.72    -3.169955     19.78775     46.03712         7     0.950     0.493  -5.61   2
       189    239.2404    429.2064 300.1296123 +22.5726741      46.7012     70.17261      1.020     3.83    -3.356521     19.78775     32.68394         5     0.876     0.481  43.99   0
       190    232.5559    417.8186 300.1312333 +22.5674015     243.4568     70.15475      1.025     2.95    -3.376706     19.78775     44.35993         5     0.724     0.476  74.88   0
       191    946.0688    413.1427 300.3548508 +22.7799758     577.1583     70.15475      1.250     2.19    -3.526037     19.78775     75.74282         9     0.740     0.722 -74.25   0
       192    167.2678    411.1917 300.1130976 +22.5459113     1244.412     70.13689      1.257     2.33    -3.431406     19.78775      179.829        16     1.036     0.850  21.25   0
       193    553.3276    400.2998 300.2366858 +22.6585802     3859.392     70.29749      1.238     2.25    -2.837263     19.78775     481.9763        28     1.099     0.983  77.61   0
       194    966.5889    400.1943 300.3654541 +22.7824024       654.76     70.01172      1.155     2.54     -3.54094     19.78775     107.4723        11     0.931     0.794  20.20   0
       195    268.4618    399.9475 300.1481974 +22.5730460       328.55     70.19046      1.235     2.65    -3.119107     19.78775     66.89634         8     0.937     0.567 -46.51   0
       196    125.7282    392.8410 300.1061517 +22.5281829     311.9177     70.11902      1.368     2.06    -3.447488     19.78775     54.43886         5     0.721     0.417  74.76   0
       197    757.3172    389.1562 300.3038203 +22.7165271     692.5112     70.10114      1.329     2.89    -3.253867     19.78775      79.0323        10     0.915     0.704  32.39   0
       198    459.9850    386.6484 300.2120744 +22.6266728     3443.702     70.17261      1.276     2.32    -2.808288     19.78775     507.4417        24     1.035     0.945  67.03   0
       199    851.8763    380.9196 300.3359570 +22.7424964     870.1474     70.24399      1.215     2.14    -3.307812     19.78775      157.269        12     0.870     0.751  87.55   0
       200    949.2986    380.8139 300.3663578 +22.7716534     398.2896      70.0475      1.242     3.21    -3.528166     19.78775     56.56393         9     0.865     0.771  73.17   0
       201    347.5587    365.8643 300.1838562 +22.5869910     1432.316     70.10114      1.239     2.25    -2.974872     19.78775     238.2535        15     1.004     0.790  60.24   0
       202     66.0100    363.2194 300.0972215 +22.5017662      529.741     70.11902      1.223     2.27     -3.52286     19.78775     78.78265         9     0.753     0.711  -4.66   0
       203    316.8784    355.3331 300.1777363 +22.5747667     17511.32     70.24399      1.294     2.29    -2.964131     19.78775     2336.927        51     1.210     1.059  72.06   0
       204    851.5130    352.6302 300.3450305 +22.7342595     777.9625     70.13689      1.186     2.28     -3.16617     19.78775     110.5781        13     0.882     0.802 -52.81   0
       205     13.2725    343.2451 300.0873300 +22.4802110     2953.222     70.11902      1.223     2.25    -3.475902     19.78775     403.7547        23     1.032     0.936  52.67   0
       206    766.7206    341.6516 300.3221761 +22.7056987     354.1254     70.13689      1.205     3.28    -2.968859     19.78775     47.49101         8     0.856     0.676 -86.64   0
       207    415.0762    340.5102 300.2130863 +22.5999617     263.7346     70.29749      1.250     4.09    -2.850474     19.78775     39.61376         6     0.989     0.484  -8.27   0
       208    727.2911    334.8606 300.3120991 +22.6919322     1089.972     70.22615      1.174     2.23     -2.83673     19.78775     171.8276        13     0.862     0.795  47.70   0
       209    942.2535    327.2985 300.3815394 +22.7541635     348.9522     70.22615      1.181     3.20    -3.283694     19.78775     65.49467         7     1.032     0.430  86.08   0
       210    389.0281    319.6328 300.2117629 +22.5861576     1247.706     70.13689      1.426     3.09    -2.918119     19.78775     145.0892        19     1.330     0.824  56.59   0
       211    828.1512    312.2982 300.3508462 +22.7156715     404.4494     70.17261      1.415     2.18    -2.963352     19.78775     56.68429         7     0.780     0.566 -28.57   0
       212    710.7883    310.0887 300.3150020 +22.6798707     91.55838     70.08327      1.097     3.82    -2.815145     19.78775     37.12157         5     0.807     0.518  38.52   0
       213    464.8186    299.0580 300.2420178 +22.6029758     644.8307     70.10114      1.265     2.34    -2.835895     19.78775     95.48471        10     0.840     0.702  -6.82   0
       214    709.8162    290.7500 300.3209774 +22.6740240     1253.539     70.15475      1.290     2.32    -2.798739     19.78775     198.4894        15     1.022     0.820  84.50   0
       215    970.8848    285.0132 300.4041946 +22.7505853     1910.963     70.08327      1.200     1.89    -3.016349     19.78775     343.1124        16     0.894     0.807 -79.35   0
       216    418.0068    274.7950 300.2353316 +22.5819747     386.1407     69.99382      1.274     2.75     -2.94995     19.78775     57.90825         6     0.759     0.519  34.82   0
       217     92.9299    268.8455 300.1362191 +22.4827709      833.757     70.11902      1.414     2.91    -2.870812     19.78775     101.4414        16     1.076     0.900 -42.45   0
       218    123.3039    268.9958 300.1456054 +22.4919263     443.3307      70.0475      1.399     3.81    -2.845425     19.78775     58.71144         8     0.891     0.600  41.83   0
       219    986.7720    264.9767 300.4156526 +22.7495836     391.8052     70.13689      1.417     3.47    -2.940952     19.78775      54.2249         7     0.901     0.652 -87.68   0
       220    830.4174    261.8174 300.3679400 +22.7018444     285.2065     70.10114      1.477     4.43    -2.897547     19.78775     29.32121         5     1.131     0.493 -89.95   0
       221    176.8549    261.1544 300.1647880 +22.5057402     349.8598     70.17261      1.396     2.02    -2.656477     19.78775      63.0015         6     0.721     0.522 -55.56   0
       222    781.1720    252.3388 300.3556729 +22.6843678      296.506     70.13689      1.125     1.87    -2.945126     19.78775     66.33413         5     0.695     0.432  20.71   0
       223    879.4383    241.1624 300.3899214 +22.7105922     1161.208     70.20831      1.222     2.59     -2.84596     19.78775     165.0366        15     0.967     0.845  61.41   0
       224    298.0355    238.7641 300.2097185 +22.5356579     1295.739     70.20831      1.324     2.69    -2.611328     19.78775     174.2337        17     1.030     0.917  76.39   0
       225    375.9729    233.9250 300.2355231 +22.5576380      648.608     70.13689      1.367     2.66    -2.953931     19.78775     88.87347        11     0.982     0.670 -71.24   0
       226    777.9661    232.8784 300.3609904 +22.6778153     354.9715     70.08327      1.248     3.93    -3.002318     19.78775      48.6691         8     0.964     0.655 -28.98   0
       227    192.7940    226.0639 300.1811291 +22.5004508     366.7697     70.10114      1.207     2.27    -2.420397     19.78775     73.81121         8     0.759     0.702 -81.75   0
       228    730.5535    222.6394 300.3495440 +22.6606688     967.4113     70.19046      1.230     2.30    -3.019857     19.78775     142.5798        13     0.888     0.803  50.87   0
       229    795.8553    222.0573 300.3700758 +22.6800648     387.4421     70.19046      1.422     2.76    -3.006977     19.78775     56.34011         9     0.801     0.733 -35.01   0
       230    214.5373    218.8444 300.1902289 +22.5049000     196.1575     70.15475      1.196     3.19    -2.404123     19.78775     41.54651         5     0.743     0.458  70.36   0
       231   1002.0485    214.9625 300.4366497 +22.7397795     457.0022     70.15475      1.125     2.91    -2.683351     19.78775     85.25857         7     0.888     0.574  38.84   0
       232    734.5895    214.0802 300.3535790 +22.6594186     529.2705     70.11902      1.415     3.17    -2.988446     19.78775     63.54372        11     1.075     0.721  55.86   0
       233    655.0307    213.5248 300.3289823 +22.6354218     716.1557     70.13689      1.296     2.71    -2.799966     19.78775     98.12276        13     0.972     0.826 -11.41   0
       234    581.2476    205.2768 300.3086883 +22.6109424     478.6463     70.13689      1.263     2.70    -2.340903     19.78775     79.18395        11     0.888     0.805  46.00   0
       235    850.6570    204.5298 300.3928404 +22.6914427     778.8845     70.15475      1.142     2.32    -2.811089     19.78775     129.0154        13     1.007     0.744 -75.53   0
       236    862.3221    203.8957 300.3966816 +22.6947543      372.605     70.26183      1.129     2.06    -2.788959     19.78775     75.90845         7     0.766     0.542  59.84   0
       237   1023.2181    194.6392 300.4498471 +22.7402746     964.6873     57.05463      1.080     2.10    -2.701988     19.78775      172.407        14     0.995     0.749 -81.69  24
       238    979.2206    194.0006 300.4363340 +22.7269174     632.3931     70.06539      1.113     2.08    -2.671529     19.78775     132.2242        10     0.795     0.716  19.93   0
       239      2.9730    191.2648 300.1334588 +22.4335248     313.2758     62.76429      1.189     2.37    -2.048262     19.78775     61.40403         5     0.767     0.438 -70.59  16
       240    213.5020    187.5755 300.2000535 +22.4956146     404.7113      70.0475      1.401     2.83    -2.429643     19.78775     51.11863         8     0.832     0.700 -43.83   0
       241     75.3702    182.3320 300.1588394 +22.4526802     1273.326     70.11902      1.230     2.46    -2.377669     19.78775     162.1463        16     1.049     0.837  69.24   0
       242    898.3222    178.8673 300.4160239 +22.6983416     434.0091     70.24399      1.362     2.99    -2.637278     19.78775     55.64861         8     0.874     0.636 -70.86   0
       243     24.6684    178.9470 300.1441919 +22.4364995     315.1221     70.15475      1.239     3.86    -2.142065     19.78775     46.71131         5     0.841     0.507  33.00   0
       244    232.6939    175.7138 300.2098667 +22.4979651     3253.488     70.31531      1.266     2.29    -2.427025     19.78775     474.4844        24     1.084     0.944  63.53   0
       245     16.8124    169.9900 300.1446584 +22.4315728     693.1694     70.02961      1.225     2.50    -2.099053     19.78775     111.8563        12     0.899     0.793  81.34   0
       246    215.9128    166.7329 300.2075651 +22.4903549     394.4558     70.24399      1.365     3.49    -2.443733     19.78775     45.25101         6     0.763     0.550  39.44   0
       247    876.5638    156.9183 300.4163639 +22.6855159     2060.706     70.10114      1.191     2.15    -2.577158     19.78775     330.3884        19     0.947     0.872  65.93   0
       248    980.3267    155.6388 300.4491267 +22.7162187     1613.397     70.11902      1.180     2.17    -2.661484     19.78775     256.6381        16     0.940     0.811 -64.07   0
       249    425.9534    152.3958 300.2775234 +22.5492104     235.6927     70.11902      1.070     3.17    -2.440125     19.78775     54.67039         8     0.981     0.630 -40.01   0
       250    116.2127    141.2991 300.1848378 +22.4531552     259.9809      70.0475      1.061     2.31    -2.535893     19.78775     57.53677         7     0.785     0.594 -26.95   0
       251    477.5208    139.6845 300.2976900 +22.5610154     1024.198     70.27966      1.334     2.62    -2.440125     19.78775     124.0293        12     0.952     0.755  46.65   0
       252    405.2741    139.9834 300.2751178 +22.5394472     175.4972     70.13689      1.181     3.49    -2.444908     19.78775     40.54275         5     0.806     0.493 -31.37   0
       253    539.5958    138.6614 300.3173384 +22.5793244     243.4531     70.11902      1.096     3.49    -2.470395     19.78775     32.56443         5     1.055     0.333 -68.88   0
       254    221.3185    135.0914 300.2195101 +22.4828929     255.0414     70.26183      1.127     2.25    -2.443019     19.78775     50.78109         5     0.729     0.423  70.72   0
       255    911.9728    123.1625 300.4383524 +22.6864146     180.4527     70.15475      1.114     3.93    -2.583218     19.78775     27.02896         5     0.856     0.517 -58.78   0
       256    251.6639    119.5475 300.2339840 +22.4875292     3460.503     70.19046      1.271     2.28    -2.438534     19.78775     522.2568        24     1.057     0.952  87.01   0
       257    102.6591    119.3724 300.1877401 +22.4427973     474.0477     70.13689      1.215     3.57    -2.555318     19.78775     59.62886        10     1.032     0.755 -73.74   0
       258    223.5901    113.8038 300.2271213 +22.4774629     188.5341     69.97591      1.185     3.47    -2.440251     19.78775     30.70354         5     0.805     0.432  69.81   0
       259     13.1264    109.9778 300.1629810 +22.4132474     176.7947     70.15475      1.195     3.97    -2.474053     19.78775     34.03185         6     0.943     0.479 -54.95   0
       260    497.6234    104.8208 300.3152544 +22.5570254     3681.851     70.13689      1.326     2.40    -2.448847     19.78775     509.4554        25     1.085     0.998  64.67   0
       261    383.1490    104.7277 300.2796728 +22.5226904     402.2461     70.13689      1.349     2.52    -2.479966     19.78775     61.86358         7     0.820     0.550  39.72   0
       262    554.7827     99.2525 300.3348489 +22.5725535     267.2087     70.11902      1.514     5.02    -2.472205     19.78775     33.63558         5     1.069     0.666  30.12   0
       263    750.3368     94.1708 300.3973883 +22.6296753     592.0077     70.15475      1.769     3.53    -2.649152     19.78775      52.9825         9     0.913     0.757  47.90   0
       264    842.3960     92.9389 300.4264709 +22.6568912     344.6578     70.11902      1.454     2.85    -2.608579     19.78775     49.33178         7     0.909     0.554  31.94   0
       265    190.0840     88.3738 300.2249566 +22.4601159     105.6861     70.11902      1.160     4.11     -2.46594     19.78775      35.5778         5     0.785     0.615  76.85   0
       266    625.9167     84.8116 300.3616764 +22.5897163       3688.6     70.10114      1.305     2.32    -2.533637     19.78775     540.5632        27     1.109     0.995  84.40   0
       267    400.9139     83.8756 300.2919614 +22.5220262     869.9062     70.24399      1.322     2.60    -2.506964     19.78775     134.9614        15     0.948     0.924  64.91   0
       268    667.0741     82.0461 300.3753885 +22.6012509     429.3918     70.13689      1.288     2.79    -2.636081     19.78775     65.51057        11     0.947     0.718  -1.56   0
       269    683.0578     78.1260 300.3816375 +22.6049121      328.512     70.17261      1.154     3.07    -2.612165     19.78775     49.83158         6     0.866     0.485  32.33   0
       270    149.7495     76.4858 300.2162792 +22.4446090     417.7566     70.13689      1.434     3.71    -2.498898     19.78775      62.9541         9     1.103     0.596 -85.70   0
       271    953.1759     75.5719 300.4666351 +22.6850665     355.4574     70.13689      1.066     2.64    -2.635773     19.78775     58.36798         6     0.814     0.508  42.30   0
       272    311.0577     70.8523 300.2682420 +22.4913529     271.8556     70.19046      1.474     5.88    -2.514827     19.78775     39.60444         7     1.195     0.827 -43.56   0
       273    670.0568     69.5729 300.3803628 +22.5985596     1613.056     70.13689      1.325     2.46    -2.622949     19.78775     230.2876        19     0.996     0.969  14.53   0
       274    685.2279     67.9166 300.3856245 +22.6026279     590.8235     70.13689      1.914     5.63    -2.567577     19.78775     56.39062        10     1.187     0.752  52.11   0
       275    756.6688     61.2093 300.4100516 +22.6220972     923.8046     70.11902      1.224     2.48    -2.372226     19.78775     129.8197        14     1.025     0.772  25.69   0
       276    916.9835     59.2648 300.4606407 +22.6695420     273.3067     70.11902      1.226     2.48    -2.614884     19.78775       38.189         5     0.765     0.476  61.16   0
       277    694.7000     54.2969 300.3929915 +22.6015506     332.9527     70.33312      1.187     2.85    -2.443189     19.78775     59.07553         9     0.851     0.717 -79.76   0
       278    500.3064     54.0312 300.3325620 +22.5432385     605.7792     70.06539      1.313     2.82    -2.590291     19.78775     86.05644        13     1.002     0.807  78.86   0
       279     73.0678     53.5682 300.1998903 +22.4150360     459.0807     70.13689      1.574     3.02    -2.755743     19.78775     45.77287         8     0.810     0.671  79.36   0
       280    404.3942     52.0664 300.3033601 +22.5139327     385.7639     70.13689      1.115     2.74    -2.617178     19.78775     75.47702         8     0.797     0.716  70.79   0
       281    786.4123     50.7172 300.4227206 +22.6279884     196.4145     70.10114      1.079     2.96    -2.545232     19.78775      35.7288         5     0.704     0.477 -76.21   0
       282    175.4911     41.9333 300.2354825 +22.4424079     2251.186     70.27966      1.325     2.43    -2.365116     19.78775      283.786        18     1.037     0.861 -89.76   0
       283    743.5052     42.2812 300.4120895 +22.6127139     250.8463     70.29749      0.985     2.42    -2.072078     19.78775      60.1889         7     0.777     0.596 -12.65   0
       284    291.4167     34.1803 300.2740277 +22.4749342     667.1287     70.11902      1.415     2.81    -2.529986     19.78775     91.58961        12     0.964     0.779  89.02   0
       285    736.7939     33.9842 300.4126896 +22.6083189     525.7123     70.06539      1.323     2.89    -1.898491     19.78775     91.32093        11     1.038     0.718  12.74   0
       286    774.3695     29.3736 300.4258902 +22.6182462     337.6751     70.13689      1.424     4.47    -2.323459     19.78775     37.23228         7     0.918     0.619 -69.71   0
       287    698.3152     28.6577 300.4024319 +22.5952639     389.3672     70.24399      1.473     3.87    -2.272681     19.78775     37.23315         6     0.930     0.461 -85.86   0
       288    794.5461     25.4234 300.4334573 +22.6231523     1308.742     70.15475      1.262     2.43     -2.59516     19.78775     161.7744        16     0.959     0.892 -60.75   0
       289    178.0731     20.7343 300.2431585 +22.4370956     539.2924     70.17261      1.256     2.91    -2.312058     19.78775     86.83054         9     0.883     0.669  83.64   0
       290    969.5019     18.6612 300.4901821 +22.6735866     385.8013     70.20831      1.203     2.51    -2.678411     19.78775     64.68977         6     0.807     0.472   2.82   0
       291    743.0074     17.7712 300.4198824 +22.6055190       464.46     70.13689      1.248     2.51    -1.792056     19.78775     73.65858         9     0.844     0.671 -72.23   0
       292      1.5293   1016.4725 299.8648073 +22.6696190     814.6663     55.74388      4.524     7.18    -17.48362     19.78775     35.36114        10     2.306     0.627  86.11  27
       293    502.6225   1013.6368 300.0214576 +22.8193279     118.9196     70.15475      1.077     2.93    -5.892396     19.78775     44.30833         5     0.923     0.469  81.10   0
