#   1 NUMBER                 Running object number                                     
#   2 X_IMAGE                Object position along x                                    [pixel]
#   3 Y_IMAGE                Object position along y                                    [pixel]
#   4 ALPHA_J2000            Right ascension of barycenter (J2000)                      [deg]
#   5 DELTA_J2000            Declination of barycenter (J2000)                          [deg]
#   6 FLUX_APER              Flux vector within fixed circular aperture(s)              [count]
#   7 FLUXERR_APER           RMS error vector for aperture flux(es)                     [count]
#   8 FLUX_RADIUS            Fraction-of-light radii                                    [pixel]
#   9 FWHM_IMAGE             FWHM assuming a gaussian core                              [pixel]
#  10 BACKGROUND             Background at centroid position                            [count]
#  11 THRESHOLD              Detection threshold above background                       [count]
#  12 FLUX_MAX               Peak flux above background                                 [count]
#  13 ISOAREA_IMAGE          Isophotal area above Analysis threshold                    [pixel**2]
#  14 A_IMAGE                Profile RMS along major axis                               [pixel]
#  15 B_IMAGE                Profile RMS along minor axis                               [pixel]
#  16 THETA_IMAGE            Position angle (CCW/x)                                     [deg]
#  17 FLAGS                  Extraction flags                                          
         1    567.9849     17.2239 300.3722020 +22.5466024     1095.764     69.98476      1.425     2.68      -2.2228     19.74483     127.6457        20     1.113     1.072  -3.55   0
         2      5.7787     13.3562 300.1986639 +22.3769888     446.2336     70.03821      1.354     3.41    -2.216245     19.74483      55.4601         8     0.974     0.574  71.25  16
         3    525.3385     11.3208 300.3608426 +22.5321308      805.501     70.05602      1.552     3.07     -2.13071     19.74483     83.08024        15     1.009     0.921 -66.27   0
         4    630.7703      7.8235 300.3947977 +22.5627068     784.8636     69.98476      1.378     2.68     -2.39114     19.74483     106.7795        14     1.015     0.815  65.05   0
         5    226.1228      6.3711 300.2693843 +22.4410457     381.8441     69.96693      1.467     3.35    -2.144338     19.74483     41.27159         5     0.760     0.427  20.96   0
         6    451.1620      1.8503 300.3408321 +22.5071869     1044.116     57.32396      1.269     2.92      -1.9751     19.74483     126.4906        13     1.050     0.740  -0.01  24
         7     54.9054   1016.6622 299.8878598 +22.6793982     1105.085     70.07383      6.886    10.75     2.216237     19.74483     40.15919        18     2.379     1.413 -43.08  19
         8    228.5697   1014.9376 299.9423687 +22.7310786     1420.253     70.00258      7.660    12.38     2.653652     19.74483     48.32166        38     3.081     1.385  13.02  19
         9    241.9302   1021.0940 299.9445157 +22.7368557     2775.581     66.38021      8.605    27.52     1.461819     19.74483     69.13402       156     5.634     3.732  54.18  26
        10    203.1670   1022.9380 299.9318694 +22.7257400     550.7817     58.40198      4.893     6.43     7.144034     19.74483     26.46328        10     1.837     0.632  23.26  25
        11    136.5753   1017.9760 299.9127968 +22.7043131     1142.224      69.9491      6.147    11.59     12.81072     19.74483     49.61962        25     4.703     0.796  67.60  27
        12    130.1607   1012.3265 299.9126440 +22.7007676     1129.488     69.96693      9.744    12.00     11.78363     19.74483     36.99333        24     3.166     1.266  54.71  19
        13    113.8814    999.5333 299.9117536 +22.6922121     1543.102     70.09163     19.860    26.50     9.650552     19.74483     48.07327        93     5.727     3.404 -11.96  19
        14     83.4752    976.4558 299.9098246 +22.6764664     1830.516      70.0204     17.290    45.77     3.034687     19.74483     72.14192       423     7.963     7.301 -66.75  19
        15     85.6808   1010.7831 299.8993315 +22.6869616     3392.113     70.00258     18.530    63.38     9.163738     19.74483     71.79925      1034    12.931     8.620  39.64  27
        16    231.3675   1023.0266 299.9406037 +22.7342366     991.8378     57.90858      5.643    10.08      3.04184     19.74483     45.89454        24     2.860     0.991  -3.40  27
        17    422.7414    985.0911 300.0124555 +22.7808377     335.6844     70.05602      1.473     4.65    -4.944308     19.74483     53.90883         8     1.044     0.588  30.12   0
        18    809.3599   1006.2543 300.1259149 +22.9029447     89.58454     69.98476      0.944     2.91    -6.071198     19.74483     41.21552         5     0.709     0.468  78.34   0
        19    936.7509    976.8376 300.1751964 +22.9327185     1367.491     70.00258      1.117     1.77    -5.748815     19.74483      263.131        14     0.902     0.738  56.89   0
        20    101.0200    965.2624 299.9189182 +22.6785310     1107.144      69.9491      8.694    11.17     3.014598     19.74483     38.32547        17     2.065     1.682 -40.12   1
        21    725.6187    965.7329 300.1130261 +22.8661950     423.7493     69.96693      1.259     4.24    -5.663686     19.74483     84.48415        10     1.495     0.549  63.50   0
        22    760.3959    959.8285 300.1257809 +22.8749357       728.46      69.9491      1.192     1.82    -5.682456     19.74483      135.008        11     0.891     0.660  61.60   0
        23    782.5890    953.5427 300.1347411 +22.8797907     6755.945      69.9491      0.996     1.72    -5.761692     19.74483     1215.266        28     0.917     0.876   2.42   0
        24    973.8837    952.6871 300.1946377 +22.9369239     312.4014     70.09163      1.160     2.71    -5.713779     19.74483     50.60335         7     0.810     0.628  74.82   0
        25    828.0258    953.3876 300.1489477 +22.8933770     276.9338     69.98476      0.976     3.55    -5.684906     19.74483     56.04109         6     0.949     0.451  12.78   0
        26     94.1684    945.4373 299.9232449 +22.6707934     370.8408     69.98476      0.972     2.05     -1.05087     19.74483     84.88393         6     0.688     0.586 -66.56   0
        27    487.6035    941.8304 300.0467190 +22.7879080     207.3431      69.9491      1.058     3.45    -5.123229     19.74483     44.94678         5     0.844     0.573  48.55   0
        28     67.4598   1017.7968 299.8913888 +22.6834955     2633.278     69.96693      9.278    21.18     5.395178     19.74483     67.23438       145     4.000     3.329  89.20  27
        29    791.1889    935.6746 300.1432384 +22.8772442      902.236     70.00258      1.053     1.75    -5.713444     19.74483     164.7917        10     0.768     0.649 -59.22   0
        30    643.3402    932.7634 300.0981408 +22.8320492     231.0431     70.00258      1.043     3.07    -5.445082     19.74483     44.43056         6     0.899     0.551  27.18   0
        31    829.3087    928.8466 300.1573384 +22.8867202     386.6579     69.98476      1.039     2.35    -5.500121     19.74483     105.3286         7     0.872     0.462  89.28   0
        32    937.9553    925.9190 300.1921528 +22.9184664     156.8939     69.96693      0.915     1.71    -5.421105     19.74483     60.05426         5     0.574     0.550 -82.23   0
        33    877.7611    920.2926 300.1752224 +22.8987987     347.1495     69.98476      1.003     2.06    -5.174425     19.74483     77.79118         6     0.670     0.606  82.04   0
        34    729.1380    919.5162 300.1291709 +22.8539928     299.5467     70.07383      0.906     1.78    -5.196277     19.74483     92.04259         6     0.655     0.568  55.11   0
        35    441.7243    915.9627 300.0408683 +22.7667190      2390.58      69.9491      1.107     1.77    -5.042645     19.74483      497.657        20     0.998     0.797  57.19   0
        36    740.2727    916.6124 300.1335843 +22.8565003     291.5184     70.00258      0.947     2.19    -5.156404     19.74483     66.66276         6     0.673     0.591  48.36   0
        37    219.6850    904.9196 299.9754295 +22.6968852     280.0096     70.12722      1.065     3.24    -4.338415     19.74483     40.15134         5     0.782     0.403  69.83   0
        38     83.6606    903.9835 299.9334764 +22.6557611     132.9004      69.9491      1.141     3.93    -4.485919     19.74483     35.85184         7     0.745     0.673 -80.73   0
        39    166.9028    901.7692 299.9600545 +22.6801302     556.5984     69.93126      1.270     2.36    -3.494773     19.74483     79.75704         8     0.776     0.648 -33.82   0
        40    144.0704    898.7607 299.9539405 +22.6724104     980.1031      69.9491      1.217     2.15    -3.716161     19.74483     165.7227        13     0.893     0.749  39.92   0
        41     19.4928    888.8661 299.9184713 +22.6321536     212.8044     70.12722      1.381     4.01    -5.496438     19.74483     39.15837         5     0.755     0.618  22.32   0
        42   1015.6741    887.3411 300.2289450 +22.9306973     1199.344      70.0204      0.958     1.82    -5.628569     19.74483      226.423        10     0.724     0.628 -24.52   0
        43    969.9025    885.9164 300.2151366 +22.9165643     1185.577       70.145      1.011     1.55    -5.379013     19.74483     328.9803        10     0.741     0.670  60.53   0
        44    753.2433    880.1143 300.1495065 +22.8499197     378.1932     69.96693      1.300     4.35    -5.148481     19.74483     68.79192         7     1.149     0.581 -42.64   0
        45    621.6393    873.9703 300.1105251 +22.8086734     2717.188     69.96693      1.087     1.84    -5.128917     19.74483      534.043        18     0.906     0.797  72.21   0
        46    111.0742    874.9914 299.9514276 +22.6556890     259.3188     69.96693      1.101     3.71       -4.579     19.74483     43.04199         5     0.633     0.623  87.18   0
        47    423.6601    871.2485 300.0498051 +22.7484760     274.1747     70.03822      1.098     1.84     -5.03739     19.74483     71.84646         5     0.694     0.428 -68.17   0
        48    171.8510    868.1080 299.9725483 +22.6719704     797.9332     70.03821      1.136     2.13    -4.466204     19.74483      145.335        10     0.810     0.709 -86.85   0
        49    642.1557    866.4016 300.1193760 +22.8126581     477.7114     69.98476      1.070     2.05    -5.102429     19.74483     110.3854         9     0.885     0.582 -69.93   0
        50    191.1767    865.5869 299.9793735 +22.6770517      286.093     69.98476      1.180     1.62    -4.549607     19.74483     62.01358         5     0.658     0.431 -28.66   0
        51    797.6750    853.6656 300.1719571 +22.8556579     2414.872     70.03822      1.075     1.86    -5.017035     19.74483      430.305        19     0.901     0.825 -79.06   0
        52   1014.5320    853.5685 300.2395829 +22.9206589     677.2753     69.96693      1.016     2.14     -5.49182     19.74483     121.0455         9     0.940     0.581  83.73   0
        53    206.0312    848.0031 299.9897121 +22.6764731     275.0918     69.96693      1.056     1.79    -4.578283     19.74483     64.07249         5     0.596     0.542  -0.09   0
        54    514.7555    846.1380 300.0863180 +22.7686166     310.3262     70.00258      1.171     2.69    -4.984241     19.74483     47.69398         7     0.733     0.651  86.61   0
        55    160.9914    844.6672 299.9768033 +22.6619915     572.3884     69.98476      1.150     2.98    -4.555775     19.74483      93.9085         9     0.882     0.743  33.14   0
        56    310.7641    836.4786 300.0260151 +22.7046162     31267.29     69.93126      1.157     1.96     -4.82097     19.74483     4936.662        64     1.120     1.041  62.63   0
        57    576.2290    839.5158 300.1076043 +22.7851644     309.6456     69.98476      1.245     3.35    -4.966626     19.74483     42.66009         7     0.935     0.494   5.62   0
        58    568.6115    835.3627 300.1065850 +22.7816873     911.9129     69.96693      1.108     2.14    -4.925297     19.74483     158.9702        11     0.901     0.748  77.78   0
        59    981.3370    834.4281 300.2354619 +22.9052115      530.067     69.98476      1.087     2.20    -5.250961     19.74483      115.532         8     0.762     0.651 -85.76   0
        60    597.4764    831.2070 300.1169219 +22.7891563     559.2256     69.93126      1.057     1.90    -4.948989     19.74483     95.19844         8     0.692     0.638  28.68   0
        61    608.5150    829.5612 300.1208937 +22.7919962     330.9648     69.96693      1.010     2.63    -4.965827     19.74483     54.79781         8     0.915     0.557  41.79   0
        62    360.4752    813.7038 300.0488828 +22.7130098     18362.36     70.12722      1.139     2.05    -4.762337     19.74483      2842.64        48     1.101     1.005  73.68   0
        63    751.7106    816.1084 300.1698619 +22.8310935     439.2125       70.145      1.163     2.43     -5.03284     19.74483     71.03101         8     0.798     0.627  48.98   0
        64    374.6005    814.0986 300.0531468 +22.7173631     1148.991     69.85986      1.186     2.03    -4.762621     19.74483     212.5093        14     0.967     0.761  50.21   0
        65    883.4679    809.2919 300.2131334 +22.8686510     1553.737     70.10943      1.007     1.74    -4.815359     19.74483     321.7357        15     0.863     0.757 -15.93   0
        66    371.3549    808.0360 300.0541104 +22.7146505     422.7734     70.02039      1.241     2.62    -4.731639     19.74483      59.3476         7     0.805     0.587 -66.53   0
        67    641.3199    805.3187 300.1389958 +22.7948834     604.6055     70.10943      1.271     2.34    -4.926742     19.74483     82.35493        11     0.870     0.734  46.29   0
        68    243.1572    805.5186 300.0150749 +22.6754433     512.6254      69.9491      1.106     2.26    -4.566161     19.74483     92.41239        10     0.869     0.670  89.13   0
        69    488.3957    800.2584 300.0930470 +22.7475474     348.4544      69.9491      1.076     2.49    -4.646329     19.74483     64.50948         8     0.825     0.616 -85.56   0
        70     47.4527    801.0641 299.9557264 +22.6153971     316.5356     70.02039      1.131     3.03    -5.113432     19.74483     55.04843         7     0.827     0.585 -64.66   0
        71    912.9889    807.6995 300.2228530 +22.8770456     132.4631     69.89557      0.974     3.01    -4.811165     19.74483     40.61303         5     0.813     0.494  63.81   0
        72     76.0347    794.9028 299.9666072 +22.6222160     237.5505     69.98476      1.108     2.32    -4.914019     19.74483      54.1236         5     0.629     0.555  87.79   0
        73    240.3801    790.2579 300.0191774 +22.6702348     358.9796     69.98476      0.957     3.00    -4.457561     19.74483     64.67239         5     0.790     0.485  41.73   0
        74    564.0009    780.3218 300.1230613 +22.7645149     229.2085     69.87772      1.553     3.32    -4.643516     19.74483     50.30884         5     0.999     0.412  65.59   0
        75    533.1907    778.0734 300.1142043 +22.7546256     326.2167     69.98476      1.123     2.59      -4.5539     19.74483     62.50546         7     0.842     0.538  40.51   0
        76    555.3194    775.8146 300.1218259 +22.7606172     856.9713     69.96693      1.180     2.37    -4.610656     19.74483     115.1331        11     0.893     0.727  59.72   0
        77    949.7841    774.5634 300.2451065 +22.8785640     2654.206     69.98476      1.014     1.71    -4.798139     19.74483     528.3741        16     0.818     0.779  13.14   0
        78    938.3160    765.9205 300.2443435 +22.8726444     937.2295     70.12722      1.082     1.83     -4.64607     19.74483     205.9203        10     0.757     0.699  70.68   0
        79    301.6119    760.3785 300.0479319 +22.6800506     538.5545     69.96693      1.145     3.14    -4.315491     19.74483      102.341         9     1.119     0.576  65.11   0
        80    764.5268    757.3632 300.1929699 +22.8180779     1494.867     69.93126      1.150     2.06    -4.800612     19.74483      212.223        14     0.916     0.777  12.07   0
        81    969.2634    756.0115 300.2572162 +22.8790767     997.0029      69.9491      1.060     1.73    -4.864428     19.74483     203.9657        13     0.913     0.681  29.54   0
        82    846.9361    743.2880 300.2232255 +22.8387495     360.7584     70.09163      1.462     4.28    -4.505509     19.74483     61.68506         7     1.319     0.479  32.02   0
        83    149.8474    744.0460 300.0060804 +22.6298060     296.1894     70.00258      1.052     2.55    -4.127767     19.74483     59.40141         7     0.718     0.648 -86.42   0
        84    882.9942    734.2390 300.2374070 +22.8469626     85863.64     70.02039      1.151     1.84    -4.372708     19.74483     16669.68       106     1.144     1.102  54.80   0
        85    645.4855    737.6940 300.1622961 +22.7767293     154.4671     70.16279      1.073     4.52    -4.630149     19.74483      31.9619         6     1.176     0.494 -42.23   0
        86    735.4043    734.7074 300.1912695 +22.8028415     415.7328     69.87772      1.197     4.04    -4.708593     19.74483     58.44833         9     1.071     0.626  24.06   0
        87    916.0159    726.9384 300.2500749 +22.8547663     278.7003     69.93126      1.274     3.23     -4.32759     19.74483     37.63693         5     0.631     0.596   1.30   0
        88    569.3920    723.3665 300.1432692 +22.7497920     962.9844     69.98476      1.267     2.51    -4.355302     19.74483     123.6147        12     0.865     0.785  78.99   0
        89    750.5039    720.4807 300.2006010 +22.8032863     5524.639     70.10943      1.153     2.08     -4.52533     19.74483     776.8825        25     0.994     0.922  81.38   0
        90    252.1690    715.8144 300.0470595 +22.6524313     2833.582     69.98476      1.221     2.10    -3.980915     19.74483     452.2195        22     1.019     0.888  32.30   0
        91    334.2810    713.8182 300.0732351 +22.6765052     712.3218     69.98476      1.218     2.96    -4.027301     19.74483      101.797        12     1.038     0.711  79.25   0
        92    542.4561    709.0837 300.1395320 +22.7376134      287.089     70.07383      1.147     2.43     -4.05238     19.74483     57.95147         6     0.744     0.498 -89.65   0
        93    534.0144    701.4954 300.1393732 +22.7329037     1847.431     69.91341      1.245     2.54    -3.893033     19.74483     256.9576        18     0.949     0.915 -58.65   0
        94    524.1675    695.1340 300.1383781 +22.7281244     934.6098     69.98476      1.312     2.77    -3.769943     19.74483     104.6883        12     0.906     0.809   8.56   0
        95    917.5927    692.7616 300.2616843 +22.8454253     98.35129     70.00258      1.007     2.70    -4.108444     19.74483     38.10643         5     0.702     0.469  73.89   0
        96    187.5676    691.5748 300.0348673 +22.6260888     307.7152     69.98476      1.210     3.06    -3.802529     19.74483     53.99341         6     0.848     0.494   1.22   0
        97    201.7543    689.7089 300.0398825 +22.6298126     287.0072     69.96693      1.040     1.71    -3.830257     19.74483     72.26644         5     0.660     0.425  82.46   0
        98    227.5101    686.7061 300.0488631 +22.6366831     364.7883       70.145      1.170     3.16    -3.884547     19.74483     66.86584         8     0.904     0.709  48.64   0
        99    971.1962    686.0330 300.2805845 +22.8595603      290.744     69.98476      1.041     1.75    -4.157889     19.74483     74.27058         6     0.668     0.530  42.22   0
       100    449.0302    684.7529 300.1183766 +22.7026033     1102.646     70.00258      1.378     2.97     -3.60564     19.74483     132.1533        14     1.022     0.839  60.71   0
       101   1023.8811    681.9326 300.2983471 +22.8741727     192.4733     53.33296      1.073     2.55     -4.19731     19.74483     65.62318         5     0.994     0.294 -81.83  24
       102    103.1142    680.0267 300.0123858 +22.5974233     11497.69     69.98476      1.272     2.19    -3.732525     19.74483      1790.61        45     1.157     1.016  66.78   0
       103     23.8669    681.7938 299.9872002 +22.5741344     397.7275     69.98476      1.425     2.25    -4.319135     19.74483     53.45334         6     0.707     0.555  57.59   0
       104    533.9400    680.0027 300.1463407 +22.7267147     642.0535     69.96693      1.293     2.57    -3.584288     19.74483     80.29078         9     0.869     0.657  77.19   0
       105    569.4612    678.7995 300.1577871 +22.7370251     232.2038      69.9491      1.595     3.72     -3.71909     19.74483     26.87753         5     1.022     0.388   5.96   0
       106    905.5399    675.9859 300.2633839 +22.8369951     207.2439      69.9491      1.301     3.07    -3.998871     19.74483     37.82767         5     0.963     0.608  -0.67   0
       107    287.0997    671.8442 300.0722184 +22.6503075     234.4623     70.00258      1.533     3.84    -3.857294     19.74483      34.6199         5     0.799     0.528  55.58   0
       108    952.0399    666.2357 300.2810511 +22.8481331     538.4045     70.03821      1.015     1.79    -3.956128     19.74483     120.4052         7     0.675     0.593  26.74   0
       109     48.9224    664.3312 300.0006593 +22.5766530     773.5593     70.09163      1.567     5.11    -3.970935     19.74483     83.85522        16     1.395     0.796 -87.63   0
       110    818.9532    664.3784 300.2401745 +22.8077050     431.4002     70.02039      1.508     2.62    -3.970676     19.74483     52.74942         8     0.812     0.654  89.25   0
       111    114.9513    664.7239 300.0210392 +22.5965905     308.4562     69.98476      1.439     2.84     -3.62444     19.74483     36.62919         5     0.775     0.488 -53.78   0
       112    497.1012    660.7554 300.1411370 +22.7101409     261.0923     69.98476      1.169     3.90    -3.388944     19.74483     38.76754         6     0.774     0.563 -44.03   0
       113    892.1118    658.7946 300.2647897 +22.8280332     465.0627     69.89557      1.317     2.70    -3.944973     19.74483     71.98853         9     0.927     0.623 -28.01   0
       114    453.9483    653.1085 300.1301980 +22.6950007     430.9173     70.03821      1.282     3.16     -3.42169     19.74483     55.10293         9     0.908     0.690 -14.78   0
       115    601.8889    651.7756 300.1766699 +22.7389968     353.5024     69.93126      1.192     3.86    -3.670805     19.74483     37.02082         6     0.911     0.470  34.53   0
       116    649.3597    650.1634 300.1919732 +22.7527713     268.9182     70.05602      1.120     3.38    -3.786033     19.74483     39.27596         5     0.753     0.440  71.66   0
       117    619.7268    649.8830 300.1828385 +22.7438036     240.5946     70.10943      1.137     2.46    -3.718485     19.74483     55.70025         7     0.700     0.661  69.39   0
       118    498.2768    648.9993 300.1453260 +22.7071205     397.2296     69.87772      1.235     2.29    -3.325541     19.74483     67.62928         8     0.768     0.689  82.41   0
       119    931.9946    644.2739 300.2819445 +22.8358176     2114.429     69.93126      1.194     1.97    -3.900864     19.74483     360.7636        22     1.096     0.841  63.81   0
       120    463.7797    644.3828 300.1360941 +22.6954469     798.3649     69.96693      1.358     2.70    -3.348428     19.74483     121.7785        15     1.047     0.903 -68.86   0
       121     25.8911    638.2615 300.0019845 +22.5622650     2977.056     70.07383      1.250     2.23    -3.942987     19.74483     450.4125        22     1.029     0.908  68.23   0
       122    327.2667    631.2441 300.0979088 +22.6507178     5311.587     69.96693      1.248     2.39    -3.772909     19.74483     648.2528        26     1.048     0.961  66.08   0
       123    449.6714    628.2625 300.1369470 +22.6865893     5050.042      70.0204      1.303     2.39    -3.325901     19.74483      720.189        28     1.086     0.992  74.02   0
       124    861.3682    621.9050 300.2672047 +22.8082243     1017.675      69.9491      1.237     2.33    -3.859339     19.74483       153.35        15     0.938     0.821  73.84   0
       125    945.8214    619.3222 300.2943694 +22.8327953     7235.087     69.98476      1.151     2.02    -3.765666     19.74483     1193.035        29     0.980     0.927  73.84   0
       126    510.2298    617.8523 300.1591736 +22.7017690     6578.851     70.00258      1.322     2.51    -3.161433     19.74483      773.929        33     1.120     1.021  66.86   0
       127    237.8199    613.5362 300.0758608 +22.6187958     752.6578     69.96693      1.232     2.75    -3.751813     19.74483     104.4591        12     1.019     0.670 -73.02   0
       128    679.7985    613.4351 300.2133948 +22.7513568     407.3097      69.9491      1.499     4.72    -3.632293     19.74483      44.5186         9     1.031     0.906  -8.98   0
       129    441.9009    606.0696 300.1417457 +22.6778908     2424.641     70.09163      1.333     2.48    -3.261933     19.74483     351.6708        21     1.024     0.962  43.81   0
       130    784.7411    605.7194 300.2485907 +22.7806060     544.1846     70.05602      1.491     4.96    -3.878856     19.74483     53.76089         9     1.091     0.692  82.18   0
       131    420.0922    604.4102 300.1355013 +22.6708719     695.3552     69.93126      1.366     2.57    -3.339024     19.74483     94.28638        11     0.899     0.770  -5.25   0
       132    174.7446    603.7898 300.0594284 +22.5970695     320.0955     69.98476      1.078     1.99    -3.493574     19.74483     77.25792         6     0.694     0.538  44.17   0
       133    861.6101    601.2249 300.2740046 +22.8023580      1041.49     69.98476      1.545     2.96    -3.788613     19.74483     108.7645        18     1.155     0.890 -48.72   0
       134    382.2396    599.3735 300.1253657 +22.6580704     169.2444      70.0204      1.285     4.91     -3.51969     19.74483     30.71295         6     1.094     0.625  72.81   0
       135    742.2324    598.1235 300.2378183 +22.7656810     543.2909     69.98476      1.337     3.64    -3.705046     19.74483     60.50858         8     0.955     0.669 -83.44   0
       136    558.5064    593.5248 300.1821075 +22.7092678     117962.9     70.12722      1.374     2.48     -3.09649     19.74483     15030.75       145     1.355     1.318   5.73   0
       137    946.4387    595.1995 300.3024057 +22.8260516     212.7523     69.98476      1.216     3.43    -3.653872     19.74483     27.98882         5     0.754     0.452  70.12   0
       138    244.7664    593.6748 300.0844772 +22.6151845     2157.403     69.98476      1.288     2.37    -3.652057     19.74483     305.7743        22     1.050     0.952  58.44   0
       139    130.1140    583.9551 300.0520105 +22.5779857     1825.451     69.96693      0.572     1.61       -3.445     19.74483     932.3052         8     0.734     0.276  -3.70   0
       140    449.0498    573.9874 300.1544000 +22.6708300     1579.017     70.03821      1.452     4.19    -3.077931     19.74483     165.4202        21     1.293     0.967  86.56   0
       141    846.0038    559.7809 300.2826154 +22.7857780     995.7246     69.93126      1.233     2.41    -3.645754     19.74483     151.6905        11     0.886     0.712 -74.21   0
       142    717.1763    557.5602 300.2432016 +22.7465227     1439.967     70.02039      1.351     2.65    -3.443438     19.74483     176.6331        18     1.043     0.929  56.78   0
       143    960.1936    550.6130 300.3211902 +22.8173656     630.8406     69.85986      2.120     4.32    -3.381092     19.74483     55.48035        12     1.276     0.670  65.04   2
       144    504.5868    553.7191 300.1782681 +22.6816721     444.7035     69.96693      1.392     3.60    -2.920763     19.74483     62.08753         9     1.090     0.734  23.33   0
       145    974.5219    551.3792 300.3254086 +22.8218791     812.9458     69.98476      1.131     2.20    -3.327673     19.74483      111.789        11     0.849     0.732   9.80   0
       146    846.3654    550.2149 300.2858379 +22.7831390     1238.715     69.98476      1.284     2.41    -3.602985     19.74483     148.6649        16     0.980     0.852  64.45   0
       147    599.7671    547.7908 300.2098186 +22.7085148     344.8168     69.98476      1.224     5.38     -2.87855     19.74483     42.68897         9     1.226     0.667 -38.88   0
       148    884.4572    545.0110 300.2994014 +22.7930606     2482.578      69.9491      1.288     2.27    -3.493923     19.74483        347.8        21     1.029     0.923  72.24   0
       149    438.3979    547.0230 300.1598518 +22.6598975     240.8684     69.93126      1.269     3.25    -2.957417     19.74483     33.50372         5     0.764     0.586   3.31   0
       150    116.6887    535.2999 300.0636554 +22.5600043     593.7833       70.145      1.266     2.89    -3.420299     19.74483     107.7445        13     1.065     0.737 -51.68   0
       151    976.1003    535.3156 300.3311228 +22.8177371     389.6103       70.145      1.118     2.41    -3.291447     19.74483     66.39728         7     0.708     0.641  43.37   0
       152    972.4742    524.1562 300.3336196 +22.8134446     232.7011     69.96693      1.115     3.44    -3.290664     19.74483     36.40295         5     0.772     0.443  68.54   0
       153    657.8434    515.2858 300.2384658 +22.7165967     532.6588     69.96693      1.450     3.66    -3.034853     19.74483     56.32361        11     0.967     0.844 -84.96   0
       154    972.6545    507.9755 300.3389352 +22.8088498     390.5621     70.00258      1.062     1.94    -3.271715     19.74483     65.85876         7     0.663     0.646  80.57   0
       155    718.7456    507.7367 300.2598857 +22.7326870     536.5546      70.0204      1.353     2.78    -3.374666     19.74483     69.76279        11     0.951     0.749  45.98   0
       156    875.7725    504.1283 300.3099834 +22.7787147     690.2469     69.96693      1.408     2.98    -3.530888     19.74483     90.96867        10     0.930     0.737  46.59   0
       157    860.2983    499.8757 300.3065428 +22.7728559     413.6948     70.12722      1.412     4.46    -3.587625     19.74483     52.83968        10     0.974     0.768  54.53   0
       158    840.5983    500.1331 300.3003198 +22.7670260     388.9694     69.96693      1.762     4.86    -3.613014     19.74483     36.49353         6     1.023     0.655  -8.60   0
       159    604.4305    498.4020 300.2273234 +22.6957351     1826.907      69.9491      1.380     2.71    -2.744088     19.74483     208.3718        20     1.050     0.981  48.73   0
       160    964.7616    497.1243 300.3400011 +22.8033673     404.6928      69.9491      1.241     3.13    -3.266912     19.74483     45.01699         6     0.763     0.546 -41.95   0
       161     79.7584    489.7613 300.0669836 +22.5358613     259.3944     70.07383      1.443     5.06    -3.542019     19.74483     28.90579         7     0.998     0.724  -5.46   0
       162   1015.4996    477.2921 300.3622684 +22.8128693     767.9222       70.145      1.184     2.07    -3.243088     19.74483     132.7981        11     0.936     0.732 -18.59   0
       163    887.7107    477.2240 300.3224484 +22.7745633     294.9579     69.91341      1.244     3.97    -3.486871     19.74483     38.84823         6     0.781     0.577 -51.45   0
       164    974.0489    475.9548 300.3497771 +22.8000672     507.1282     70.02039      1.198     2.23    -3.256217     19.74483     106.0608         9     0.849     0.663 -14.83   0
       165    715.0476    472.1461 300.2703006 +22.7213581     620.6741     70.02039      1.370     3.34    -3.328794     19.74483     66.31262        12     0.989     0.823 -62.05   0
       166    218.9868    470.7523 300.1164174 +22.5721905     267.3385     70.00258      1.230     3.32     -2.92009     19.74483     49.04537         7     0.887     0.674  -1.99   0
       167    281.3889    466.4505 300.1372116 +22.5896786     2114.071      70.0204      1.292     2.45     -2.91062     19.74483     263.7404        21     1.021     0.971  85.03   0
       168   1014.3541    464.5323 300.3660579 +22.8088594      2461.21     69.96693      1.146     2.09    -3.242805     19.74483     379.0881        19     0.905     0.889  -5.36   0
       169    228.6793    461.2466 300.1225184 +22.5723718      4334.23     70.00258      1.351     2.40    -2.889277     19.74483     573.3914        27     1.179     0.954  84.52   0
       170    369.4375    455.4070 300.1681770 +22.6129223     2760.754     70.00258      1.392     2.48    -2.829431     19.74483     318.0976        24     1.160     0.972  72.66   0
       171    994.2714    455.5064 300.3627281 +22.8002497     1009.913     70.09163      1.224     2.47    -3.274691     19.74483     147.8823        13     0.954     0.757  72.96   0
       172    613.5859    452.0192 300.2452465 +22.6851632     10597.34      69.9491      1.410     2.71    -2.752956     19.74483     1222.029        39     1.195     1.123  67.48   0
       173    631.2539    451.8593 300.2507992 +22.6904140     377.5335     70.03821      1.680     5.38    -2.773693     19.74483     52.63771         8     1.172     0.698 -52.49   0
       174    947.0441    434.5130 300.3548240 +22.7800690     414.4833     69.96693      1.154     3.12    -3.440495     19.74483     60.80907         8     0.811     0.694 -39.06   0
       175    168.3761    432.4022 300.1131503 +22.5460038     1196.189     69.93126      1.347     2.51    -3.288556     19.74483     140.8248        16     1.028     0.891  86.37   0
       176    554.1680    421.4747 300.2366750 +22.6585795      3626.18     69.98476      1.429     2.78    -2.848467     19.74483     374.2642        26     1.136     1.046  56.12   0
       177    967.6301    421.5445 300.3654563 +22.7825095      633.249     70.00258      1.205     2.32    -3.416143     19.74483     109.6915        11     0.875     0.738 -87.95   0
       178    268.9843    420.8112 300.1481838 +22.5728626     310.5202     69.93126      1.432     3.86    -2.889277     19.74483     41.01768         7     0.921     0.616 -77.82   0
       179    127.2088    414.3003 300.1062407 +22.5284587     246.2909     69.85986      1.271     3.87    -3.394785     19.74483     43.31239         8     0.929     0.636 -85.58   0
       180    758.7084    410.2694 300.3040061 +22.7166724     715.0251     70.10943      1.600     3.71    -3.630063     19.74483     78.76759        13     1.214     0.738  57.90   0
       181    668.1891    411.4949 300.2754147 +22.6898947     179.3452     69.93126      1.098     3.09    -2.844141     19.74483     38.67614         5     0.747     0.459  19.77   0
       182    460.8547    407.7614 300.2120927 +22.6266638     3559.645     69.98476      1.450     2.84    -2.864849     19.74483     417.3594        25     1.146     1.014  64.30   0
       183    949.8645    402.2602 300.3661825 +22.7716459      382.466     70.02039      1.232     3.09    -3.463514     19.74483     64.83858         9     0.935     0.709  49.03   0
       184    852.8282    402.0770 300.3359942 +22.7425221     829.5855     69.98476      1.398     2.62    -3.494562     19.74483      105.639        13     0.958     0.825  83.18   0
       185    528.2648    394.4566 300.2373906 +22.6430563     324.2798     70.03822      1.459     3.47    -2.862588     19.74483     30.68932         5     0.763     0.457  18.94   0
       186    825.5655    389.8041 300.3314853 +22.7308275     210.8528     69.98476      1.307     3.74    -3.518708     19.74483     42.83979         7     1.044     0.624  19.52   0
       187    348.5037    387.0697 300.1838684 +22.5870319     1501.548     70.10943      1.360     2.69     -2.79033     19.74483     187.9521        17     1.023     0.897  78.78   0
       188     66.8806    384.3376 300.0972342 +22.5017617      504.082     70.09163      1.319     4.02    -3.386935     19.74483     58.74036        12     1.006     0.835  50.64   0
       189    317.7173    376.5182 300.1777229 +22.5747701     17174.64     70.10943      1.470     2.72     -2.86687     19.74483     2081.757        52     1.281     1.163  74.51   0
       190    852.2957    373.7401 300.3450338 +22.7342209      705.653     70.05602      1.256     2.34     -3.27721     19.74483     98.09271        10     0.870     0.676  40.67   0
       191     14.2070    364.5419 300.0873060 +22.4802772     2830.104     69.96693      1.299     2.41    -3.548487     19.74483     371.5402        24     1.067     0.951  54.21   0
       192    416.5914    361.5587 300.2133311 +22.6001281     249.1641     70.00258      1.274     4.65    -2.954059     19.74483     31.58471         7     0.907     0.678  75.42   0
       193    728.2200    356.1381 300.3120934 +22.6919865     1193.488      69.9491      1.400     2.77    -3.530682     19.74483     129.6987        19     1.145     0.937  46.41   0
       194    943.0990    348.7769 300.3814472 +22.7542492     326.2331     69.93126      1.285     4.21     -3.30472     19.74483     50.43173         6     0.847     0.619   7.39   0
       195    389.9930    340.6806 300.2118388 +22.5861591     1239.305     69.91341      1.724     4.74    -2.866786     19.74483     102.7176        19     1.361     0.993  62.38   0
       196    711.2087    331.5529 300.3147799 +22.6798264     244.9837     70.00258      1.612     4.38    -3.195902     19.74483     24.79774         5     1.170     0.467 -56.71   0
       197    465.9205    320.1758 300.2421173 +22.6030380     758.6734     69.96693      1.491     2.87    -2.853753     19.74483      82.7251        11     0.878     0.822  60.55   0
       198    710.5173    311.8947 300.3209488 +22.6739721     1235.814     70.16279      1.455     2.85    -3.054227     19.74483     143.3724        19     1.054     1.003  36.04   0
       199    971.7260    306.2038 300.4042000 +22.7505868     1725.522     69.89557      1.273     2.50    -3.049338     19.74483     239.0887        19     1.006     0.888  62.22   0
       200    419.0244    296.3078 300.2352787 +22.5821253     419.9853     69.93126      1.619     4.63    -2.765687     19.74483     36.29579         8     0.983     0.619  63.96   0
       201     93.7411    290.0974 300.1361816 +22.4827869     716.9817     70.05602      1.524     3.37    -2.881062     19.74483     82.92567        13     1.109     0.878 -63.61   0
       202    124.7361    289.9467 300.1458590 +22.4920420     322.0952     70.02039      1.080     4.65    -2.865886     19.74483     49.39219         9     1.027     0.631  65.07   0
       203    987.6214    286.0038 300.4157164 +22.7495405      185.759      69.9491      1.233     4.14    -2.911085     19.74483     44.54942         6     1.009     0.485 -88.67   0
       204    177.7041    282.1362 300.1648524 +22.5056896     393.6742     70.07383      1.495     3.59    -2.797788     19.74483     51.15944         7     0.900     0.659  89.70   0
       205    782.3601    273.5345 300.3557853 +22.6844761      373.276      69.9491      1.478     4.34    -2.889905     19.74483     54.30049         9     1.099     0.841  28.36   0
       206    880.2547    262.2747 300.3899481 +22.7105645     1148.518      70.0204      1.312     2.47    -2.836314     19.74483     149.9697        17     1.059     0.916 -82.97   0
       207    298.9650    259.7637 300.2098070 +22.5356356     1277.195     70.05602      1.431     2.71    -2.575167     19.74483     162.6216        15     0.965     0.904  40.30   0
       208    377.0572    254.6407 300.2357538 +22.5575801     617.4957     69.96693      1.612     3.58    -2.510734     19.74483     56.10184        14     1.045     0.911 -52.70   0
       209    128.6104    255.2253 300.1583355 +22.4832415     256.9091     69.98476      1.242     3.42    -2.429194     19.74483     33.16626         5     0.804     0.422 -69.06   0
       210    778.7316    254.2344 300.3609213 +22.6778431     257.2627     69.98476      1.471     4.71    -2.797826     19.74483     36.17483         6     1.092     0.638 -20.76   0
       211    885.5313    251.2093 300.3951855 +22.7089645     289.2002     69.96693      1.203     3.45    -2.777738     19.74483     32.59376         5     0.793     0.433 -68.09   0
       212    193.9006    247.6605 300.1810783 +22.5006537     513.5724     70.07383      1.436     2.11    -2.334792     19.74483     62.37904         7     0.669     0.661 -11.48   0
       213    796.4764    243.3082 300.3699975 +22.6800190     377.5169     70.12722      1.520     4.05    -2.751311     19.74483     41.66158         9     0.976     0.791  43.27   0
       214    731.3321    243.6051 300.3496061 +22.6605887    -195.4198      69.9491      1.410     3.39    -2.739828     19.74483     120.2437        14     1.074     0.868  66.82   0
       215   1002.7128    236.0877 300.4366301 +22.7397092     453.5331       70.145      1.118     2.13    -2.361261     19.74483     77.18099         7     0.698     0.637 -84.26   0
       216    656.1197    234.5973 300.3291061 +22.6354658     665.0425     69.89557      1.394     3.61    -2.642197     19.74483     68.01332        13     1.023     0.932 -56.76   0
       217    735.1942    235.2899 300.3535087 +22.6593565     339.0854     69.89557      1.356     3.22    -2.706226     19.74483     52.14561         6     0.764     0.583  51.25   0
       218    582.2526    226.6691 300.3086818 +22.6110536     550.9653     69.98476      1.412     2.82    -2.524931     19.74483     66.88167         9     0.831     0.746 -73.43   0
       219    851.3033    225.7932 300.3927689 +22.6914077     972.8076     69.87772      1.455     2.53    -2.671346     19.74483     109.9718        14     1.019     0.849  46.83   0
       220    863.4287    225.0068 300.3968032 +22.6948133     513.0209     69.98476      1.453     3.70    -2.666586     19.74483      49.7399        10     1.024     0.733 -19.59   0
       221   1023.7012    215.6485 300.4498114 +22.7401166     688.0256     54.28355      0.986     2.39    -2.093143     19.74483     164.4814         8     0.943     0.458 -89.30  24
       222    980.1238    215.0081 300.4364292 +22.7268850     585.2796     69.94909      1.271     2.88    -2.276559     19.74483     80.72604        11     0.838     0.826  53.61   0
       223      3.8571    212.4122 300.1334854 +22.4335334     345.6234      66.0977      1.302     3.83    -2.045623     19.74483     43.33891         7     1.039     0.474 -49.01  16
       224    214.2256    209.0227 300.1999371 +22.4956597     504.9191      69.9491      1.504     3.95    -2.002934     19.74483     58.06394         9     0.938     0.750  87.09   0
       225     76.1779    203.6290 300.1587961 +22.4527084     1344.889     69.98476      1.441     2.77    -2.017829     19.74483     148.7643        19     1.088     0.970  86.57   0
       226    899.0468    200.1923 300.4159607 +22.6983475     375.3057     70.00258      1.253     2.76     -2.46663     19.74483     66.80056        10     0.894     0.715  85.80   0
       227     25.5688    200.3454 300.1441439 +22.4365848     283.7495     70.00258      1.265     4.80    -2.003932     19.74483     43.44178         9     1.014     0.693  52.42   0
       228    233.5669    196.8719 300.2098924 +22.4979719     3278.772     69.98476      1.471     2.69     -2.01738     19.74483     390.1752        26     1.191     1.027  69.63   0
       229     17.6509    191.3441 300.1446066 +22.4316269     784.0048      70.0204      1.402     2.50    -1.972663     19.74483     118.6355        13     0.954     0.801  41.86   0
       230    217.0279    187.7918 300.2076990 +22.4904060     447.3016     69.98476      1.486     3.43    -2.002934     19.74483     47.70393         7     0.721     0.695  68.80   0
       231    877.4562    178.0879 300.4164056 +22.6855276     2079.192     70.03821      1.362     2.59    -2.482167     19.74483     232.2716        21     1.069     0.975  52.12   0
       232    981.0052    176.8735 300.4490827 +22.7161844     1527.292     69.93126      1.231     2.13    -1.978924     19.74483      256.239        15     0.888     0.874  83.59   0
       233    180.6188    173.8405 300.2009117 +22.4754833     204.2806     70.00258      1.463     4.29    -2.002934     19.74483     26.30149         6     0.772     0.680 -37.45   0
       234    427.3363    173.1179 300.2778554 +22.5492436     342.2837     70.09163      1.481     4.32    -2.041585     19.74483     49.17258         8     1.139     0.655 -47.15   0
       235    351.0434    165.8247 300.2564926 +22.5242801     381.6786     70.02039      1.777     4.39    -2.041414     19.74483     39.63025         7     0.973     0.565 -16.46   0
       236    478.4050    160.7733 300.2977503 +22.5610042     892.2041      69.9491      1.488     3.02    -1.861451     19.74483      108.332        15     0.984     0.949 -20.57   0
       237    406.1287    161.2817 300.2750996 +22.5394877     263.4367     70.10943      1.564     4.59    -1.956125     19.74483     39.40444         5     0.966     0.620  31.76   0
       238    766.4567    150.6536 300.3907197 +22.6443986      177.316     70.03822      1.303     4.74    -2.360649     19.74483     33.82751         7     1.071     0.594 -67.15   0
       239    252.4442    140.7337 300.2339787 +22.4875163     3507.003     69.96693      1.451     2.73     -2.04185     19.74483     451.3921        28     1.170     1.112  65.13   0
       240    103.7271    140.2180 300.1879321 +22.4427739     388.5006     69.98476      1.287     2.88    -1.979348     19.74483     51.34007         8     0.858     0.706 -11.64   0
       241    498.4962    125.8972 300.3153197 +22.5570070     3409.871     70.16279      1.486     2.84    -1.855349     19.74483     373.3723        30     1.213     1.123  39.75   0
       242    384.4332    125.4267 300.2799864 +22.5226877     342.9185     70.00258      1.526     3.43    -1.989129     19.74483     46.98148         7     1.053     0.676  52.57   0
       243    751.1098    115.6397 300.3973009 +22.6297382     483.9585     69.98476      1.625     5.37    -2.363999     19.74483     42.66653        11     1.292     0.871 -64.28   0
       244    843.3365    114.2755 300.4264804 +22.6569656     221.2248     70.03822      1.236     2.56    -2.151464     19.74483     41.23017         5     0.728     0.438  72.23   0
       245    626.8408    106.0666 300.3617044 +22.5897638     3596.862      69.9491      1.464     2.85    -1.943197     19.74483     374.1152        31     1.267     1.133  53.92   0
       246    401.7467    105.0185 300.2919934 +22.5220156     876.1721     69.96693      1.473     3.34    -1.965263     19.74483      102.636        15     1.097     0.913  75.93   0
       247    667.7891    103.0941 300.3754196 +22.6011760     594.9534     69.93126      1.456     3.91    -2.162902     19.74483     58.25763        14     1.076     0.923  88.38   0
       248    684.0742     99.1954 300.3817562 +22.6049336     291.1339     69.91341      1.293     4.56    -2.220635     19.74483      57.2148         8     1.114     0.635 -85.33   0
       249    150.8741     97.5572 300.2164214 +22.4446671     422.5003     69.96693      1.427     3.90    -2.164611     19.74483     46.38298         8     0.940     0.755  15.51   0
       250    954.0806     96.5921 300.4667401 +22.6850386     217.7668     69.93126      1.234     4.43    -1.888929     19.74483     45.95569         7     1.046     0.534 -74.41   0
       251    722.2416     94.2961 300.3952336 +22.6149574     307.0554     69.98476      1.432     4.59    -2.326022     19.74483     41.44077         7     0.890     0.672 -56.52   0
       252    670.8645     90.8245 300.3803583 +22.5985711     1606.493     69.96693      1.446     3.07    -2.197385     19.74483     159.7051        19     1.068     0.980  47.16   0
       253    686.0245     89.3723 300.3855507 +22.6026946     552.7429     69.96693      1.859     7.34    -2.244636     19.74483     39.75925        14     1.572     0.959  66.80   0
       254    757.5244     82.4727 300.4100606 +22.6221258     934.8836     70.05602      1.389     2.74    -2.322981     19.74483     114.8251        15     1.008     0.891 -41.13   0
       255    695.1755     75.5803 300.3928754 +22.6014715     456.4286     69.98476      1.475     3.02    -2.292688     19.74483      53.8552         7     0.878     0.732  44.53   0
       256     74.0549     75.0355 300.1998627 +22.4151670     326.0534     70.00258      1.346     4.34    -2.157165     19.74483     40.03145         8     0.971     0.677  60.46   0
       257    501.1302     74.8367 300.3327060 +22.5431277     557.2101     69.96693      1.414     3.46     -1.90265     19.74483     66.88538        11     1.059     0.699  56.71   0
       258    405.0796     73.2443 300.3033387 +22.5138881     522.9443     69.96693      1.433     2.36    -1.959406     19.74483     61.01121         7     0.738     0.623  -7.09   0
       259    176.3298     63.2875 300.2354487 +22.4424613     2239.441       70.145      1.426     2.69    -2.149541     19.74483     252.1555        24     1.132     1.021  72.87   0
       260    744.6841     63.7766 300.4121260 +22.6129061     346.9483      69.9491      1.380     2.45    -2.361063     19.74483     46.47132         6     0.697     0.614 -36.68   0
       261    598.3918     60.1787 300.3677345 +22.5680550     231.6353     69.96693      1.544     4.94    -2.047263     19.74483       21.754         5     1.097     0.629  26.48   0
       262    737.5762     55.5294 300.4125872 +22.6084068     586.0908     70.00258      1.453     3.34     -2.37359     19.74483     69.97984        11     1.085     0.767 -69.15   0
       263    292.1095     55.3444 300.2740132 +22.4748886     733.8754     70.03821      1.432     2.92    -2.093546     19.74483     81.70491        14     1.027     0.839 -82.60   0
       264    775.0609     50.3881 300.4259329 +22.6181540     528.2825      69.9491      1.861     5.52    -2.341604     19.74483      47.4105        11     1.429     0.602  64.21   0
       265    699.1205     50.4631 300.4022523 +22.5954337     462.1693     70.07383      1.948     2.82    -2.348758     19.74483     45.38486         5     0.736     0.452  21.19   0
       266    795.4202     46.6652 300.4334841 +22.6231801     1351.448     69.96693      1.415     2.71    -2.330842     19.74483     160.7195        18     1.098     0.930  52.06   0
       267    179.0722     42.3850 300.2430810 +22.4372823     464.4784     69.98476      1.400     3.81    -2.151246     19.74483     53.08607         9     0.958     0.724  51.80   0
       268    969.9421     39.9694 300.4900559 +22.6735024     425.6338     70.00258      1.256     2.80    -2.158532     19.74483     69.28679         8     0.875     0.678 -62.80   0
       269    743.7260     38.9892 300.4198685 +22.6054937     512.2955     70.00258      1.396     4.17    -2.375677     19.74483     64.03662        11     0.970     0.816  33.18   0
       270    596.2229     24.1949 300.3787316 +22.5570643      453.786     69.96693      1.384     3.54    -2.241297     19.74483     51.21478         8     0.912     0.650 -66.25   0
       271    205.8273     21.1435 300.2582853 +22.4392039     274.2585     69.98476      1.314     3.91    -2.141976     19.74483     32.92089         6     0.779     0.563 -50.59   0
       272    759.2727     18.8005 300.4312603 +22.6043452     449.9088     69.85986      1.469     3.08    -2.390463     19.74483     57.17541         7     0.820     0.620  54.71   0
       273    566.0742   1003.6560 300.0510042 +22.8291898     886.8604     70.02039      1.028     1.65     -4.97918     19.74483     187.4185        10     0.797     0.584  62.21   0
       274    291.0331     14.1003 300.2870561 +22.4627211     361.4508     69.96693      1.319     3.35    -2.122594     19.74483       41.983         5     0.651     0.576 -87.92   0
       275    152.9166   1017.0029 299.9181900 +22.7089438     1484.534     69.91341      8.161    12.25     12.50493     19.74483     44.44414        34     2.561     1.630  20.29  18
       276    657.5853   1012.9020 300.0764790 +22.8593080     4036.533     69.87772      1.077     1.81    -5.611214     19.74483      766.071        21     0.920     0.821  34.83   0
       277    460.0186   1000.0622 300.0191752 +22.7963213     559.8741     69.94909      1.139     1.84     -4.95349     19.74483     142.2861         9     0.722     0.697  50.28   0
       278    390.5644    998.2835 299.9981520 +22.7749576     3633.252     69.96693      1.011     1.74    -4.874383     19.74483     724.1371        18     0.856     0.774  72.00   0
