#   1 NUMBER                 Running object number                                     
#   2 X_IMAGE                Object position along x                                    [pixel]
#   3 Y_IMAGE                Object position along y                                    [pixel]
#   4 ALPHA_J2000            Right ascension of barycenter (J2000)                      [deg]
#   5 DELTA_J2000            Declination of barycenter (J2000)                          [deg]
#   6 FLUX_APER              Flux vector within fixed circular aperture(s)              [count]
#   7 FLUXERR_APER           RMS error vector for aperture flux(es)                     [count]
#   8 FLUX_RADIUS            Fraction-of-light radii                                    [pixel]
#   9 FWHM_IMAGE             FWHM assuming a gaussian core                              [pixel]
#  10 BACKGROUND             Background at centroid position                            [count]
#  11 THRESHOLD              Detection threshold above background                       [count]
#  12 FLUX_MAX               Peak flux above background                                 [count]
#  13 ISOAREA_IMAGE          Isophotal area above Analysis threshold                    [pixel**2]
#  14 A_IMAGE                Profile RMS along major axis                               [pixel]
#  15 B_IMAGE                Profile RMS along minor axis                               [pixel]
#  16 THETA_IMAGE            Position angle (CCW/x)                                     [deg]
#  17 FLAGS                  Extraction flags                                          
         1    647.2542     22.3574 300.4125812 +22.5515240     1585.143     70.30558      2.088     4.68    -1.708849     19.83534     119.5542        30     1.483     1.356   1.08   0
         2    581.1989     12.2423 300.3952978 +22.5288246     945.4384     70.30558      2.353     5.79    -1.679338     19.83534     63.17845        19     1.417     1.100 -10.54   0
         3    370.8672      3.6089 300.3326565 +22.4633041     4644.838     65.58032      1.935     4.18    -1.434136     19.83534     350.7968        42     1.512     1.427  -2.40  24
         4    836.6408   1015.3728 300.1487842 +22.8934030     323.6496     70.34138      1.766     3.81    -5.282912     19.83534     41.63734         5     0.969     0.622 -30.04   0
         5    769.0641   1021.7857 300.1256437 +22.8749588     649.7955     63.98673      1.351     3.44    -5.351736     19.83534     76.53551        13     1.184     0.724 -54.04  24
         6    119.5708   1022.6144 299.9233623 +22.6801052     522.0135     60.23676      1.964     3.36    -1.604254     19.83534     31.95219         5     1.022     0.320 -67.12  24
         7    104.9238   1022.7538 299.9187679 +22.6757426     633.8436     59.60643      6.361     7.92     -1.80446     19.83534     34.47039        12     2.040     0.860   5.78  25
         8     99.0733   1023.6443 299.9166609 +22.6742390     425.4527     54.83171      2.300     3.50    -1.865212     19.83534     37.09962         5     0.810     0.436 -16.77  25
         9    102.9839   1007.3729 299.9231748 +22.6707550     423.8182     70.32349      1.289     2.82    -2.147752     19.83534     58.12194         9     0.897     0.648  69.51   0
        10    800.0331    997.3994 300.1432336 +22.8772606     763.8864     70.26975      1.317     2.89    -5.054265     19.83534     101.0462        14     0.950     0.914  -1.78   0
        11    982.6286    996.1080 300.2005589 +22.9316846     193.2952     70.26975      1.212     3.47    -4.681306     19.83534     44.63932         5     0.818     0.478 -35.07   0
        12    837.9685    990.7684 300.1572120 +22.8867443     589.0369     70.34138      1.494     3.60    -4.981167     19.83534     59.90246         9     0.965     0.666  29.57   0
        13    946.3405    987.5020 300.1920494 +22.9183276     279.9215     70.37717      1.121     3.88    -4.630664     19.83534     38.31424         6     0.909     0.474 -89.19   0
        14    886.1832    982.0198 300.1750853 +22.8987038     323.4787     70.28767      1.275     3.54    -4.773493     19.83534      53.9997         7     0.877     0.641 -69.12   0
        15    737.8204    981.2733 300.1291081 +22.8539622     495.3414     70.32349      1.334     2.57    -4.864267     19.83534     65.34808         9     0.846     0.663  78.54   0
        16    749.1248    978.5149 300.1335271 +22.8565643     320.0092     70.41294      1.333     3.92    -4.840238     19.83534     48.14058         6     0.903     0.653  84.00   0
        17    450.5775    977.7664 300.0408493 +22.7667098     2317.747     70.32349      1.421     2.59    -4.639264     19.83534     293.6284        25     1.096     1.070  75.15   0
        18    175.7056    963.6966 299.9599861 +22.6801011     463.0958     70.48443      1.382     4.42    -2.608692     19.83534     63.58594         9     1.119     0.783  26.19   0
        19    152.8868    960.6562 299.9538875 +22.6723731     882.8896     70.37717      1.323     3.31    -2.744184     19.83534      107.663        14     1.024     0.894 -64.42   0
        20     84.8041    961.6143 299.9324299 +22.6521866     268.0304     70.16217      1.157     4.41    -3.376642     19.83534     37.76537         6     0.938     0.591  63.12   0
        21   1023.6955    948.9629 300.2287181 +22.9304764     676.5872      54.5324      1.054     2.63     -4.41068     19.83534     163.9896         9     0.958     0.523  83.06  24
        22     27.9976    950.5785 299.9183846 +22.6319523     296.2348     70.25184      1.414     3.92    -4.626451     19.83534     31.65271         5     0.892     0.493   2.47   0
        23    978.7020    947.5152 300.2151608 +22.9165634     1291.345     70.46656      1.290     2.43    -4.386106     19.83534     161.7283        15     0.940     0.896  43.16   0
        24    762.1609    941.9155 300.1495062 +22.8499801      477.724     70.28767      1.622     3.79    -4.399739     19.83534     49.21662         9     0.961     0.866  41.09   0
        25    630.4691    935.7733 300.1105000 +22.8086886     2748.975     70.30558      1.439     2.77    -4.040965     19.83534     328.4108        25     1.107     1.057 -15.47   0
        26    119.7801    936.3672 299.9515126 +22.6554671     252.5493     70.30558      1.281     2.73     -3.49444     19.83534     38.41816         5     0.713     0.460 -15.49   0
        27    432.7599    933.0397 300.0498718 +22.7485393     480.8072     70.37717      1.674     4.74    -4.304393     19.83534     47.44981         7     0.938     0.680 -88.74   0
        28    180.7532    929.8860 299.9725629 +22.6719326     864.2197     70.26975      1.417     3.08    -3.494848     19.83534     95.05882        13     1.038     0.810  59.55   0
        29    651.2418    928.0679 300.1194756 +22.8127150     506.6277     70.28767      1.714     4.63     -4.08598     19.83534     41.72692         8     0.970     0.626  27.47   0
        30    200.2088    927.3911 299.9794199 +22.6770637     165.8061     70.19805      1.075     3.20    -3.505642     19.83534     36.26965         5     0.732     0.453  18.32   0
        31    806.4101    915.3116 300.1719525 +22.8556285     2390.371     70.25184      1.417     2.77     -4.13101     19.83534     260.1949        21     1.111     0.958 -33.73   0
        32   1023.1252    915.2939 300.2395041 +22.9206425     596.5894     57.78318      1.190     2.67    -4.291486     19.83534     101.6587        12     0.904     0.806  51.42  24
        33    341.7860    912.4750 300.0282782 +22.7153216     2128.786     70.32349      0.869     2.24    -3.482107     19.83534      622.859         8     0.845     0.435 -85.02   0
        34    658.4662    910.4857 300.1274494 +22.8098416     3493.296     70.39506      0.851     0.11    -3.932607     19.83534      1751.34         7     0.820     0.324 -40.56   0
        35    523.5201    908.1297 300.0862161 +22.7686530      334.175     70.41294      1.387     4.85      -4.0423     19.83534      38.5762         8     1.097     0.607  56.71   0
        36    169.9993    906.4183 299.9768622 +22.6619785     527.5181     70.23391      1.258     3.78     -3.54826     19.83534     71.52775        11     1.064     0.721 -74.76   0
        37    319.6014    898.3323 300.0259856 +22.7046050     30757.57     70.26975      1.532     2.82    -3.484304     19.83534     3424.656        65     1.297     1.254  42.03   0
        38    577.4036    897.1707 300.1065516 +22.7816887     855.2389     70.26975      1.469     3.28    -3.733485     19.83534     95.13805        17     1.100     0.988 -17.60   0
        39    990.0123    895.9329 300.2354832 +22.9051534     557.1957     70.30558      1.327     3.80    -4.212853     19.83534      71.0543         9     0.939     0.712 -17.32   0
        40      5.6423    892.8776 299.9302290 +22.6087092     435.3416     70.28767      1.326     2.90    -3.951102     19.83534     72.78416         9     0.919     0.748  84.49  16
        41    606.0920    892.9811 300.1168445 +22.7890998      403.078     70.23391      1.373     4.30    -3.590466     19.83534     55.57048        10     1.064     0.730  42.44   0
        42    617.2763    891.2208 300.1208989 +22.7919524     331.3342     70.30558      1.248     4.97    -3.592093     19.83534     37.65772        10     1.189     0.702 -47.31   0
        43    722.3349    887.0328 300.1549721 +22.8222852     250.7283     70.30558      1.359     3.80    -3.797316     19.83534     37.49257         5     0.832     0.499  38.45   0
        44    760.1107    877.7913 300.1697457 +22.8309711     468.5291     70.23391      1.543     5.07     -3.77621     19.83534     49.64215        10     1.212     0.629  36.80   0
        45    369.3020    875.5371 300.0488581 +22.7129995     17841.11     70.39506      1.551     3.03    -3.517919     19.83534     1892.201        51     1.294     1.238  44.00   0
        46    383.7357    875.9310 300.0532180 +22.7174472     1069.138     70.35928      1.529     3.05    -3.551954     19.83534     131.3347        18     1.112     0.958  68.77   0
        47    892.1618    870.8878 300.2131352 +22.8686124     1647.537     70.28767      1.342     2.79    -3.880032     19.83534     180.4161        16     1.039     0.872 -52.70   0
        48    251.7841    867.2731 300.0150168 +22.6753333     468.6452     70.30558      1.509     3.85    -3.518076     19.83534     54.33296        12     1.118     0.896  72.15   0
        49    650.5124    867.0806 300.1391039 +22.7950059     458.6029     70.43082      1.338     3.21    -3.447016     19.83534     55.23872        10     0.976     0.665  30.51   0
        50    497.3327    862.3475 300.0929723 +22.7476643     473.6001     70.32349      1.607     4.71    -3.701344     19.83534     43.57494        10     1.140     0.689 -57.87   0
        51    898.2852    858.5834 300.2190491 +22.8669186     292.0634     70.26975      1.298     3.28    -3.845261     19.83534     47.05264         7     0.894     0.583 -59.68   0
        52    442.9658    857.1843 300.0777406 +22.7298599     330.4818     70.28767      1.981     4.47    -3.598969     19.83534     38.69783         5     0.816     0.695  -3.47   0
        53    542.6632    840.4310 300.1142103 +22.7549894     331.7425     70.32349      1.703     3.62    -3.386598     19.83534     49.19524         6     1.081     0.623 -71.14   0
        54    564.3063    837.5626 300.1218791 +22.7606639     718.8796     70.28767      1.565     4.01    -3.365119     19.83534      63.7332        16     1.135     0.949  29.56   0
        55    958.4933    836.1530 300.2451176 +22.8785419     2742.493     70.32349      1.413     2.69    -3.992922     19.83534     285.5864        25     1.138     1.028  38.08   0
        56    946.9565    827.4648 300.2443491 +22.8725879     1047.812     70.28767      1.483     3.03    -3.922166     19.83534     107.2872        19     1.100     1.021 -67.36   0
        57    310.3172    822.0967 300.0479134 +22.6799674     472.5941     70.46656      1.657     4.64    -3.491222     19.83534     58.13324         9     1.236     0.890 -61.51   0
        58    773.3059    818.9476 300.1930098 +22.8180490     1516.805     70.37717      1.593     3.79    -3.557827     19.83534     117.4325        24     1.271     1.200 -44.45   0
        59    978.0739    817.5643 300.2572724 +22.8790793     971.9916     70.25184      1.426     3.07    -4.080381     19.83534     104.2796        14     1.056     0.821  83.52   0
        60    521.6121    808.9294 300.1179124 +22.7396365     812.5593     70.32349      0.632     0.72    -3.356111     19.83534     467.0965         6     0.537     0.347   7.72   0
        61    159.1445    805.8162 300.0062335 +22.6298941     257.1642     70.26975      1.385     3.54    -3.451953     19.83534     36.34525         5     1.097     0.329  11.29   0
        62    891.7415    795.8804 300.2374186 +22.8469609     84051.64     70.34138      1.510     3.09    -3.691376     19.83534     7283.726       114     1.378     1.338  15.87   0
        63    744.2863    796.6046 300.1912424 +22.8029311     354.9379     70.23391      1.550     4.19    -3.475297     19.83534     42.31095         6     1.039     0.482   5.11   0
        64    578.1998    785.1129 300.1432724 +22.7497921      1010.29     70.19805      1.751     3.66    -3.201134     19.83534     91.92587        18     1.125     1.094  74.77   0
        65    759.2717    782.1978 300.2005982 +22.8032938     5356.437     70.25184      1.608     3.51     -3.46788     19.83534     429.8188        35     1.297     1.198  41.49   0
        66    260.8684    777.6396 300.0470101 +22.6523741     2639.891     70.26975      1.605     3.41    -3.513687     19.83534     244.2022        29     1.295     1.178  30.52   0
        67    343.2908    775.4448 300.0733454 +22.6764969     558.3672     70.28767      1.585     3.42    -3.492382     19.83534     65.28067        12     1.005     0.860 -36.81   0
        68    551.2324    770.7147 300.1395649 +22.7375683     497.3604     70.26975      1.890     5.41    -3.113326     19.83534     42.12147         8     1.205     0.686  31.24   0
        69    542.7758    763.1720 300.1393876 +22.7328667     1747.843     70.28767      1.683     4.25    -3.071227     19.83534     123.1785        24     1.254     1.200   4.56   0
        70    532.9290    756.9667 300.1383425 +22.7281315     666.4483     70.30558      1.587     4.62    -3.072617     19.83534     65.20163        19     1.267     1.082  30.05   0
        71    196.6805    753.5344 300.0349063 +22.6261869     161.7458     70.41294      1.291     4.36    -3.473315     19.83534     40.97642         5     1.189     0.645  47.10   0
        72    211.2303    751.2797 300.0401607 +22.6299108     243.8439     70.30558      1.355     3.71    -3.506485     19.83534     39.22692         5     0.949     0.418  45.96   0
        73    457.7534    746.7653 300.1182732 +22.7026400     1176.421     70.32349      1.816     4.28      -3.2505     19.83534     105.2854        23     1.323     1.169  11.55   0
        74    980.0400    747.2319 300.2807735 +22.8594789     353.8987     70.34138      1.411     5.07    -4.082764     19.83534     36.91046         8     1.025     0.709 -17.17   0
        75    111.9353    741.8755 300.0123730 +22.5973904     11470.47     70.37717      1.566     3.04    -3.396516     19.83534     1144.437        48     1.359     1.226  67.74   0
        76     33.4428    743.7031 299.9874033 +22.5743334     490.4275     70.30558      1.314     2.94     -3.41303     19.83534      46.0258         7     0.904     0.488  83.17   0
        77    543.1653    741.9339 300.1464189 +22.7268923     524.8903     70.30558      1.568     4.64    -2.961018     19.83534      52.0226        10     0.976     0.889 -73.51   0
        78    960.6113    727.8149 300.2810340 +22.8480783      612.926     70.23391      1.497     3.92    -3.919992     19.83534     56.72665        12     1.008     0.814  27.10   0
        79     57.6863    725.9528 300.0007052 +22.5765312     744.6176     70.26975      1.757     6.50    -3.407299     19.83534      62.8065        18     1.447     1.056 -85.17   0
        80    827.8130    725.7744 300.2403095 +22.8076641     271.2732     70.30558      1.738     4.40    -3.441643     19.83534     26.58943         5     0.763     0.723   8.97   0
        81    900.6017    720.6846 300.2646480 +22.8280349      507.571     70.23391      1.966     4.80    -3.565406     19.83534      41.9671         8     1.159     0.685  24.39   0
        82    629.1070    711.8378 300.1829588 +22.7440505     254.3309     70.30558      1.653     4.89    -3.014498     19.83534     28.89145         6     1.057     0.641 -10.57   0
        83    507.4586    710.5867 300.1455064 +22.7071842     457.4477     70.28767      1.797     5.16    -2.907935     19.83534      42.9827         9     1.116     0.805  52.84   0
        84    940.6597    705.9212 300.2819371 +22.8358097     2058.639     70.34138      1.549     3.40    -3.664721     19.83534     153.5294        22     1.120     1.100  20.88   0
        85    472.6674    706.0779 300.1361490 +22.6954484     875.7726     70.41294      1.724     4.32    -3.025586     19.83534     80.44846        21     1.264     1.165 -42.15   0
        86     34.7347    700.0754 300.0019958 +22.5622215     2954.204     70.35928      1.540     3.00    -3.595031     19.83534      307.151        30     1.273     1.132  83.00   0
        87    980.2559    695.9158 300.2975363 +22.8448104     306.8363     70.39506      1.283     3.40    -3.919821     19.83534     35.56122         5     1.007     0.333  47.44   0
        88    336.0790    693.0599 300.0979049 +22.6507119       5234.7     70.34138      1.758     3.46    -3.475512     19.83534     503.6592        39     1.387     1.329  44.47   0
        89    458.4788    690.0161 300.1369599 +22.6865830     5110.646     70.32349      1.819     4.06    -3.003543     19.83534      362.696        37     1.372     1.344   8.14   0
        90    869.8037    683.6401 300.2671008 +22.8081643     934.0242     70.32349      1.640     4.46    -3.250283     19.83534     77.75163        15     1.184     0.923 -71.03   0
        91    954.5685    680.9958 300.2943813 +22.8328243     7141.791     70.28767      1.595     3.45    -3.646331     19.83534     535.3976        40     1.277     1.224  29.33   0
        92    518.9642    679.5427 300.1591843 +22.7017329     6674.346     70.30558      1.830     4.14     -2.65412     19.83534     509.5763        42     1.400     1.374  39.60   0
        93    246.6158    675.1238 300.0759295 +22.6187078     907.6699     70.30558      1.848     3.76    -3.551471     19.83534     84.67694        17     1.203     1.017  63.22   0
        94    450.7544    667.8337 300.1417720 +22.6779025     2507.416     70.34138      1.800     4.09     -2.91514     19.83534     228.3986        31     1.390     1.265  62.37   0
        95    793.6195    667.8585 300.2484966 +22.7807849     417.7854     70.28767      1.842     5.68    -3.162885     19.83534     44.00641         7     0.998     0.910  33.15   0
        96    428.7845    666.0621 300.1355145 +22.6707999       794.28     70.26975      1.959     6.38    -2.988405     19.83534     54.92813        14     1.183     0.966  67.47   0
        97    183.4850    665.5248 300.0594341 +22.5969986     432.4639     70.41294      1.617     3.91    -3.214874     19.83534     53.03827         8     1.019     0.841  60.10   0
        98    870.2759    663.0174 300.2739560 +22.8023858     866.0148     70.30558      1.679     4.38    -3.172967     19.83534      64.5984        18     1.249     1.053 -34.73   0
        99    750.9478    660.2538 300.2376778 +22.7658027     451.2501     70.34138      1.500     6.33    -3.139326     19.83534     42.98008         9     1.482     0.760  65.14   0
       100    567.2254    655.2604 300.1821004 +22.7092500     117020.6     70.30558      1.875     4.35     -2.51517     19.83534     8100.055       145     1.627     1.584  -3.07   0
       101    253.4447    655.4407 300.0844533 +22.6151154      2026.23     70.37717      1.854     3.90    -3.423684     19.83534     171.1692        26     1.303     1.229  34.69   0
       102    457.8516    635.6631 300.1544422 +22.6708052      1575.35     70.35928      1.962     4.55    -2.622996     19.83534     98.96939        25     1.371     1.208  -4.28   0
       103    854.7882    621.9072 300.2824999 +22.7859391     869.8156     70.25184      1.679     4.57    -3.101028     19.83534     72.08133        17     1.099     1.071 -38.72   0
       104    725.9172    619.1946 300.2432351 +22.7465102     1281.696     70.23391      1.767     4.54    -2.995153     19.83534     92.69628        23     1.260     1.182   4.76   0
       105    514.1403    615.1049 300.1786396 +22.6818002     268.0943     70.37717      1.481     3.95    -2.368964     19.83534     29.60287         6     1.288     0.347 -89.45   0
       106    982.8465    613.0823 300.3252859 +22.8218012     794.6724     70.28767      1.657     4.72    -3.205694     19.83534     72.24127        14     1.177     1.019  -6.26   0
       107    854.8813    611.8702 300.2857929 +22.7830854     1278.872     70.41294      1.998     5.06    -3.086869     19.83534     81.56857        24     1.362     1.302  86.72   0
       108    969.1002    612.0436 300.3213378 +22.8173819     454.5678     70.30558      1.845     5.15     -3.17017     19.83534     37.03032         9     1.123     0.668  13.48   0
       109    892.9960    606.7014 300.2993519 +22.7930303     2429.795     70.19805      1.688     3.89    -3.074535     19.83534     172.5785        29     1.318     1.211  14.51   0
       110    125.8094    597.2870 300.0637055 +22.5601180     545.2126     70.23391      1.624     3.71    -3.026101     19.83534     63.51044        11     1.045     0.873  12.81   0
       111    984.9977    596.9236 300.3312112 +22.8178056     375.0471     70.21598      1.553     5.46    -3.072359     19.83534     39.38895         9     1.014     0.830  76.58   0
       112    666.5294    577.9175 300.2381634 +22.7168493     468.0135     70.43082      1.865     4.07    -2.519911     19.83534     43.20833         6     0.988     0.496 -86.22   0
       113    727.7378    570.2618 300.2597130 +22.7330109      423.595     70.34138      1.683     4.37    -2.862509     19.83534     30.40224         7     0.977     0.558 -56.42   2
       114    885.0507    565.6844 300.3102125 +22.7788704     470.3393     70.28767      1.558     3.91    -2.845489     19.83534     47.41661        11     1.218     0.865   3.80   0
       115    868.8935    562.6151 300.3061751 +22.7731447     418.9914     70.23391      2.085     5.26    -2.841845     19.83534     30.66486         6     1.245     0.627 -40.00   0
       116    613.1874    560.1140 300.2273449 +22.6957386     1849.265     70.25184      1.909     4.98     -2.35232     19.83534     126.5506        28     1.380     1.336  10.62   0
       117    771.3212    556.9777 300.2776071 +22.7422683     3500.917     70.28767      0.802     1.94    -3.011136     19.83534     1309.023         9     0.750     0.440  58.44   0
       118   1023.4870    538.9731 300.3620548 +22.8126979     384.8163      55.7426      1.445     5.14    -2.672256     19.83534     44.06195         9     1.124     0.664 -88.25  24
       119    982.4532    537.7988 300.3496413 +22.8000614      593.515     70.26975      1.658     4.03    -2.667029     19.83534     56.39582        11     0.992     0.825  40.04   0
       120    724.2816    534.3258 300.2703194 +22.7216585     520.2626     70.41294      1.749     4.61    -2.702548     19.83534      51.8336         9     1.106     0.655 -24.25   0
       121    290.1342    528.2978 300.1371947 +22.5896717     2116.826     70.39506      1.910     4.28    -2.450531     19.83534     176.4737        31     1.444     1.315  76.10   0
       122   1022.7024    526.2504 300.3659462 +22.8088080      2287.29     59.88039      1.584     3.86     -2.68893     19.83534     196.0561        24     1.261     1.086  86.59  24
       123    237.4029    523.1486 300.1224786 +22.5723665     4137.401     70.30558      1.899     4.16    -2.650556     19.83534     301.9469        38     1.464     1.364  73.55   0
       124    378.1621    517.1951 300.1681725 +22.6129067     2577.633     70.32349      1.917     4.48    -2.352819     19.83534     191.8734        36     1.490     1.380  61.06   0
       125   1002.9891    517.3072 300.3627060 +22.8003306     1124.039     70.25184      1.702     4.29    -2.679342     19.83534     78.37289        19     1.222     1.035  -3.98   0
       126    622.2402    513.7853 300.2452232 +22.6851576     10445.43     70.32349      1.971     4.70     -2.14989     19.83534     638.6405        57     1.586     1.479  20.41   0
       127    955.6486    495.9106 300.3549007 +22.7799953     362.4694     70.28767      1.629     5.93    -2.596463     19.83534     35.56719         9     1.161     0.851  32.56   0
       128    177.2950    494.2642 300.1131883 +22.5460395     1039.405     70.39506      1.789     4.44    -2.706295     19.83534     78.17062        21     1.298     1.158  29.11   0
       129    562.9294    483.2463 300.2366875 +22.6586018     3631.788     70.28767      1.975     4.63     -1.92065     19.83534     232.6578        36     1.468     1.398  76.15   0
       130    976.1567    483.1882 300.3654297 +22.7824875     772.5927     70.30558      1.636     4.14    -2.626102     19.83534     72.07247        17     1.159     1.032 -88.52   0
       131    278.2095    482.7693 300.1482851 +22.5730343     303.2042     70.30558      1.356     3.40    -2.322087     19.83534     27.41294         5     0.955     0.351  45.44   0
       132    766.7783    472.3729 300.3036928 +22.7166149     635.2929     70.30558      1.777     6.15    -2.537833     19.83534     52.16773        15     1.290     0.907  -0.76   0
       133    469.5994    469.5863 300.2120859 +22.6266836     3449.602     70.14423      1.969     4.57    -2.132571     19.83534     223.2206        39     1.542     1.456  57.80   0
       134    861.8856    464.3537 300.3359315 +22.7428256     702.5026     70.28767      1.899     5.91    -2.439926     19.83534     51.91546        12     1.299     0.892 -42.75   0
       135    958.3605    463.6067 300.3662454 +22.7715287     325.9036     70.34138      1.595     3.88    -2.507219     19.83534     41.11319        10     0.952     0.808 -50.66   0
       136    357.0953    448.8238 300.1838412 +22.5869704     1428.003     70.19805      2.032     4.92    -2.122866     19.83534     105.4381        30     1.552     1.349  59.13   0
       137     75.5814    446.7373 300.0970365 +22.5018755     695.0806     70.26975      1.848     4.43    -2.444627     19.83534     65.00361        16     1.292     1.057 -89.35   0
       138    326.4740    438.3332 300.1777288 +22.5747721     16629.36     70.37717      1.993     4.39    -2.184918     19.83534     1132.958        66     1.618     1.524  60.20   0
       139    861.0632    435.5589 300.3450325 +22.7343088     690.7693     70.28767      1.963     7.23    -2.337532     19.83534     44.48298        17     1.531     1.037   8.35   0
       140     22.9345    426.4413 300.0872823 +22.4802496     2686.575     70.26975      1.632     3.46    -1.862753     19.83534     260.3792        29     1.287     1.169 -77.33   0
       141    736.8576    417.8530 300.3120895 +22.6919886     1007.879     70.35928      1.986     8.20    -2.566803     19.83534     59.80455        24     1.583     1.187 -81.96   0
       142    398.7742    402.7359 300.2117767 +22.5862520     1257.854     70.28767      2.271     5.71    -2.069543     19.83534     72.71172        25     1.533     1.219  46.13   0
       143    837.8163    395.6760 300.3507471 +22.7158851     499.1799     70.30558      1.919     3.47    -2.424639     19.83534     32.27713         5     0.804     0.432  15.36   0
       144    474.3325    382.0095 300.2420132 +22.6029702     640.1402     70.30558      2.007     7.58    -1.981602     19.83534      52.3072        13     1.331     1.208 -71.85   0
       145    719.3280    373.9340 300.3208985 +22.6741210     1185.315     70.34138      1.968     5.12    -2.418204     19.83534     81.97258        24     1.423     1.213  19.64   0
       146    980.2595    367.8575 300.4041845 +22.7505823     1777.932     70.37717      1.822     4.21    -2.496637     19.83534     134.3848        23     1.227     1.198  77.59   0
       147    427.8770    358.0475 300.2353455 +22.5821581     444.5562     70.30558      2.169     4.60    -2.047909     19.83534     31.95161         6     1.104     0.717 -31.81   0
       148    102.4986    352.5440 300.1359957 +22.4829450     699.1336     70.39506      2.007     4.03    -2.577677     19.83534     70.20748        10     1.183     0.676  67.85   0
       149    790.2833    335.0092 300.3556447 +22.6842117     367.1034     70.25184      1.895     5.69    -2.523127     19.83534     29.17987         8     1.386     0.657  35.63   0
       150    888.5908    323.9909 300.3898570 +22.7105093     1251.697     70.19805      2.061     5.13    -2.503512     19.83534     83.22962        23     1.412     1.212   4.45   0
       151    307.7525    321.8026 300.2097624 +22.5357202     1153.555     70.30558      1.975     5.28    -2.237396     19.83534     76.79686        26     1.557     1.298 -75.36   0
       152    385.9686    317.0942 300.2356122 +22.5578332      557.603     70.23391      1.992     5.34    -2.046958     19.83534     55.57191        10     1.329     0.733   3.70   0
       153    202.9453    309.3817 300.1812200 +22.5007096     407.9274     70.28767      1.657     4.24    -2.612328     19.83534     36.83006         6     1.042     0.492 -55.71   0
       154    740.1110    305.6215 300.3495602 +22.6607318     1000.694     70.23391      2.057     6.70    -2.523127     19.83534     54.92045        22     1.431     1.301 -84.37   0
       155   1011.6732    297.7404 300.4367549 +22.7398443     424.2115     70.34138      1.632     5.34     -2.55991     19.83534     41.87459         9     1.053     0.763 -84.11   0
       156    664.6807    296.5734 300.3290077 +22.6355215     722.0197     70.28767      1.898     5.62    -1.829295     19.83534     60.09506        15     1.398     1.252  68.68   0
       157    590.7593    288.7016 300.3085504 +22.6110987     585.3073     70.28767      2.129     7.08     -1.87143     19.83534     33.74647        14     1.402     1.138  89.60   0
       158    859.6186    287.7092 300.3926109 +22.6914031     761.4114     70.23391      1.894     7.19    -2.504885     19.83534     53.94066        19     1.455     1.003  -0.58   0
       159    871.4521    286.8769 300.3965690 +22.6947100      492.834     70.32349      2.244     6.71    -2.503242     19.83534     27.35891         9     1.258     1.003 -14.65   0
       160    988.6025    277.1589 300.4362447 +22.7270176     600.5034     70.30558      1.697     6.13     -2.54418     19.83534     59.88537        13     1.193     0.990  -2.45   0
       161    223.1968    270.9576 300.1999903 +22.4957618     412.4445     70.32349      2.526     4.67    -2.440523     19.83534     39.02169         6     1.125     0.551 -67.98   0
       162     84.8151    265.6241 300.1587289 +22.4527070     1280.136     70.32349      1.811     4.41    -2.342431     19.83534     107.8486        22     1.378     1.140  42.28   0
       163    907.8658    262.1331 300.4159535 +22.6985109     358.8239     70.35928      1.919     5.27    -2.499863     19.83534     35.86406         7     1.370     0.572  -4.19   0
       164    242.2845    258.6917 300.2099050 +22.4979691     3100.741     70.46656      1.963     4.08    -2.311412     19.83534      249.775        38     1.524     1.402  39.19   0
       165     27.0283    253.3968 300.1447529 +22.4318566     717.7681     70.26975      1.613     4.15      -1.7652     19.83534     67.82265        15     1.122     0.961  69.62   0
       166    886.1405    239.7475 300.4164504 +22.6855688     2027.541     70.35928      1.988     4.68    -2.496889     19.83534     118.4578        29     1.393     1.326  37.54   0
       167    989.5935    238.4275 300.4491302 +22.7161823     1609.051     70.30558      1.846     4.09    -2.544638     19.83534     131.1655        24     1.287     1.185 -62.63   0
       168    487.0079    222.8597 300.2976401 +22.5610845     867.5694     70.26975      1.954     4.75    -2.022626     19.83534     78.88376        17     1.361     1.167 -23.57   0
       169    261.1095    202.6617 300.2339455 +22.4875374     3390.732     70.39506      1.934     3.84    -2.064058     19.83534     288.8943        37     1.478     1.367  72.23   0
       170    507.0829    187.7379 300.3152876 +22.5570186     3535.005     70.39506      2.113     4.55    -2.027468     19.83534     221.7987        41     1.561     1.522 -17.82   0
       171    758.7534    177.9559 300.3968173 +22.6296434     391.3733     70.34138      1.932     4.26    -1.758811     19.83534     36.53987         5     0.857     0.605   5.19   0
       172    635.3922    167.6410 300.3617475 +22.5897099     3305.481     70.32349      2.054     5.00     -1.84118     19.83534     186.7596        39     1.557     1.507  49.00   0
       173    410.4990    166.5831 300.2921064 +22.5219849     904.6379     70.21598      2.167     5.86     -2.02937     19.83534     53.90501        19     1.602     1.345  86.62   0
       174    676.3447    165.3235 300.3752511 +22.6013181     564.2056     70.34138      1.948     7.40     -1.62751     19.83534     40.53252        13     1.346     1.140  66.73   0
       175    679.6528    152.3224 300.3805009 +22.5985744     1533.871     70.34138      2.084     5.50    -1.637265     19.83534     85.30416        29     1.441     1.439 -76.85   0
       176    766.1609    143.9108 300.4101748 +22.6220806     787.4182     70.28767      1.991     7.78    -1.690588     19.83534     52.96999        22     1.363     1.297 -13.95   0
       177    703.6877    137.9903 300.3926372 +22.6016595     387.5299     70.23391      1.946     5.56    -1.635738     19.83534     29.71439         7     1.154     0.755  -3.37   0
       178    509.9149    136.9909 300.3326391 +22.5432943     714.9712     70.25183      2.369     6.89    -2.028463     19.83534     40.31668        12     1.264     1.053  81.00   0
       179    414.2472    135.3980 300.3033929 +22.5141548     383.2103     70.30558      1.371     3.56    -2.039991     19.83534     37.80259         5     1.277     0.286 -53.34   0
       180    185.0467    125.0747 300.2354867 +22.4424539     2148.913     70.30558      1.975     4.44    -1.887465     19.83534     149.8474        32     1.512     1.339  89.40   0
       181    746.1851    118.6457 300.4121514 +22.6088352      404.554     70.32349      1.610     4.48    -1.622052     19.83534     46.32662         7     0.880     0.648  31.96   0
       182    301.4054    117.7383 300.2740332 +22.4752474     542.9402     70.28767      1.480     2.95    -1.960994     19.83534     50.51694         7     0.898     0.515 -28.49   0
       183    804.0099    108.3549 300.4335051 +22.6232026     1242.549     70.32349      1.903     4.91    -1.787063     19.83534     83.48752        25     1.363     1.268 -28.92   0
       184    187.6589    104.5663 300.2429529 +22.4373514     603.7186     70.32349      1.768     5.08    -1.761571     19.83534     43.96155        11     1.090     0.767 -21.28   0
       185    978.8604    102.1356 300.4900224 +22.6737876     412.5339     70.34138      1.651     4.87    -2.207916     19.83534     33.02687         8     1.333     0.504  12.81   0
       186    752.7305    100.8834 300.4199540 +22.6056921     492.6655     70.41294      2.247     5.21    -1.638668     19.83534     49.34849         6     1.083     0.710  86.03   0
       187    951.5917     91.8201 300.4848676 +22.6626554     3749.294     70.26975      0.692     0.96    -2.114803     19.83534      1601.48         8     0.520     0.439  -5.64   0
       188    605.2604     86.6671 300.3786440 +22.5574177     392.0113     70.34138      1.576     3.73    -1.891986     19.83534     37.41243         5     0.940     0.426 -46.20   0
       189    768.8464     80.6662 300.4315343 +22.6047104     468.4426     70.30558      2.153     5.94    -1.689455     19.83534     34.70025         7     1.359     0.740 -37.01   0
       190    576.5115     79.0270 300.3721737 +22.5466069     1039.445     70.28767      2.129     4.93     -1.90221     19.83534     67.91125        22     1.388     1.231 -31.97   0
       191     14.4847     75.5276 300.1985822 +22.3770674     538.0178     70.41294      2.193     5.85    -1.666996     19.83534     42.56261        11     1.198     0.897 -72.31   0
       192    300.3515     76.2104 300.2871796 +22.4630092     520.5994     70.32349      1.678     3.51    -2.016553     19.83534     37.23627         5     0.829     0.428  72.64   0
       193    533.9807     73.1261 300.3608510 +22.5321647     781.9202     70.30558      1.963     5.58    -1.918718     19.83534     54.43245        18     1.346     1.077  -4.75   0
       194    639.2666     69.5884 300.3947722 +22.5627018     854.1788     70.28767      2.109     4.48    -1.793434     19.83534     66.85898        16     1.319     1.013 -32.68   0
       195    283.6341     67.4411 300.2848274 +22.4554785     319.5866     70.35928      2.071     4.15     -2.07201     19.83534     27.08476         5     1.023     0.481 -87.87   0
       196    459.8503     63.4421 300.3409263 +22.5071629     1291.978     70.32349      1.957     4.41    -1.883152     19.83534     98.33556        26     1.447     1.224   9.00   0
       197    106.7852     61.5349 300.2317872 +22.4007425     925.5493     70.28767      1.839     4.03    -1.554919     19.83534     83.28825        18     1.209     1.094  -4.10   0
       198    971.5738     51.5507 300.5041633 +22.6570611     1873.145     70.32349      0.815     2.91    -1.607455     19.83534     682.2833         5     0.623     0.398 -38.48   0
       199    730.7316     46.4400 300.4307656 +22.5834552     296.6634     70.26975      1.955     5.49      -1.6664     19.83534      30.3362         5     1.256     0.676  44.02   0
       200    168.1387     43.2114 300.2567921 +22.4138862     652.2498     70.25184      1.732     5.83    -1.509279     19.83534     53.34519        14     1.302     1.039 -25.36   0
       201    973.9072     25.1972 300.5134401 +22.6501819     1198.614     70.21598      0.512     0.82    -1.249175     19.83534      789.161         5     0.416     0.351 -56.97   0
       202    791.4191   1015.3009 300.1347193 +22.8798093     6689.414     70.23391      1.269     2.32    -5.269465     19.83534     851.0515        33     1.097     1.024  69.28   0
       203    743.4520     22.7946 300.4423982 +22.5804702     652.4335     70.28767      2.008     4.56    -1.691179     19.83534     59.35901        13     1.223     0.801  20.27   0
       204    135.2162   1016.6449 299.9301659 +22.6830980     450.1032     70.32349      2.672     3.47     -1.54467     19.83534     26.09108         5     1.244     0.280  54.98  16
