#   1 NUMBER                 Running object number                                     
#   2 X_IMAGE                Object position along x                                    [pixel]
#   3 Y_IMAGE                Object position along y                                    [pixel]
#   4 ALPHA_J2000            Right ascension of barycenter (J2000)                      [deg]
#   5 DELTA_J2000            Declination of barycenter (J2000)                          [deg]
#   6 FLUX_APER              Flux vector within fixed circular aperture(s)              [count]
#   7 FLUXERR_APER           RMS error vector for aperture flux(es)                     [count]
#   8 FLUX_RADIUS            Fraction-of-light radii                                    [pixel]
#   9 FWHM_IMAGE             FWHM assuming a gaussian core                              [pixel]
#  10 BACKGROUND             Background at centroid position                            [count]
#  11 THRESHOLD              Detection threshold above background                       [count]
#  12 FLUX_MAX               Peak flux above background                                 [count]
#  13 ISOAREA_IMAGE          Isophotal area above Analysis threshold                    [pixel**2]
#  14 A_IMAGE                Profile RMS along major axis                               [pixel]
#  15 B_IMAGE                Profile RMS along minor axis                               [pixel]
#  16 THETA_IMAGE            Position angle (CCW/x)                                     [deg]
#  17 FLAGS                  Extraction flags                                          
         1    164.1422     10.1724 300.2567626 +22.4137617     690.7347     69.95605      1.725     2.72    -2.090842     19.73673     82.64721        12     0.921     0.902 -57.29   0
         2    427.7097   1013.7842 300.0125514 +22.7808424     330.0063     69.88474      1.311     3.25    -4.389199     19.73673     62.81369         9     1.168     0.738  49.65   0
         3    127.5213   1022.3366 299.9164506 +22.6931004     491.3404     61.35552      2.373     4.18     5.612654     19.73673     40.10726         5     1.151     0.434 -51.55  24
         4    119.7708   1022.4747 299.9139980 +22.6908105     846.0685     60.61972      6.234     7.49     5.612654     19.73673     33.29635        14     1.344     1.167  53.87  25
         5    109.8844   1019.6632 299.9118425 +22.6870337     1190.486     69.90258      9.204    13.96      5.40969     19.73673     37.90367        27     3.366     1.610 -63.26  27
         6    102.7786   1015.4066 299.9110215 +22.6836785     1300.278     69.93823      6.358     7.83     4.902279     19.73673     64.72713        18     1.604     1.069  -1.88  19
         7     87.8561   1021.9569 299.9042534 +22.6810699     1791.628     62.97965     15.374    22.69     4.425853     19.73673     59.62682       110     7.668     1.865 -10.69  27
         8     75.7014   1017.2664 299.9020058 +22.6760728      1808.64     70.04509      8.327    19.82     2.470909     19.73673     48.86759        79     4.144     2.634  -6.74  19
         9     91.0741    996.8531 299.9134277 +22.6748453     1985.831     69.97387     10.854    23.18     2.477069     19.73673     49.29665        95     5.723     2.607 -21.14  19
        10     87.8322   1009.7015 299.9082369 +22.6775518     2306.694     69.93823     13.926    35.10     3.346789     19.73673     56.01242       253     7.968     4.291 -12.08  27
        11    941.4739   1005.5476 300.1752280 +22.9327140     1362.782     69.97387      0.993     1.86    -5.274777     19.73673     222.2579        13     0.781     0.733 -50.41   0
        12    730.3829    994.5502 300.1130288 +22.8662086     608.7183     69.97387      1.718     5.53    -5.410921     19.73673     74.38576        12     1.247     0.692  55.72   0
        13     83.0870    998.0917 299.9105436 +22.6727996     1858.783     70.11624      6.556    15.81     1.762525     19.73673     47.84351        57     3.196     2.173 -66.48   3
        14    542.8701    989.4857 300.0562958 +22.8084603     147.2592     70.06289      0.978     4.02    -4.490664     19.73673     33.89304         6     1.021     0.453  59.10   0
        15    765.1951    988.7141 300.1257735 +22.8749833     460.3017     69.88474      1.014     1.93    -5.351996     19.73673     110.7333         8     0.780     0.660  30.61   0
        16    787.3899    982.4183 300.1347384 +22.8798382     6510.911     69.92041      1.042     1.87    -5.281514     19.73673     1046.168        25     0.911     0.878  77.37   0
        17    978.2767    981.6348 300.1944908 +22.9368919     261.8047     69.92041      0.924     1.56    -4.564929     19.73673      82.9968         5     0.651     0.440 -24.08   0
        18     98.9794    974.3597 299.9232072 +22.6707767     155.1676     69.99168      0.942     2.04    0.7415137     19.73673     64.32274         5     0.694     0.431 -22.80   0
        19    492.4074    970.7786 300.0466840 +22.7879423     321.0806     69.93823      1.271     2.87     -4.54567     19.73673     40.32038         6     0.698     0.638  18.61   0
        20    838.8524    969.8799 300.1548569 +22.8916844     261.1236     69.97387      0.970     2.93      -5.1666     19.73673     55.01963         6     0.896     0.587  15.99   0
        21    795.8955    964.3104 300.1432851 +22.8771949     771.2399     70.13402      1.082     1.82    -5.100054     19.73673     169.7733        10     0.899     0.610  68.52   0
        22    648.4436    961.4926 300.0982759 +22.8321284     420.8323     69.95605      1.387     3.04    -5.032815     19.73673     44.95823         6     0.871     0.436  18.97   0
        23    834.1759    957.9221 300.1572934 +22.8868494     385.3549     69.95605      0.969     2.21    -5.042965     19.73673     109.1512         7     0.844     0.533  68.38   0
        24    942.9460    954.6573 300.1922599 +22.9185484     174.2673     70.00949      1.061     3.44     -4.93445     19.73673     50.91319         5     1.027     0.472  -2.82   0
        25    882.3547    949.0699 300.1751912 +22.8987655     399.7187     69.93823      1.188     2.14     -4.96044     19.73673     69.47492         6     0.711     0.607  57.18   0
        26    733.7553    948.0585 300.1292186 +22.8538819     495.0507     69.99168      1.193     1.98    -4.954399     19.73673     88.50606         7     0.766     0.598 -26.68   0
        27    446.4742    944.8124 300.0408477 +22.7667025     2430.974     69.97387      1.219     2.20    -4.537892     19.73673     369.6924        18     0.972     0.885  45.05   0
        28    745.0988    945.2239 300.1336750 +22.8564731     249.8198     69.90258      1.095     2.45    -4.924691     19.73673     67.99918         7     0.703     0.645  68.28   0
        29    108.0383    933.5978 299.9392919 +22.6618197     159.3061     69.97387      0.914     2.78     -3.31777     19.73673     43.38166         5     0.757     0.556 -85.00   0
        30    171.8820    930.6728 299.9600787 +22.6801654     545.4982     70.08067      1.184     2.32    -3.667346     19.73673     87.90692         8     0.801     0.637 -45.57   0
        31     80.3145    929.1909 299.9321152 +22.6522256     281.3925     69.88474      1.177     4.77    -4.036196     19.73673     39.55824         7     1.072     0.601  60.08   0
        32    149.0089    927.6473 299.9539569 +22.6724257     868.2062     69.97387      1.142     2.06    -3.831187     19.73673     142.4173        13     0.928     0.811 -48.19   0
        33     24.0603    917.0640 299.9185928 +22.6318451     200.2252     69.99168      1.265     4.60    -4.736374     19.73673     37.07061         7     1.034     0.580 -36.77   0
        34   1020.4890    916.1274 300.2289854 +22.9307478     1210.553     68.26055      1.007     1.66    -4.830484     19.73673     253.5804        11     0.796     0.666 -21.65  16
        35    974.6658    914.6288 300.2151834 +22.9165728     1195.301     69.95605      1.042     1.89    -4.808957     19.73673     230.7918        11     0.781     0.707 -67.04   0
        36    680.0077    915.3407 300.1231311 +22.8283625     311.8835     69.92041      1.473     3.45     -4.72409     19.73673     44.51974         5     1.048     0.329  41.79   0
        37    181.0220    909.3027 299.9698753 +22.6767869     243.1846     69.88474      1.131     2.65    -3.949623     19.73673     43.41772         7     0.711     0.663 -40.85   0
        38    758.2471    908.5511 300.1497107 +22.8498958     416.7195     69.99168      1.139     1.98    -4.763067     19.73673     78.67564         5     0.682     0.463  21.34   0
        39    626.4011    902.8251 300.1105136 +22.8086811     2674.532     69.90258      1.175     2.17    -4.740637     19.73673     387.5242        19     0.932     0.872  57.78   0
        40    115.7946    903.5586 299.9514797 +22.6555424     313.3547     69.97387      1.205     2.26    -4.076978     19.73673     55.48109         5     0.717     0.438 -24.31   0
        41    428.7870    899.8973 300.0499676 +22.7485111     386.4113     69.84906      1.296     3.46    -4.589826     19.73673     47.86121         8     1.016     0.521  37.27   0
        42    176.7635    896.9670 299.9725674 +22.6719719     796.6052     69.97387      1.162     2.28    -3.987422     19.73673     130.8471        10     0.807     0.752 -44.76   0
        43    647.1195    895.1082 300.1194765 +22.8126861      514.678     70.08067      1.323     2.30    -4.727062     19.73673     81.84882         9     0.760     0.724  81.99   0
        44    802.3663    882.4458 300.1719544 +22.8556428     2407.438     69.99168      1.108     2.07    -4.757206     19.73673     362.8648        19     0.938     0.855  79.47   0
        45   1019.1423    882.4314 300.2395353 +22.9206685     599.9763     69.97387      1.014     1.88    -4.952179     19.73673     127.6119        10     0.821     0.643 -62.57  16
        46    519.3003    874.9357 300.0862546 +22.7685292     332.7756     70.04509      1.336     3.62    -4.674018     19.73673     50.54559         9     1.018     0.729  49.36   0
        47    165.8961    873.2827 299.9768994 +22.6619186     476.7621     70.11624      1.264     2.05    -4.078067     19.73673     104.9384         9     0.848     0.607  68.94   0
        48    315.5750    865.3054 300.0260185 +22.7045929     30786.61     69.88474      1.266     2.25     -4.26993     19.73673     4440.168        68     1.185     1.139  59.19   0
        49    573.4006    864.3807 300.1065281 +22.7817424     1084.474     69.88474      1.417     2.59    -4.687299     19.73673     133.0507        17     1.125     0.930  42.60   0
        50    986.2665    863.2401 300.2355298 +22.9052976     438.3692     69.92041      1.190     3.00    -4.923857     19.73673     77.84631        10     0.882     0.761  79.77   0
        51    243.8606    863.2603 300.0043902 +22.6824666     276.7574     69.99168      1.211     2.27    -4.089479     19.73673     56.10033         6     0.697     0.574 -57.63   0
        52      1.7715    860.1738 299.9301882 +22.6088467     398.5224      56.7979      1.201     3.16    -4.823722     19.73673     82.21577         9     1.096     0.588  56.82  24
        53    602.1657    859.9277 300.1169318 +22.7890993     519.5712     69.95605      1.171     3.59    -4.672303     19.73673     66.69559         8     0.897     0.685  33.23   0
        54    718.3539    854.3474 300.1549282 +22.8223690     301.4295     69.99168      1.364     4.07    -4.740169     19.73673     35.39515         7     0.952     0.674  84.65   0
        55    756.4633    844.9821 300.1698473 +22.8311168     464.2559     69.93823      1.187     2.41    -4.761345     19.73673     73.64424         8     0.844     0.649 -11.80   0
        56    365.2703    842.5549 300.0488756 +22.7129936     18227.61     69.92041      1.288     2.36    -4.405183     19.73673     2144.592        49     1.165     1.105  47.13   0
        57    379.5635    843.1428 300.0531295 +22.7174543     1186.094     69.95605      1.334     2.19    -4.479702     19.73673     204.0854        18     1.104     0.944   3.18   0
        58    888.1497    838.0829 300.2131282 +22.8686443     1661.931     69.97387      1.206     2.04    -4.704941     19.73673     279.9368        18     1.061     0.846  42.11   0
        59    917.4319    836.7646 300.2226852 +22.8770494     298.9432     69.97387      0.899     2.94    -4.712302     19.73673     34.65157         5     0.732     0.436 -66.51   0
        60    376.5060    837.0717 300.0541543 +22.7147951     397.8482     70.06289      1.331     4.22    -4.440035     19.73673     45.14741         8     0.910     0.655 -33.79   0
        61    646.1020    834.3217 300.1389449 +22.7949393      435.742     70.06289      1.255     2.66    -4.565326     19.73673     64.00703        10     0.879     0.712 -85.09   0
        62    247.7755    834.4331 300.0149885 +22.6753781     589.6748     69.95605      1.495     2.74    -4.081902     19.73673     69.05248        11     0.891     0.807  62.44   0
        63     52.5200    830.1849 299.9557058 +22.6155029     319.2874     69.95605      1.220     2.40    -4.596707     19.73673     66.43674         6     0.805     0.494  45.56   0
        64    493.4310    829.0380 300.0931424 +22.7475971     577.3898     69.95605      1.178     2.97    -4.649147     19.73673      77.9979         7     0.889     0.488  83.52   0
        65     80.7955    823.5820 299.9666362 +22.6221062     297.2781     69.90258      1.332     4.14    -4.350563     19.73673     42.71871         7     1.007     0.485  -5.95   0
        66    245.3560    818.3095 300.0194831 +22.6700287     335.9954     69.95605      1.380     4.17    -4.076204     19.73673     42.92369         5     0.809     0.718 -34.92   0
        67    568.6635    809.1286 300.1230350 +22.7644686     322.8028     69.99168      1.356     3.01    -4.457587     19.73673     43.12878         6     0.732     0.627  31.26   0
        68    538.4056    806.8359 300.1143633 +22.7547286      412.656     69.99168      1.403     2.85    -4.587534     19.73673     53.62965         8     0.876     0.630 -77.13   0
        69    560.2781    804.6415 300.1218850 +22.7606643     816.6436     69.93823      1.325     2.59    -4.492053     19.73673     92.13056        13     0.885     0.848 -37.97   0
        70    954.5170    803.3687 300.2451157 +22.8785831     2662.747     69.95605      1.121     2.00     -4.69716     19.73673     381.4518        19     0.928     0.874  73.63   0
        71    642.5217    799.3796 300.1492009 +22.7838379     214.5923     69.95605      1.073     3.86    -4.375309     19.73673     29.85188         5     1.053     0.406 -15.83   0
        72    942.9185    794.7666 300.2442987 +22.8726344     943.4495     69.92041      1.155     2.07    -4.587087     19.73673     167.1711        12     0.844     0.735 -52.59   0
        73    306.1130    788.7890 300.0479760 +22.6798107     506.3598     69.90258      1.409     3.39    -4.038138     19.73673     70.60226         8     0.947     0.598  66.86   0
        74    769.4061    786.1597 300.1930218 +22.8181161     1535.251     69.99168      1.415     2.80    -4.656577     19.73673     171.6625        20     1.301     0.930   8.91   0
        75    974.0313    784.8967 300.2572115 +22.8791308     1055.152     69.90258      1.212     2.02    -4.546025     19.73673     174.3143        14     0.883     0.841 -32.11   0
        76    154.8513    773.1214 300.0060598 +22.6298893     277.5024     69.95605      1.224     4.25    -3.925534     19.73673     45.37144         6     0.882     0.584   2.37   0
        77    851.9892    771.6732 300.2234685 +22.8387307     236.6384     69.97387      1.109     3.71    -4.371556     19.73673     39.40533         5     0.811     0.489 -49.17   0
        78    887.7504    763.0383 300.2374242 +22.8469776     85611.02     69.97387      1.271     2.21    -4.191029     19.73673     12725.69        99     1.197     1.164 -87.31   0
        79    740.2478    763.3243 300.1913682 +22.8028131     458.0283     69.95605      1.355     4.43    -4.477198     19.73673     50.46012        10     1.222     0.616   2.46   0
        80    920.4528    755.8087 300.2499708 +22.8547094     287.9891     69.95605      1.027     2.58    -4.056592     19.73673     44.72361         5     0.709     0.484 -76.88   0
        81    574.0652    751.9822 300.1433100 +22.7496924     976.7148     69.93823      1.378     2.89    -4.022605     19.73673     110.6751        16     1.070     0.892  28.53   0
        82    755.2459    749.2554 300.2006176 +22.8032739     5371.964     69.99168      1.319     2.53    -4.385772     19.73673     601.7119        29     1.128     1.006 -84.47   0
        83    256.9824    744.7555 300.0470276 +22.6524297     2792.891     69.97387      1.374     2.68    -3.902389     19.73673     343.0196        23     1.101     0.982  73.03   0
        84    339.2194    742.8365 300.0732197 +22.6765728     556.7757     69.97387      1.210     2.66    -3.878446     19.73673     84.52299         9     0.844     0.742 -52.13   0
        85    214.3066    740.5737 300.0351235 +22.6384147     240.5491     69.90258      1.193     4.55    -3.870028     19.73673     44.14374         5     0.795     0.740  82.48   0
        86    547.1383    737.9583 300.1394908 +22.7375870      468.381     69.93823      1.338     3.88     -3.91905     19.73673     58.58968         7     0.901     0.527  42.37   0
        87    538.9348    730.2621 300.1394412 +22.7329165     1901.739     69.99168      1.456     2.70    -3.800433     19.73673     225.8921        21     1.109     0.996  78.43   0
        88    529.1557    723.8959 300.1384685 +22.7281548     729.6826     69.97387      1.400     3.47    -3.691529     19.73673     80.29034        14     1.150     0.845  68.64   0
        89    922.7527    721.3973 300.2618829 +22.8455167     135.0908     69.95605      1.040     3.46    -3.675788     19.73673     26.36016         5     0.761     0.453 -17.51   0
        90    192.2998    720.2673 300.0348894 +22.6259830     359.6219     70.04509      1.392     4.34    -3.775328     19.73673     49.76316         7     0.872     0.615 -33.63   0
        91    206.4730    718.9620 300.0397186 +22.6298651     275.6454     69.92041      1.085     3.14    -3.769077     19.73673     57.19887         9     0.923     0.750 -72.14   0
        92    975.8503    714.6479 300.2806340 +22.8595000     301.3052     69.99168      1.293     2.47    -3.714132     19.73673     47.50744         6     0.719     0.593 -81.36   0
        93    453.9375    713.8383 300.1183344 +22.7026930     982.0327     69.95605      1.358     2.85    -3.457377     19.73673     112.9185        16     1.025     0.920  41.00   0
        94    552.6228    714.1089 300.1489559 +22.7323891     292.9662     69.88474      1.249     4.32    -3.651888     19.73673     34.21268         7     0.924     0.574  -7.74   0
        95    107.9293    709.0042 300.0123385 +22.5974138     11401.06     69.90258      1.357     2.45    -3.599481     19.73673     1562.462        47     1.266     1.098  74.94   0
        96    538.7714    708.9600 300.1463195 +22.7267546      406.876     69.97387      1.268     3.48    -3.576509     19.73673     62.10798         9     0.902     0.779 -11.64   0
        97    956.4617    694.9666 300.2809904 +22.8480333     609.6661     69.97387      1.184     2.20    -3.451989     19.73673     95.25206         9     0.794     0.672  31.31   0
        98     53.9296    693.2499 300.0006893 +22.5766773     904.1086     69.95605      1.621     4.01    -3.578104     19.73673     92.21827        15     1.301     0.773 -79.35   0
        99    119.9290    693.8301 300.0210013 +22.5966674     295.5443     69.95605      1.591     3.18    -3.599652     19.73673     33.69003         5     0.779     0.507 -57.14   0
       100    823.3822    693.1974 300.2400829 +22.8076171     200.3617     69.86691      1.167     4.16    -3.917678     19.73673     36.47265         6     0.760     0.650  -9.28   0
       101    896.8766    687.7444 300.2647630 +22.8280920     442.0471     69.99168      1.254     3.42    -3.591769     19.73673     57.09893         8     0.984     0.634 -34.22   0
       102    546.0234    683.3280 300.1569135 +22.7215752     2328.949     69.99168      1.692     5.06    -3.304671     19.73673     758.6274        12     1.711     0.423  30.60   0
       103    459.0018    681.8964 300.1302990 +22.6950482     337.2951     69.86691      1.352     3.80    -3.280021     19.73673     44.64931        10     1.053     0.674  65.74   0
       104    606.3792    680.4832 300.1766268 +22.7388694     321.0053     69.92041      1.518     4.65    -3.278417     19.73673     38.84263         7     0.948     0.647 -72.69   0
       105    654.3489    679.7786 300.1917919 +22.7530596     330.2611     69.95605      1.972     4.58    -3.289577     19.73673     32.85951         6     1.164     0.512 -42.60   0
       106    503.0376    677.4725 300.1454398 +22.7069949     462.9626     69.92041      1.453     4.02    -3.222606     19.73673     59.37136        10     0.923     0.838 -20.65   0
       107    936.6565    673.1069 300.2819253 +22.8358160      1831.32     70.00949      1.298     2.58    -3.225584     19.73673     231.2139        17     0.945     0.919 -21.04   0
       108    468.6236    673.1935 300.1361230 +22.6954388     1060.649     69.93823      1.662     3.23    -3.214146     19.73673     103.9716        16     1.121     0.885  82.92   0
       109     30.7342    667.2242 300.0019492 +22.5622489     2598.015     69.93823      1.289     2.24    -3.589645     19.73673     413.1283        21     1.086     0.915  73.41   0
       110    976.1638    662.3732 300.2977349 +22.8445780     140.1542     69.97387      1.094     3.45    -3.188848     19.73673     25.24742         5     0.766     0.448  17.00   0
       111    332.0995    660.1400 300.0979023 +22.6507143       5351.4     70.04509      1.458     2.82    -3.553684     19.73673     561.6301        33     1.205     1.117  75.18   0
       112    454.4664    657.1262 300.1369434 +22.6865794     5040.649     70.00949      1.509     2.87    -3.198123     19.73673     571.9536        32     1.240     1.109  61.99   0
       113    866.0137    650.8716 300.2671352 +22.8082470     1055.913     69.95605      1.401     3.06     -3.61286     19.73673     107.9793        17     1.037     0.967  55.25   0
       114    950.5200    648.0620 300.2943930 +22.8327785     7183.755     70.04509      1.306     2.42    -3.192583     19.73673     878.5448        35     1.135     1.018  67.49   0
       115    515.0090    646.6997 300.1591727 +22.7017563     6564.885     69.86691      1.489     3.06    -3.082488     19.73673     650.1283        37     1.254     1.163  55.36   0
       116    242.4097    642.2089 300.0758487 +22.6186442      770.168     69.84906      1.388     3.43    -3.504889     19.73673     84.23128        14     1.107     0.873  55.45   0
       117    789.4904    634.4900 300.2486151 +22.7805939     514.6705     70.11624      1.509     5.00    -3.431438     19.73673     61.10612        12     1.157     0.916 -76.32   0
       118    446.7018    634.9557 300.1417370 +22.6778873     2582.281     69.95605      1.553     3.11    -3.158065     19.73673     264.1135        25     1.173     1.125 -68.94   0
       119    424.8187    633.3331 300.1354568 +22.6708541     706.4697     69.93823      1.618     3.89    -3.213623     19.73673     61.72424        14     1.090     0.909  36.05   0
       120    179.4943    632.5283 300.0594427 +22.5969770      426.434     70.06289      1.517     3.79     -3.52794     19.73673     48.13286        10     0.961     0.800 -48.94   0
       121    866.1589    630.0673 300.2739458 +22.8023152     977.8469     69.93823      1.548     3.25    -3.457184     19.73673     92.52686        13     0.958     0.898  64.98   0
       122    563.2604    622.3759 300.1820998 +22.7092533     117408.3     69.93823      1.576     3.13    -2.940936     19.73673     11204.72       144     1.454     1.433  83.34   0
       123    746.6025    626.9509 300.2377048 +22.7655662     411.7642     69.95605      1.387     5.05    -3.283368     19.73673      54.4862        11     1.125     0.822  29.66   0
       124    249.5252    622.5179 300.0844630 +22.6151325     2001.787     70.06289      1.476     2.82    -3.493822     19.73673     227.9183        23     1.185     1.013  86.86   0
       125    815.4417    618.1659 300.2620097 +22.7836885     365.7667     70.00949      1.605     4.12    -3.321072     19.73673     29.31741         5     0.821     0.691 -28.27   0
       126    453.8896    603.0592 300.1543441 +22.6708910      1543.66     70.04509      1.689     5.43     -3.05713     19.73673     120.0628        24     1.571     1.060 -85.55   0
       127    298.4620    605.1456 300.1053246 +22.6248401     267.1408     70.00949      1.413     3.45      -3.5732     19.73673      33.4237         5     0.797     0.431  68.06   0
       128    850.6609    588.4555 300.2826456 +22.7857160     923.0303      70.0273      1.464     3.25     -3.25538     19.73673      117.611        15     1.059     0.923  84.98   0
       129    722.0515    586.4679 300.2432196 +22.7465778     1347.737     69.93823      1.441     3.13    -2.979708     19.73673     126.1229        19     1.128     0.986  59.28   0
       130    965.3368    580.3937 300.3210163 +22.8177800     616.9271     69.92041      2.202     7.18    -3.037326     19.73673     47.84298        14     2.026     0.713  74.11   0
       131    931.8056    582.8583 300.3097600 +22.8084363     232.4918     69.92041      1.259     3.90    -3.127929     19.73673     28.81139         6     0.760     0.573  46.14   0
       132    509.3270    582.6454 300.1782309 +22.6816671     399.5056     69.93823      1.739     3.65    -2.864166     19.73673     43.79831         7     0.885     0.625 -73.44   0
       133    979.1362    580.2538 300.3253649 +22.8218763     661.9013     69.99168      1.258     3.01    -3.002153     19.73673     85.91401        11     0.917     0.790 -18.03   0
       134    851.0782    579.1691 300.2857948 +22.7831736     1152.511     69.93823      1.485     3.00    -3.241877     19.73673     110.8624        15     0.958     0.925  50.89   2
       135    604.3730    577.1512 300.2096018 +22.7086050      372.916     69.97387      1.673     3.87    -2.759948     19.73673     35.58367         5     0.889     0.483  88.45   0
       136    889.1232    573.7822 300.2994045 +22.7930328     2323.254     69.95605      1.410     3.04    -3.207825     19.73673     242.9204        20     1.092     0.971  68.51   0
       137    121.1793    564.6502 300.0633902 +22.5599999     633.9215     69.95605      1.508     3.01     -3.59236     19.73673     79.67233        12     0.995     0.824 -26.33   0
       138    980.7111    564.1032 300.3311067 +22.8177078     393.1118     70.13402      1.208     3.48    -2.951003     19.73673     62.41055         9     0.922     0.693  15.32   0
       139    721.9125    548.2614 300.2555967 +22.7355642     286.7379     70.04509      1.600     5.25    -2.979708     19.73673     34.71236         6     1.373     0.567 -33.25   0
       140    662.9382    544.0414 300.2386006 +22.7166654     413.4298     69.93823      1.621     4.89    -2.876201     19.73673     40.74823         8     1.008     0.671  62.85   0
       141    977.0231    536.7229 300.3388573 +22.8087348     296.9529     69.93823      1.426     4.93    -2.865324     19.73673      40.4946         8     0.936     0.735  68.52   0
       142    880.5689    532.6345 300.3101141 +22.7786472     551.6942     69.97387      1.267     2.71    -3.123743     19.73673      80.1554        12     0.884     0.872 -58.37   0
       143    864.6014    529.1035 300.3062848 +22.7728458     257.3988     69.86691      1.186     3.95    -3.139923     19.73673     51.78077         9     1.007     0.751  24.14   0
       144    609.3120    527.3642 300.2273232 +22.6957921     1946.604     69.93823      1.700     3.39    -2.619683     19.73673     160.6393        25     1.191     1.127  48.50   0
       145    723.3617    536.8546 300.2597559 +22.7327229     453.8207     69.95605      1.514     4.08    -2.983067     19.73673     51.99525        10     1.036     0.720  52.51   0
       146   1020.3599    506.0186 300.3623529 +22.8128994     765.4523     68.49754      1.280     2.64    -2.500433     19.73673     108.4482        14     0.984     0.804  73.91  16
       147    891.9940    505.9563 300.3223467 +22.7744072     387.5183     69.97387      1.515     4.55    -2.973338     19.73673     39.32878         7     1.106     0.531  37.60   0
       148    978.7700    504.4913 300.3498785 +22.7999961     528.7928     69.92041      1.336     3.08    -2.683012     19.73673     77.14811        12     0.979     0.804 -72.74   0
       149    720.0576    501.3252 300.2702745 +22.7215279     637.9627     70.00949      1.509     3.16     -2.99154     19.73673     61.90476        12     0.918     0.880 -85.80   0
       150    224.4726    500.0420 300.1164863 +22.5724768     361.4002     69.93823      1.451     4.07    -3.033232     19.73673     39.83115         6     0.964     0.499 -89.27   0
       151    286.3304    495.4179 300.1372183 +22.5897162     2122.132     69.97387      1.556     2.99    -3.088498     19.73673     239.0191        23     1.152     1.078  69.88   0
       152   1019.0168    493.2814 300.3660737 +22.8088361     2467.455     69.95605      1.314     2.41    -2.409484     19.73673     313.3959        24     1.061     0.983  71.30  16
       153    233.4668    490.2078 300.1224777 +22.5723549     4499.231     69.95605      1.558     2.96    -2.980675     19.73673     469.9068        33     1.241     1.161 -82.62   0
       154    998.9894    484.4557 300.3626957 +22.8002978     1059.524     69.95605      1.407     2.88    -2.459793     19.73673     118.7759        19     1.092     0.991 -16.42   0
       155    374.2466    484.3589 300.1681509 +22.6129255     2673.342     70.00949      1.582     3.21     -2.92997     19.73673     288.9543        25     1.198     1.123  85.22   0
       156    618.3403    480.8710 300.2452442 +22.6851496     10484.99     69.99168      1.613     3.35    -2.639914     19.73673     964.9136        40     1.293     1.253 -81.47   0
       157    635.5916    481.3098 300.2504732 +22.6904494     503.3792     69.86691      2.120     4.47    -2.757115     19.73673     44.81458         8     1.304     0.469 -83.08   0
       158    951.7339    463.3899 300.3548052 +22.7800816     487.6328     69.92041      1.500     3.10    -2.612902     19.73673     49.20258        10     0.972     0.746 -30.89   0
       159    173.0662    461.2444 300.1131167 +22.5459153     1282.572     69.93823      1.604     3.39    -3.225614     19.73673     125.3788        20     1.132     1.083 -41.63   0
       160    558.9042    450.3580 300.2366556 +22.6585613     3722.473     69.97387      1.631     3.43    -2.511626     19.73673     321.9782        31     1.260     1.214  46.84   0
       161    972.5530    450.3904 300.3655213 +22.7825848     629.7477     69.97387      1.435     3.21    -2.424316     19.73673     75.39268        12     0.960     0.887  -6.99   0
       162    273.9552    450.2283 300.1480544 +22.5730347      332.686     69.99168      1.493     5.15     -2.81227     19.73673      35.9156         8     0.948     0.792  89.27   0
       163    132.1031    442.8047 300.1063793 +22.5283291     239.3758     69.86691      1.289     4.78    -3.300332     19.73673     41.45695         6     1.081     0.599 -81.22   0
       164    763.3414    439.3672 300.3038921 +22.7167083      671.662     69.97387      1.895     3.17    -2.769722     19.73673     64.60552         9     0.962     0.690  23.50   0
       165    465.6328    436.6725 300.2120745 +22.6266547     3554.975     69.95605      1.679     3.44    -2.523913     19.73673     346.1689        31     1.300     1.205  82.73   0
       166    857.2389    430.7029 300.3359676 +22.7423665     651.9614     69.93823      1.491     4.10    -2.601785     19.73673     73.56075        15     1.199     0.838  88.30   0
       167    954.8458    431.0168 300.3662946 +22.7717102     277.9195     69.97387      1.256     3.14    -2.405043     19.73673     41.78632         7     0.738     0.670  70.71   0
       168    533.0041    423.1791 300.2374242 +22.6429887     280.3577     69.92041      1.857     3.75    -2.481695     19.73673     26.94183         5     0.808     0.501 -58.11   0
       169    353.2178    415.9417 300.1838398 +22.5869783     1427.507     69.90258      1.621     3.13    -2.589688     19.73673     152.7902        21     1.210     1.061  44.75   0
       170     71.4190    413.1976 300.0971455 +22.5016189     742.2886     69.88474      1.603     3.78    -3.384269     19.73673     77.28106        14     1.076     0.941  36.21   0
       171    322.5421    405.4108 300.1777212 +22.5747517     17330.58     69.92041      1.675     3.21    -2.585802     19.73673      1776.26        57     1.406     1.314  79.12   0
       172    857.1772    402.8620 300.3449935 +22.7343477     726.4534     69.93823      1.487     3.55    -2.518209     19.73673      67.6893        16     1.115     0.966  24.82   0
       173    303.1916    399.9775 300.1734691 +22.5673861     1671.406     69.95605      0.568    -2.24    -2.587722     19.73673     1039.755         6     0.547     0.357 -66.34   0
       174     19.0092    393.5865 300.0872380 +22.4802596     2873.545     69.86691      1.455     2.64    -3.424623     19.73673     324.8608        30     1.217     1.089  87.84   0
       175    732.6592    384.9941 300.3119979 +22.6918891      1233.55     69.92041      1.708     3.86    -2.566171     19.73673     114.5821        19     1.199     1.041  27.19   0
       176    947.6929    377.2816 300.3815214 +22.7541220      349.325     70.09846      1.543     3.77    -2.352515     19.73673     37.96065         8     0.995     0.736  21.81   0
       177    394.6047    369.7581 300.2117141 +22.5861368     1250.444     69.97387      1.788     4.21    -2.527111     19.73673     84.71751        21     1.290     1.083  43.55   0
       178    833.7038    361.7404 300.3510355 +22.7154952     459.2051      70.0273      1.686     4.91    -2.560441     19.73673     35.91627         7     1.109     0.616  73.72   0
       179    716.0195    360.3695 300.3148131 +22.6798261     396.3095     69.95605      1.470     2.59     -2.49876     19.73673     37.65818         6     0.789     0.722   7.88   0
       180    470.7285    349.2102 300.2420708 +22.6030702      697.838     69.95605      1.696     4.76    -2.399735     19.73673     52.52399        15     1.113     0.969  -8.70   0
       181    715.1264    340.5076 300.3209858 +22.6738518     1297.196     70.09846      1.709     4.68    -2.479612     19.73673      95.9715        21     1.300     1.094 -89.55   0
       182    976.3978    334.9333 300.4042277 +22.7505491     1805.667     69.95605      1.454     3.06    -2.482679     19.73673     169.4719        19     1.162     0.965 -81.93   0
       183    424.1800    325.5921 300.2352581 +22.5823270     323.2768     69.92041      1.556     4.12    -2.445129     19.73673     34.47894         5     0.904     0.536  50.98   0
       184     98.6243    318.9725 300.1361983 +22.4827512     806.7601     69.93823      1.693     5.21    -2.820352     19.73673     61.92315        16     1.335     0.888 -87.28   0
       185    129.4734    319.2585 300.1456897 +22.4920914     316.0188     69.99168      1.350     4.29     -2.71037     19.73673     37.66228         7     0.961     0.546  31.60   0
       186    992.4392    315.4286 300.4155648 +22.7497475     351.7299     69.99168      1.376     3.56    -2.868234     19.73673      37.4537         7     0.842     0.680  76.76   0
       187    182.7560    311.5958 300.1647349 +22.5058817     246.4729     69.97387      1.446     4.02    -2.607069     19.73673     35.09932         6     0.932     0.497 -44.07   0
       188    786.5657    302.3437 300.3556362 +22.6842981     298.9932     69.97387      1.405     5.23    -2.506229     19.73673      38.5348         7     0.991     0.780 -45.60   0
       189    884.7923    291.0425 300.3899195 +22.7104851     1160.864     69.97387      1.516     3.50    -2.477493     19.73673     107.4333        20     1.152     1.071 -68.77   0
       190    303.6971    288.8531 300.2097149 +22.5356388     1166.111     70.02729      1.627     3.65    -2.590411     19.73673      103.877        22     1.263     1.095 -68.42   0
       191    381.6325    283.9909 300.2355310 +22.5576201     655.5958     69.95605      1.676     4.64    -2.496003     19.73673     57.78503        14     1.129     0.941  22.30   0
       192    783.2205    283.1428 300.3608287 +22.6777774     352.9287     69.95605      1.391     3.88    -2.474349     19.73673     33.53791         5     0.946     0.455  42.94   0
       193    198.3235    276.4652 300.1809794 +22.5004696     439.1147     70.04509      1.457     3.46    -2.629844     19.73673     51.51859         8     0.952     0.611 -62.25   0
       194    736.1359    272.6638 300.3495614 +22.6606545     964.9152     69.99168      1.576     4.22     -2.44573     19.73673     87.72528        19     1.323     0.977 -62.57   0
       195    800.8036    272.2272 300.3698519 +22.6799095     281.7759     69.92041      1.384     4.25    -2.476763     19.73673     39.44019         7     0.871     0.610  57.40   0
       196    220.1245    269.4101 300.1900459 +22.5049854     350.2729     69.93823      1.528     3.46    -2.651718     19.73673     44.33047         7     0.881     0.564 -31.79   0
       197   1007.6109    265.2852 300.4365792 +22.7398747     590.4846     69.90258      1.620     2.99    -3.555509     19.73673     65.70626         9     0.957     0.681 -17.92   0
       198    740.1682    263.2580 300.3538715 +22.6591600     443.9826     69.97387      1.918     5.36    -2.435075     19.73673     42.12936         9     1.643     0.493  72.25   0
       199    660.7296    263.5045 300.3290478 +22.6354208     600.5302     70.06289      1.505     4.15    -2.436185     19.73673     55.75596        15     1.097     1.039 -29.43   0
       200    856.1567    254.9503 300.3927122 +22.6915300     798.5833     69.99168      1.569     3.80    -2.478285     19.73673     68.40331        15     1.112     0.916 -53.99   0
       201    586.5848    255.2461 300.3086421 +22.6108215     544.2707     69.97387      1.663     5.70    -2.349069     19.73673     55.05154        11     1.218     0.991  -5.66   0
       202    868.1105    254.0523 300.3967298 +22.6948535     436.0793     69.97387      1.511     5.97    -2.485928     19.73673     40.06978        11     1.524     0.658 -73.71   0
       203    984.7193    243.7905 300.4364185 +22.7268369     693.2085     69.90258      1.519     4.82    -3.278998     19.73673     70.41652        13     1.116     0.986 -60.72   0
       204    219.4711    237.6973 300.2001377 +22.4956859     429.7432     70.08067      1.627     3.36    -2.650724     19.73673     42.65363         7     0.934     0.493  84.37   0
       205     80.9829    232.4949 300.1587931 +22.4526409     1205.314     69.88474      1.539     3.25    -2.529222     19.73673     111.8576        23     1.209     1.067 -88.91   0
       206     30.3461    229.8223 300.1439324 +22.4366783     313.6796     69.97387      1.656     2.28     -2.32575     19.73673     39.18601         5     0.723     0.433 -70.10   0
       207    903.9090    228.9961 300.4160238 +22.6983754     327.4583     69.86691      1.350     4.64    -2.618758     19.73673     44.98368         7     1.062     0.576 -56.29   0
       208    238.2962    225.7067 300.2098815 +22.4978909     3343.309     70.13402      1.696     3.30     -2.64429     19.73673     313.9784        34     1.353     1.230 -71.33   0
       209     22.6904    220.3210 300.1446387 +22.4316543     778.1124     70.09846      1.349     3.12    -2.323099     19.73673      89.6697        15     1.015     0.927 -86.20   0
       210    221.7687    216.7606 300.2076479 +22.4903646     425.4803     69.97387      1.669     4.33    -2.651414     19.73673     35.56667         7     0.890     0.600 -35.45   0
       211    882.1728    206.8134 300.4164486 +22.6854859     2062.156     69.95605      1.583     3.26    -2.546214     19.73673      192.646        27     1.246     1.140  86.92   0
       212    985.8099    205.4813 300.4491949 +22.7161473     1544.025     69.90258      1.423     2.75    -3.160875     19.73673     200.5301        20     1.092     0.988  69.52   0
       213    431.7587    203.0046 300.2774148 +22.5493944     379.5695     69.97387      1.596     3.85     -2.46949     19.73673     36.88474         6     0.909     0.469 -50.11   0
       214    122.1785    191.7229 300.1848247 +22.4532996     394.3553     69.95605      1.585     3.96    -2.522586     19.73673     38.70942         6     0.786     0.572 -47.91   0
       215    483.0366    189.8076 300.2976535 +22.5609783     1015.765     69.95605      1.726     4.02    -2.560759     19.73673     87.70062        18     1.247     1.038  22.90   0
       216    411.5825    190.4156 300.2752238 +22.5397285     413.4099     69.93823      1.695     3.71    -2.521682     19.73673     36.79663         6     0.945     0.418 -72.05   0
       217    544.8989    188.9870 300.3171733 +22.5792885     258.3559     69.86691      1.653     4.48    -2.488447     19.73673     28.48246         6     1.050     0.543 -12.88   0
       218    257.2894    169.5888 300.2339994 +22.4874757     3422.196     69.90258      1.675     3.26    -2.638929     19.73673     340.2094        29     1.309     1.159  84.00   0
       219    108.5573    169.0950 300.1879360 +22.4427177     374.5746     69.97387      1.292     2.77     -2.54775     19.73673     48.99381         8     0.795     0.680  11.52   0
       220    229.3824    164.2193 300.2270665 +22.4775635     300.2538     69.95605      1.727     4.91    -2.654643     19.73673     41.41086         6     1.150     0.594 -67.52   0
       221     18.8476    159.9315 300.1630436 +22.4131707     224.0738     69.93823      1.780     4.46    -2.623143     19.73673     31.02192         6     1.087     0.519 -13.46   0
       222    503.1414    154.8147 300.3152666 +22.5569527       3567.5     69.93823      1.732     3.57    -2.598127     19.73673     300.6355        34     1.364     1.235  80.58   0
       223    388.8606    154.2422 300.2798949 +22.5225253     432.3069     69.93823      1.547     4.27     -2.57332     19.73673     55.84231         7     1.060     0.672  63.49   0
       224    756.0729    144.6206 300.3973352 +22.6298265     367.7705     69.97387      1.395     3.42    -2.255546     19.73673     41.85695         5     0.832     0.406 -21.47   0
       225    196.7059    139.2957 300.2249973 +22.4606061     294.4829     70.11624      1.502     4.79    -2.338456     19.73673     32.70564         7     1.089     0.597  67.04   0
       226    631.4266    134.8249 300.3616893 +22.5896600     3609.363     69.92041      1.714     3.57    -2.302054     19.73673     305.4972        33     1.368     1.208  79.52   0
       227    406.6609    134.0576 300.2919819 +22.5220646     855.2249     70.02729      1.728     4.16    -2.368287     19.73673     76.62862        16     1.331     0.830 -82.68   0
       228    672.2075    132.4135 300.3751718 +22.6011880     446.6924     69.84906      1.578     5.04    -2.234908     19.73673     47.33823        12     1.273     0.936   0.62   0
       229    155.7534    126.5057 300.2164200 +22.4446499     317.2387     69.97387      1.251     5.55    -2.159868     19.73673     47.35123         9     1.221     0.747  55.14   0
       230    958.2495    125.3394 300.4666100 +22.6848447     275.2834     70.00949      1.186     3.18    -2.353626     19.73673     53.57145         8     0.923     0.614 -81.07   0
       231    727.2081    123.9582 300.3950474 +22.6152382     338.5578     69.97387      1.191     3.89    -2.224983     19.73673     35.86076         6     0.936     0.462 -50.62   0
       232    690.8669    118.9171 300.3853628 +22.6029000     514.5346     70.06289      1.906     4.40    -2.219701     19.73673      46.0747         7     1.102     0.499 -64.45   2
       233    675.6194    119.7318 300.3803494 +22.5985653     1611.666     69.93823      1.715     3.81    -2.220757     19.73673     137.4615        25     1.323     1.155 -75.53   0
       234    762.1440    111.2236 300.4100636 +22.6220443     814.0366     69.97387      1.593     4.04    -2.144187     19.73673      84.7225        16     1.123     1.028 -65.79   0
       235    700.0543    104.4962 300.3929036 +22.6015076     487.2822     70.02729      1.877     4.76    -2.203853     19.73673       41.654        10     0.959     0.893  81.84   0
       236    505.7055    103.6233 300.3326750 +22.5430129     618.2047     69.84906      1.913     5.03    -2.079819     19.73673     47.19657        14     1.238     1.194  53.79   0
       237     78.6128    104.5731 300.1995683 +22.4152126     347.5966     69.95605      1.320     3.40    -2.309662     19.73673     55.57427         8     1.072     0.542 -21.92   0
       238    409.7914    102.1904 300.3032953 +22.5138487     536.4846     69.84906      1.684     3.90    -2.053302     19.73673     49.38334         9     0.955     0.854 -70.91   0
       239    181.1792     92.2815 300.2354250 +22.4424498      2011.93     69.92041      1.556     3.28    -2.101412     19.73673     183.8728        25     1.244     1.113  69.96   0
       240    749.2512     92.4838 300.4121268 +22.6127941      355.604     69.97387      1.660     3.80    -2.115023     19.73673     36.14918         7     1.049     0.617 -69.39   0
       241    742.2892     84.6682 300.4124934 +22.6084614     544.4929     70.09846      1.553     3.99    -2.099202     19.73673     56.31124         9     0.983     0.797  -7.24   0
       242    297.1400     84.4838 300.2740028 +22.4749863     524.5464     70.06289      1.360     3.50    -2.092271     19.73673     54.78566        10     0.969     0.846  40.89   0
       243    780.2245     78.7880 300.4262207 +22.6181353     369.4982     69.95605      1.698     4.36    -1.879267     19.73673     30.01048         7     1.202     0.451 -31.26   0
       244    800.0361     75.6893 300.4333994 +22.6231790     1243.613     69.93823      1.613     3.78     -1.75679     19.73673     119.1537        21     1.289     1.018 -78.23   0
       245    183.6628     71.0731 300.2430767 +22.4371047     495.4341     69.99168      1.356     3.64    -2.098823     19.73673     59.40684        12     1.050     0.913  49.98   0
       246    974.9048     68.6067 300.4902111 +22.6735141      491.755     69.84906      1.707     5.47    -1.994896     19.73673     41.11441        11     1.312     0.707  84.27   0
       247    748.2833     68.0705 300.4197454 +22.6054852      548.362     70.08067      1.533     5.45    -1.957984     19.73673     48.08904        11     1.203     0.728  -6.78   0
       248    600.7105     53.5898 300.3784805 +22.5571071     450.6969     69.90258      1.464     3.34    -2.112356     19.73673     50.58484        10     0.859     0.835 -29.89   0
       249    210.6448     51.1007 300.2579414 +22.4394612     388.9909     69.97387      1.391     4.93    -2.099043     19.73673     39.60154         9     1.152     0.597 -77.15   0
       250    764.1982     47.6036 300.4313432 +22.6043679     439.9096     69.74191      1.721     5.90    -1.725257     19.73673     44.74881         9     1.058     0.927  30.18   0
       251    572.5611     46.2328 300.3721030 +22.5465572      1071.61     69.99168      1.671     3.62    -2.041232     19.73673     126.9789        19     1.160     1.103 -30.19   0
       252    295.5083     43.9535 300.2866425 +22.4628555     426.8329     69.95605      1.665     4.65    -2.083262     19.73673     39.84548         7     1.126     0.545 -61.94   0
       253     10.5326     42.5310 300.1985474 +22.3769785     470.0204     70.00949      1.743     4.61    -2.415434     19.73673     39.37521         7     0.927     0.651 -74.28   0
       254    529.9206     40.1778 300.3607935 +22.5320385     688.8586     69.92041      1.563     3.29    -1.845119     19.73673     94.27137        15     1.134     0.908 -13.07   0
       255    635.5601     36.7552 300.3947926 +22.5627104     774.8418      70.0273      1.586     3.49     -2.08831     19.73673     92.82031        14     1.101     0.907  81.83   0
       256    455.6628     30.7876 300.3407293 +22.5070842     1162.119     69.93823      1.641     3.64    -1.575634     19.73673     115.2053        21     1.200     1.135 -21.65   0
       257    102.9791     28.4063 300.2318442 +22.4006542     869.4435     69.93823      1.573     4.63    -2.106835     19.73673     90.50569        21     1.379     1.137  55.66   0
       258    297.8853     15.5450 300.2965954 +22.4554077     206.1442     70.02729      1.648     4.48    -2.072859     19.73673     29.36553         5     1.149     0.496  -2.29   0
