#   1 NUMBER                 Running object number                                     
#   2 X_IMAGE                Object position along x                                    [pixel]
#   3 Y_IMAGE                Object position along y                                    [pixel]
#   4 ALPHA_J2000            Right ascension of barycenter (J2000)                      [deg]
#   5 DELTA_J2000            Declination of barycenter (J2000)                          [deg]
#   6 FLUX_APER              Flux vector within fixed circular aperture(s)              [count]
#   7 FLUXERR_APER           RMS error vector for aperture flux(es)                     [count]
#   8 FLUX_RADIUS            Fraction-of-light radii                                    [pixel]
#   9 FWHM_IMAGE             FWHM assuming a gaussian core                              [pixel]
#  10 BACKGROUND             Background at centroid position                            [count]
#  11 THRESHOLD              Detection threshold above background                       [count]
#  12 FLUX_MAX               Peak flux above background                                 [count]
#  13 ISOAREA_IMAGE          Isophotal area above Analysis threshold                    [pixel**2]
#  14 A_IMAGE                Profile RMS along major axis                               [pixel]
#  15 B_IMAGE                Profile RMS along minor axis                               [pixel]
#  16 THETA_IMAGE            Position angle (CCW/x)                                     [deg]
#  17 FLAGS                  Extraction flags                                          
         1    645.7697     19.1729 300.4124865 +22.5514950     1578.254     70.03222      2.084     4.54    -1.357188     19.75822     119.3127        26     1.451     1.265  18.22   0
         2    579.8970      9.2638 300.3951886 +22.5289133     763.0689     70.13917      1.878     5.01     -1.45596     19.75822     58.26154        15     1.261     1.049  17.28   0
         3    369.5184      1.5574 300.3322189 +22.4636567     2525.257      55.7504      1.298     3.96    -2.047081     19.75822     359.6453        18     1.372     0.677  -2.23  24
         4    790.0620   1012.0058 300.1347740 +22.8797766      6474.72     70.01438      1.284     2.30    -5.568995     19.75822      922.572        29     1.031     1.022  89.51   0
         5    733.1331   1023.3671 300.1133391 +22.8659489     310.6845     56.21899      1.143     4.54    -5.464585     19.75822      45.9991         7     0.990     0.591 -18.40  24
         6    107.9576   1021.2928 299.9195481 +22.6775931     1035.703      65.6306      6.106     8.71    -1.422608     19.75822     44.25008        11     1.950     1.087 -33.84  27
         7     96.5079   1023.3561 299.9153197 +22.6747430     1010.426      56.2412      8.309    13.67    -1.352384     19.75822     45.64241        33     3.075     1.691  12.41  26
         8    101.8059   1004.1014 299.9232351 +22.6708214     426.9946     69.92511      1.335     3.57    -2.018194     19.75822     58.15578         7     0.958     0.662  66.25   0
         9    841.8846    999.7272 300.1549207 +22.8918062     362.0608     70.13917      1.302     2.39    -5.533655     19.75822     52.95542         6     0.737     0.562  64.71   0
        10    798.5060    994.0337 300.1432577 +22.8771563     725.9381     69.99654      1.260     3.48    -5.408187     19.75822     100.5533        15     1.106     0.919 -78.73   0
        11    651.3713    991.2524 300.0983341 +22.8321989     350.6301     70.05006      2.123     4.38    -5.299231     19.75822     29.02073         5     1.113     0.492  32.55   0
        12    836.7728    987.7023 300.1572436 +22.8868232     446.4494     69.99654      1.321     2.44    -5.378598     19.75822     62.54417         8     0.775     0.683 -61.26   0
        13    884.7591    978.9097 300.1750624 +22.8986989     395.3163     70.05006      1.404     3.44    -5.301617     19.75822     48.05729         8     1.023     0.520  38.81   0
        14    736.5446    977.9377 300.1291958 +22.8539453     371.7407     70.10354      1.224     2.18    -5.111059     19.75822     72.40193         8     0.782     0.670   1.32   0
        15    449.2487    974.5015 300.0408798 +22.7667134      2336.24     70.06789      1.380     2.55    -5.346973     19.75822     244.4498        22     1.087     0.999  43.12   0
        16    747.8439    974.9037 300.1337035 +22.8564663     384.3065     70.05006      1.148     3.15    -5.107894     19.75822     54.38175         8     0.847     0.637 -46.06   0
        17    111.0603    963.0951 299.9394607 +22.6618589     137.2108     70.12135      1.221     3.57     -3.45467     19.75822     46.54007         8     1.035     0.515  56.34   0
        18    174.5038    960.4357 299.9600372 +22.6801595     406.4353     70.03222      1.322     3.32    -3.630311     19.75822     55.12993         8     0.892     0.679  50.83   0
        19    151.5384    957.3635 299.9539018 +22.6723796     922.3133     70.05006      1.390     3.06    -3.664204     19.75822      107.097        15     1.104     0.801  33.87   0
        20   1022.9534    945.7764 300.2289390 +22.9306464     1041.792     58.35602      1.137     2.11     -5.07133     19.75822     214.8605        12     0.861     0.743  57.34  24
        21    977.1664    944.2627 300.2151528 +22.9164790     1240.725     70.03222      1.237     2.53    -5.067702     19.75822     151.7449        18     1.054     0.980 -49.99   0
        22    761.0613    938.2540 300.1497537 +22.8499213      398.328     70.08572      1.371     4.05    -4.796857     19.75822     44.98326         5     1.019     0.461 -69.01   0
        23    629.0771    932.5465 300.1105066 +22.8086742     2798.432     70.06789      1.486     2.84    -5.279445     19.75822     274.3518        27     1.169     1.071  25.25   0
        24    430.9588    929.8692 300.0497206 +22.7484292     457.2624     70.01438      1.916     5.32    -5.297751     19.75822      41.4108         8     0.985     0.929 -50.73   0
        25    179.4308    926.6062 299.9725808 +22.6719491     802.2232     70.03222      1.460     3.02     -4.67827     19.75822     87.28368        14     1.044     0.846  60.37   0
        26    649.7935    924.7147 300.1195065 +22.8126463      526.201     69.96083      1.772     3.70     -5.25205     19.75822     50.44684         7     1.045     0.612 -42.05   0
        27    804.9751    912.0419 300.1719690 +22.8555790     2337.301     70.08572      1.375     2.80    -4.677918     19.75822      278.924        24     1.129     0.995 -16.17   0
        28   1021.8423    912.0281 300.2395799 +22.9206277     675.1525     63.44326      1.380     2.21     -5.07007     19.75822      103.928        10     0.835     0.709  -2.92  16
        29    522.2777    904.9585 300.0862428 +22.7687055     420.5935     70.01438      1.479     3.61     -4.98757     19.75822     42.64635         6     1.143     0.599 -73.28   0
        30    168.3456    902.8296 299.9768754 +22.6618077     602.3538     70.03222      1.518     3.37    -4.659234     19.75822     80.74598        10     1.080     0.777  31.11   0
        31    583.6140    897.8282 300.1076546 +22.7850730     334.7992     70.05006      1.553     3.54    -4.917301     19.75822     39.36075         5     1.087     0.497 -28.73   0
        32    318.2702    895.0594 300.0260048 +22.7046131     30443.31     70.06789      1.490     2.77     -4.72637     19.75822     3425.929        70     1.330     1.272  49.76   0
        33    576.0035    893.9083 300.1065615 +22.7816647     1016.106     69.94298      1.653     3.28    -4.863062     19.75822     88.80475        16     1.120     0.892  45.50   0
        34    988.6599    892.8541 300.2354731 +22.9051733     399.9963     70.08572      1.251     2.79    -4.906211     19.75822     65.36645         9     0.935     0.590 -37.79   0
        35    246.4286    893.1384 300.0042960 +22.6824860      295.519     70.03222      1.642     3.22    -4.778942     19.75822      32.4018         5     0.736     0.457  70.69   0
        36      4.2037    890.0149 299.9300620 +22.6088201      488.159     67.22906      1.473     5.82    -4.696014     19.75822     58.95233        11     1.243     0.768 -45.80  16
        37    605.0805    889.9040 300.1169166 +22.7892439     457.5578     70.15697      1.441     4.07     -4.85414     19.75822     58.80983        11     1.070     0.729  10.01   0
        38    615.9548    887.8851 300.1209592 +22.7919288     467.9987     70.01438      1.640     4.66    -4.840538     19.75822     49.75128         6     1.109     0.557  17.99   0
        39    758.6705    874.4121 300.1697909 +22.8308914     526.6586     70.05006      1.691     5.01    -4.614898     19.75822     46.96962         9     0.970     0.733  -3.12   0
        40    367.9492    872.2580 300.0488742 +22.7129966     18156.29     70.08572      1.549     3.03    -4.608499     19.75822     1628.118        60     1.350     1.290  70.06   0
        41    382.3176    872.7064 300.0531969 +22.7174395     1278.128     70.19258      1.684     4.03    -4.599533     19.75822     110.3246        20     1.297     1.031 -33.02   0
        42    890.7667    867.8127 300.2131031 +22.8686261     1507.005     70.01438      1.330     2.72     -4.60292     19.75822     178.2979        19     1.014     0.956 -51.22   0
        43    379.4358    866.3600 300.0543660 +22.7147551      384.179     70.08572      1.608     3.34    -4.554984     19.75822     46.84874         6     0.914     0.417  70.73   0
        44    648.6981    863.7737 300.1390017 +22.7948408     520.0139     69.97869      1.494     4.90    -4.591656     19.75822     51.01499         9     1.148     0.591  16.14   0
        45    250.7003    864.5545 300.0149264 +22.6755785     502.7676     70.05006      1.696     2.75    -4.787716     19.75822     54.41324         5     0.760     0.452 -73.47   2
        46    496.1846    859.0443 300.0930667 +22.7477088     459.9454     70.05006      1.498     4.38    -4.515258     19.75822      47.6432        11     1.235     0.815  17.01   0
        47     54.9512    859.9160 299.9556159 +22.6154478     210.1396     70.01438      1.301     4.48    -4.668899     19.75822     36.43532         7     0.941     0.606 -13.78   0
        48    896.4850    855.2092 300.2189876 +22.8667247     334.0139     69.97868      1.275     4.42    -4.539392     19.75822     43.43352         6     0.948     0.586  23.29   0
        49    248.0729    848.8674 300.0192146 +22.6702941     271.8305     70.08572      1.336     4.25    -4.698612     19.75822     32.77848         7     0.923     0.814   4.81   0
        50    540.5558    837.2275 300.1139751 +22.7547720     331.5551     70.05006      1.588     5.47    -4.240929     19.75822     32.66711         8     1.096     0.768 -66.18   0
        51    957.0758    833.0197 300.2450991 +22.8785286      2548.37     70.03222      1.390     2.78    -4.441121     19.75822      276.851        25     1.096     1.034  47.01   0
        52    562.8994    834.2662 300.1218932 +22.7606290     805.9221     70.12135      1.499     3.59    -4.240531     19.75822     70.40781        16     1.071     0.978 -78.41   0
        53    945.7927    824.4062 300.2443842 +22.8726727     958.5101     69.88937      1.397     2.80    -4.338236     19.75822     99.94341        17     1.007     0.961  12.95   0
        54    309.0393    818.9652 300.0478977 +22.6800327     604.4996     70.08572      1.555     2.95    -4.485236     19.75822     67.55687        11     0.969     0.889  62.07   0
        55    771.9600    815.9827 300.1929465 +22.8181158      1436.02     70.05006      1.546     3.28     -4.40176     19.75822     121.2901        20     1.117     1.022  -2.53   0
        56    976.9418    814.5498 300.2573043 +22.8791846     1167.981     70.08572      1.640     3.37    -4.366032     19.75822     111.0216        19     1.226     0.926   6.56   0
        57    158.3723    802.8833 300.0063000 +22.6301767     354.6337     70.03222      1.223     3.38    -4.264058     19.75822     41.67067         5     0.750     0.442 -71.11   0
        58    890.3643    792.6904 300.2374245 +22.8469471     84558.55     70.01438      1.533     2.97    -4.170123     19.75822     7566.535       115     1.403     1.342  35.95   0
        59    743.0368    792.7195 300.1915054 +22.8027645     372.8808     69.99654      1.390     4.49    -4.299505     19.75822     44.93382         8     1.037     0.798  51.51   0
        60    922.6352    785.3263 300.2498807 +22.8545114     223.3757     69.99654      1.400     4.03     -3.99253     19.75822     36.50529         5     0.981     0.473 -84.18   0
        61    576.8657    781.9627 300.1432590 +22.7498203     983.7031     70.01438      1.877     4.16    -3.776035     19.75822     72.07793        19     1.226     1.052 -76.76   0
        62    757.9347    778.9558 300.2006246 +22.8032847     5439.134     70.01438      1.575     3.24    -4.200856     19.75822     424.2612        38     1.292     1.255  24.18   0
        63    259.6554    774.4550 300.0470259 +22.6524465     2721.775     70.06789      1.592     3.21    -4.275559     19.75822      275.324        26     1.295     1.068  64.65   0
        64    341.9674    772.4602 300.0732667 +22.6765889     610.1402     70.06789      1.520     3.80    -4.199904     19.75822     71.07886        13     1.148     0.928  71.92   0
        65    550.1992    768.4835 300.1393437 +22.7379519     421.7712     69.92511      1.951     4.99    -3.549194     19.75822     34.46589         8     1.041     0.676 -39.54   0
        66    541.5308    759.9218 300.1394309 +22.7328950     1825.488     70.13917      1.697     4.00    -3.434685     19.75822     150.0135        25     1.352     1.070  37.01   0
        67    531.8843    753.4504 300.1385338 +22.7281441     882.4433     70.01438      1.768     4.68    -3.347023     19.75822     71.14263        15     1.225     0.932 -11.96   0
        68    195.4708    749.6385 300.0351490 +22.6260602     310.0301     69.99654      1.111     4.07    -4.051683     19.75822     45.23679         6     1.067     0.444  55.60   0
        69    209.9741    748.9865 300.0398684 +22.6302286      354.596     70.03222      1.171     2.66      -4.0941     19.75822     52.81319         5     0.914     0.374 -64.53   0
        70    235.1559    745.3155 300.0488892 +22.6367380      242.917     69.99654      1.435     4.65    -4.124838     19.75822     36.25222         8     0.933     0.764 -88.70   0
        71    456.4794    743.6932 300.1182433 +22.7027154     964.6911     70.13917      1.640     3.44    -3.366768     19.75822     105.5626        18     1.195     0.981 -23.40   0
        72    110.5947    738.6784 300.0123418 +22.5974294     11254.73     69.94298      1.576     2.83    -3.753614     19.75822     1279.374        49     1.330     1.250  55.83   0
        73     31.4738    740.1962 299.9872731 +22.5740992     347.2455     69.96083      1.030     2.09     -3.74454     19.75822     50.33948         5     0.682     0.464  68.32   0
        74    541.5444    738.8393 300.1462932 +22.7268524     427.5124     70.03222      1.551     5.35    -3.171699     19.75822     44.18863        10     0.968     0.941  14.04   0
        75    959.2564    724.4859 300.2810917 +22.8480276     556.4213     70.13917      1.440     4.07    -3.776847     19.75822     63.17433        10     1.098     0.653  52.45   0
        76     56.9654    723.0144 300.0007781 +22.5768334     831.5225     70.03222      1.720     4.88    -3.656295     19.75822     68.91737        20     1.474     0.934 -87.10   0
        77    898.8718    717.4925 300.2645402 +22.8279144     529.7801     70.17478      1.983     5.39    -3.607572     19.75822     32.36021        10     1.168     0.703  20.67   0
        78    609.4371    710.0877 300.1767795 +22.7389766     356.0114     70.01438      1.556     6.00    -3.255271     19.75822     32.47371         8     1.128     0.899  89.34   0
        79    627.1735    709.0864 300.1826274 +22.7440106     229.8174     70.03222      1.445     3.90    -3.322285     19.75822     36.95507         5     1.024     0.515 -55.29   0
        80    506.0582    707.5150 300.1454377 +22.7072191     567.8016     70.13917      2.851     4.05     -3.11411     19.75822     48.39734         9     0.997     0.741 -89.44   0
        81    939.2133    702.7148 300.2819238 +22.8357680     1774.573     69.97869      1.592     3.20    -3.633047     19.75822     152.1544        25     1.204     1.126  75.84   0
        82    471.2550    703.1716 300.1360205 +22.6955291     908.6985     70.03222      1.735     4.40     -3.19282     19.75822     84.23531        21     1.286     1.147   1.70   0
        83     33.3103    696.9433 300.0019101 +22.5622583     2954.045     70.06789      1.578     2.90    -3.550414     19.75822     343.7785        29     1.310     1.096 -83.77   0
        84    978.4070    691.5983 300.2977606 +22.8443268     194.9093     69.85361      1.374     4.89    -3.696588     19.75822     25.51758         5     1.119     0.604 -35.40   0
        85    334.7141    689.8281 300.0978879 +22.6507211     5162.506     70.03222      1.737     3.57    -3.652403     19.75822     417.3166        38     1.391     1.272  62.81   0
        86    457.0683    686.8259 300.1369223 +22.6865837     5031.214     70.01438      1.755     3.59    -3.269998     19.75822     445.3729        39     1.371     1.342  66.71   0
        87    868.3723    680.3867 300.2671018 +22.8081176     1091.515     70.03222      1.707     4.14    -3.642581     19.75822     79.74062        20     1.217     1.082 -19.31   0
        88    953.1409    677.8105 300.2943663 +22.8327934     7069.987     69.97868      1.553     3.23     -3.61345     19.75822      573.557        39     1.246     1.220 -17.52   0
        89    517.6459    676.3433 300.1591814 +22.7017553     6555.237     70.06789      1.814     3.85    -3.055112     19.75822     449.2889        43     1.419     1.373  36.58   0
        90    245.6593    672.0150 300.0759929 +22.6188800     909.5394     69.99654      2.055     7.87     -3.66382     19.75822      74.5666        19     1.648     1.051 -26.90   0
        91    449.2658    664.5284 300.1417457 +22.6778471     2520.618     70.06789      1.766     4.05    -3.332835     19.75822      183.674        29     1.288     1.252  19.16   0
        92    792.0231    664.5172 300.2484691 +22.7806677      462.814     69.99654      1.614     4.66      -3.6176     19.75822     38.75729         8     0.860     0.716  89.87   0
        93    427.5889    662.8904 300.1355345 +22.6708721     742.0588     69.97868      1.723     5.23     -3.44634     19.75822     51.77736        18     1.335     1.009  47.31   0
        94    182.3393    662.2517 300.0594876 +22.5970704     460.6188     70.08572      1.735     4.31    -3.587215     19.75822     52.22992        12     1.121     0.947   6.57   0
        95    869.0935    659.6590 300.2740674 +22.8023836     826.2905     70.08572      1.874     5.40    -3.640517     19.75822     56.93584        18     1.328     1.041 -40.69   0
        96    749.4370    656.7446 300.2377284 +22.7656654     434.4773     70.03222      1.782     6.45    -3.603307     19.75822     37.47187        11     1.257     0.928  50.87   0
        97    565.8649    651.9924 300.1821080 +22.7092373     116256.6     70.01438      1.841     4.12    -2.956529     19.75822     8578.072       159     1.642     1.612   8.46   0
        98    252.0409    652.3306 300.0843771 +22.6151526     1972.409     70.01438      1.759     3.67    -3.626546     19.75822     176.4512        30     1.376     1.268 -37.23   0
        99    456.5962    632.3151 300.1545006 +22.6708073     1510.459     69.96083      1.820     4.19    -3.385577     19.75822     103.3329        28     1.427     1.234 -80.59   0
       100    853.4648    618.2994 300.2826448 +22.7858239     899.5542     70.12135      1.675     4.41     -3.62225     19.75822     66.38837        19     1.259     1.019  -4.75   0
       101    724.6789    615.9740 300.2432726 +22.7465389     1475.103     70.03222      1.798     4.71    -3.554849     19.75822     102.3896        24     1.367     1.195  49.02   0
       102    512.5444    612.5674 300.1783306 +22.6819295     379.0604     70.05006      1.626     4.79    -3.142897     19.75822     36.32654         7     1.120     0.581 -47.15   0
       103    981.8555    609.8052 300.3254341 +22.8218735     671.4813     70.01438      1.669     4.57    -3.571582     19.75822     53.86348        15     1.256     0.881  63.13   0
       104    853.5002    608.3296 300.2858973 +22.7829722      1409.78     70.15697      2.092     6.68    -3.616817     19.75822     90.88018        30     1.845     1.265  57.16   0
       105    967.1688    608.9268 300.3211398 +22.8172190     567.0102     70.03222      1.776     4.62    -3.586247     19.75822     41.25655         8     0.863     0.703  44.38   0
       106    891.6503    603.6473 300.2993111 +22.7930653     2555.302     70.06789      1.707     3.80    -3.615551     19.75822     167.1064        28     1.266     1.228   9.56   0
       107    606.4294    604.2054 300.2102734 +22.7076951     613.0186     70.03222      3.008     4.28    -2.884758     19.75822     35.68512         6     1.081     0.615  15.19   0
       108    124.2263    594.3454 300.0635073 +22.5601569     575.9812     70.05006      1.559     3.91     -3.55017     19.75822     63.68062        12     1.059     0.867 -53.86   0
       109    983.1807    593.7877 300.3310550 +22.8176707      395.142     69.99654      1.455     3.86    -3.603913     19.75822     43.87658         9     0.930     0.669  70.33   0
       110    665.5340    574.1205 300.2384576 +22.7167889     464.1559     70.13917      1.841     5.55    -3.346315     19.75822     30.36505         7     1.011     0.860  65.11   0
       111    979.6204    565.9578 300.3389919 +22.8086109      400.738     70.06789      1.538     5.74    -3.664573     19.75822      37.3954         8     1.086     0.855  46.45   0
       112    726.4828    566.0729 300.2600570 +22.7327567     452.7688     70.15697      1.703     6.38    -3.473382     19.75822     37.45639        10     1.216     0.939  -5.39   0
       113    883.3900    562.3255 300.3101695 +22.7787240     518.8772     70.03222      1.617     3.28     -3.52759     19.75822     58.75307        11     1.015     0.807  28.57   0
       114    611.8605    557.0688 300.2272871 +22.6957975     1420.342     70.06789      1.370     4.22    -2.997061     19.75822     133.5847        27     1.405     1.200 -10.86   0
       115   1022.8505    535.6511 300.3623258 +22.8128614     629.6212     58.84633      1.430     4.00    -3.789683     19.75822      65.9139        12     1.047     0.779  52.56  24
       116    981.3268    534.6411 300.3497036 +22.8001276     475.9691     70.01438      1.784     5.13    -3.697921     19.75822     46.93075         9     1.168     0.730 -16.23   0
       117    722.4432    531.1948 300.2701352 +22.7215333     476.2501     70.05006      1.863     4.38    -3.409506     19.75822     44.61393         7     1.068     0.703  32.34   0
       118    226.8219    529.7231 300.1163930 +22.5724277     330.1404     70.01438      1.758     4.54    -3.620613     19.75822     34.67873         6     0.983     0.595 -63.85   0
       119    288.8751    524.8453 300.1372687 +22.5896523     2022.476     70.01438      1.902     4.11    -3.555028     19.75822     180.5345        30     1.502     1.238  55.54   0
       120   1021.6678    522.8643 300.3661129 +22.8088338       2637.7     64.24551      1.674     3.47    -3.826302     19.75822     196.2971        27     1.205     1.180  34.71  24
       121    236.0586    519.7930 300.1224911 +22.5723523     4284.203     70.01438      1.856     3.86    -3.612912     19.75822     374.4156        40     1.545     1.319  77.81   0
       122    376.8569    514.0581 300.1681343 +22.6129591     2698.244     70.10354      1.894     4.28    -3.499507     19.75822     219.8911        30     1.345     1.320 -49.09   0
       123   1001.3911    513.9553 300.3626842 +22.8001985     1021.244     70.05006      1.692     4.00    -3.760365     19.75822     96.20587        19     1.246     1.010 -73.08   0
       124    620.8746    510.4837 300.2452342 +22.6851310     10405.58     70.12135      1.949     4.36    -3.038429     19.75822     722.2442        58     1.551     1.520  42.04   0
       125    638.4460    510.7727 300.2506116 +22.6904834     489.2341     70.06789      2.057     2.68    -3.095867     19.75822     35.13654         5     0.707     0.466 -71.14   0
       126    954.4639    493.4813 300.3547036 +22.7802548     394.5742     70.13917      1.612     5.73    -3.468481     19.75822     38.85403         9     1.429     0.648 -33.27   0
       127    175.7358    491.0916 300.1130690 +22.5460167     1210.083     70.13917      1.755     4.70    -3.640689     19.75822     89.38333        26     1.366     1.237 -42.63   0
       128    561.5069    479.9084 300.2366870 +22.6585511     3690.917     70.19258      1.994     4.58    -2.954945     19.75822     248.3181        37     1.444     1.398  21.62   0
       129    974.6969    479.9802 300.3654003 +22.7824398     738.6343     69.94298      1.724     5.26    -3.577143     19.75822     57.25764        15     1.254     0.906 -47.81   0
       130    276.6636    479.8284 300.1481001 +22.5730764     350.4383     70.03222      1.842     5.35     -3.56471     19.75822     32.06244         5     1.043     0.775  14.68   0
       131    765.5815    469.1852 300.3037254 +22.7166636     709.4286     70.01438      2.187     6.16    -3.331738     19.75822     38.51895        12     1.108     0.964 -13.82   0
       132    468.1279    466.3280 300.2120378 +22.6266462     3254.961     70.08572      1.957     4.61    -3.036829     19.75822     224.1227        37     1.468     1.432 -77.10   0
       133    958.1794    460.1700 300.3666866 +22.7717994     383.1301     70.03222      1.707     4.76    -3.342728     19.75822     27.34238         6     1.398     0.460  68.74   0
       134    860.1114    460.2645 300.3360823 +22.7424370     737.3189     70.15697      1.672     5.08    -3.228776     19.75822     50.31034        19     1.236     1.084 -39.91   0
       135    355.9252    445.4684 300.1839102 +22.5870020       1362.4     70.10354      1.939     4.48    -3.260188     19.75822     100.0571        28     1.430     1.288  62.34   0
       136     74.5571    443.7905 300.0970009 +22.5020838     612.1783     70.05006      1.639     3.30    -3.603682     19.75822     67.20377        11     1.067     0.716 -77.92   0
       137    325.1126    435.0459 300.1777137 +22.5747676     16762.09     70.01438      1.993     4.35    -3.229267     19.75822     1183.655        66     1.607     1.529  62.04   0
       138    859.4591    432.2734 300.3449733 +22.7342021     732.6502     70.06789      1.788     4.08    -3.224599     19.75822     68.19558        14     1.139     0.958 -61.37   0
       139     21.5526    423.1938 300.0872287 +22.4802674     2838.511     70.03222      1.761     3.57    -3.272269     19.75822      239.579        31     1.368     1.230 -38.98   0
       140    424.4083    420.3557 300.2133704 +22.6003404     337.4484     70.05006      1.890     3.88    -2.882697     19.75822     30.86976         5     0.988     0.438  75.38   0
       141    735.2834    414.8419 300.3119418 +22.6919767     1098.794     69.99654      2.019     5.90    -3.066814     19.75822     64.11216        24     1.423     1.301  -8.34   0
       142    950.5980    407.3069 300.3814972 +22.7543413     399.6732     69.94298      1.709     4.53    -3.095614     19.75822     36.76062         5     0.802     0.727  38.15   0
       143    397.3109    399.6514 300.2116661 +22.5862711     1132.438     70.05006      2.079     5.31    -2.882838     19.75822     68.20343        22     1.304     1.237 -89.06   0
       144    837.0991    391.8912 300.3511225 +22.7159022     257.9767     70.19258      1.467     5.51    -3.169724     19.75822     32.48223         7     1.068     0.801 -69.27   0
       145    473.3779    378.8557 300.2420866 +22.6031179     721.0886     70.06789      1.858     4.40    -2.927946     19.75822     52.00299        15     1.166     1.030 -87.91   0
       146    717.7791    370.4704 300.3209017 +22.6739878     1265.689     70.03222      2.041     5.00    -3.051986     19.75822      82.1047        25     1.359     1.290  11.49   0
       147    978.9153    364.6106 300.4041965 +22.7505580     1803.626     69.99654      1.723     3.77    -2.993996     19.75822     125.9811        25     1.262     1.175 -12.90   0
       148    656.1993    358.2842 300.3056797 +22.6520292     4624.111     69.92511      1.569     5.29    -3.018785     19.75822     704.7712        18     1.811     0.436 -18.62   0
       149    101.0557    348.9654 300.1360308 +22.4828452     882.8248     70.05006      2.059     4.19    -3.279475     19.75822     58.82821        18     1.227     1.142 -70.30   0
       150    788.6981    331.5312 300.3556430 +22.6840596     370.9985     70.13917      1.768     5.53    -3.122379     19.75822     37.17737         7     1.383     0.624  80.44   0
       151    887.3061    320.6915 300.3898962 +22.7104931     1186.371     70.19258      1.961     5.55    -3.054754     19.75822     72.99773        21     1.332     1.162  47.85   0
       152    306.2841    318.6302 300.2096679 +22.5357178     1208.885     70.05006      1.938     4.76    -2.615574     19.75822     82.46577        22     1.358     1.163 -17.36   0
       153    384.3161    314.1115 300.2354033 +22.5578257     639.6014     70.15697      2.112     5.37    -2.679951     19.75822     37.34111         8     1.048     0.776 -34.05   0
       154    201.2515    305.4483 300.1812954 +22.5004271     553.0777     70.06789      2.039     5.18    -2.741207     19.75822     40.97733         9     1.202     1.006  38.36   0
       155    738.8848    302.1715 300.3496563 +22.6606981     954.5856     70.03222      1.988     6.59    -3.126373     19.75822     65.64458        20     1.431     1.191  69.73   0
       156   1009.6651    294.9746 300.4364009 +22.7397578     427.4302     70.01438      1.440     4.29    -3.152857     19.75822     43.60003         7     0.908     0.579  61.10   0
       157    663.3680    293.6074 300.3289146 +22.6356052     764.1514     70.03222      2.329     7.64    -2.901105     19.75822     47.96046        13     1.664     1.167  21.24   0
       158    743.0045    294.0719 300.3535696 +22.6596063     443.7248     69.97868      1.794     5.86    -3.136636     19.75822     44.14132         9     1.474     0.655 -10.77   0
       159    858.7229    284.7454 300.3926582 +22.6916015     761.8071     70.06789      1.920     4.98    -3.122004     19.75822     55.38129        17     1.241     1.070 -15.73   0
       160    589.8253    285.1248 300.3087685 +22.6111247     626.5092     70.05006      2.315     4.81    -2.958139     19.75822     53.91489         9     1.483     0.640 -45.88   0
       161    870.1687    283.9282 300.3964913 +22.6947959     572.0981     70.03222      2.133     6.25    -3.096063     19.75822      36.3483         8     1.222     0.899 -45.20   0
       162    986.9386    272.8167 300.4365071 +22.7265824     592.2699     69.97868      1.908     7.09    -2.949119     19.75822     45.00444        16     1.294     1.087 -53.41   0
       163     84.2444    262.6600 300.1588287 +22.4530464     1319.856     70.05006      2.062     5.72    -2.934816     19.75822     84.44346        19     1.423     1.109 -75.47   2
       164    906.9022    258.8975 300.4160691 +22.6986081     347.8214     70.22816      1.842     4.56    -2.782621     19.75822     32.20531         7     1.598     0.370 -54.91   0
       165    240.9563    255.4967 300.2098534 +22.4980061     3084.005     70.05006      1.947     4.13    -2.542771     19.75822     223.8454        39     1.507     1.417  -4.85   0
       166     25.3323    249.7239 300.1447289 +22.4316582     740.3165     70.12135      1.924     6.17    -2.831673     19.75822     53.23236        15     1.349     1.116  51.34   0
       167    884.6501    236.5461 300.4163880 +22.6855193      2053.63     70.06789      1.948     4.61    -2.669334     19.75822     124.6134        30     1.391     1.319 -75.80   0
       168    988.2003    235.1464 300.4491301 +22.7161333     1605.943     69.97868      1.746     3.91    -2.588208     19.75822     132.7744        24     1.266     1.179  36.13   0
       169    435.6097    232.1302 300.2779749 +22.5496752     377.9806     70.01438      2.102     3.45    -2.623892     19.75822     27.09011         5     0.790     0.434 -70.34   0
       170    486.2780    219.4363 300.2978613 +22.5612217     966.6619     69.99654      1.959     5.31    -2.583702     19.75822     60.16404        17     1.238     1.141  68.71   2
       171    259.8019    199.3101 300.2339487 +22.4875347     3309.233     69.94298      2.019     4.29     -2.53557     19.75822     224.0909        37     1.528     1.372  72.89   0
       172    111.5623    199.2764 300.1878877 +22.4430596     338.8836     69.99654      1.528     3.46    -2.660742     19.75822     32.59065         5     0.765     0.453 -70.80   0
       173    505.6614    184.6223 300.3151926 +22.5570358     3532.255     70.01438      2.020     4.56     -2.54623     19.75822     228.1857        39     1.541     1.454  -7.21   0
       174    391.7069    185.2332 300.2795373 +22.5230485     412.3423     69.97868      1.825     5.39    -2.581531     19.75822     34.75124         9     1.186     0.692  -2.19   0
       175    199.2904    168.6794 300.2250784 +22.4605955     252.8967     70.15697      1.564     4.08    -2.544496     19.75822     37.87883         5     1.037     0.512 -56.87   0
       176    634.0129    164.3698 300.3617226 +22.5896879     3463.909     70.03222      2.059     4.64    -2.356292     19.75822     225.8359        42     1.599     1.491  58.99   0
       177    409.0783    163.6874 300.2919331 +22.5220709     836.7839     70.17478      2.085     4.82    -2.578774     19.75822     60.01094        15     1.324     1.145 -71.08   0
       178    675.5818    162.1543 300.3753873 +22.6015078     461.7382     70.06789      1.844     6.66    -2.244506     19.75822     33.75803        11     1.506     0.827 -48.90   0
       179    678.2658    149.2191 300.3804207 +22.5985959     1635.538     69.99654      2.043     5.43    -2.184558     19.75822     90.48579        28     1.455     1.363  49.20   0
       180    693.2608    148.6797 300.3852662 +22.6029339     427.1981     70.08572      1.756     4.32    -2.194853     19.75822     29.71121         5     0.980     0.542 -44.44   2
       181    764.4590    140.8852 300.4099759 +22.6220252      802.323     70.13917      1.829     5.01    -2.194027     19.75822     73.04702        18     1.425     1.022  27.78   0
       182    702.1276    134.8407 300.3925186 +22.6016144     448.4491     70.01438      1.840     5.02    -2.141545     19.75822     34.21089         6     1.050     0.680   2.51   0
       183    508.6452    133.6369 300.3326656 +22.5432884     525.9442     70.06789      1.903     6.29     -2.31617     19.75822     46.90999        10     1.335     0.833 -89.15   0
       184    412.8859    132.2468 300.3033192 +22.5141851     376.0519     70.01438      1.809     4.53    -2.348968     19.75822     32.37022         5     0.929     0.628 -28.65   0
       185    183.6429    122.0916 300.2353307 +22.4425325     2190.178     70.03222      1.957     4.20    -2.397586     19.75822     157.5892        34     1.511     1.377 -13.08   0
       186    745.2526    114.6036 300.4125191 +22.6087194     579.2742     70.03222      2.185     2.71    -2.093198     19.75822     53.43109         7     0.814     0.642  74.61   0
       187    299.8466    114.1752 300.2740238 +22.4751066      710.861     70.05006      1.925     6.65    -2.130097     19.75822     53.91586        16     1.486     1.022 -36.63   0
       188    802.4091    105.2718 300.4333564 +22.6231589     1186.506     70.01438      1.895     5.11    -2.056829     19.75822     79.19783        22     1.390     1.141   5.82   0
       189    186.0153    100.5953 300.2430417 +22.4370745     613.9244     69.90724      2.129     5.64    -2.295606     19.75822     46.28401         9     1.216     0.785  74.47   0
       190    977.7728     98.8818 300.4900992 +22.6738388     418.1289     70.03222      1.823     3.21    -2.491383     19.75822     39.22135         6     0.900     0.576 -20.89   0
       191    750.7786     98.0714 300.4196044 +22.6056241     545.6993     70.03222      1.718     5.23    -2.027272     19.75822      46.9101         9     1.139     0.679   1.35   0
       192    603.4606     82.9908 300.3786124 +22.5571552     480.1785     69.97868      1.886     5.93    -1.926282     19.75822     50.78478         8     1.274     0.778   8.88   0
       193    767.3335     77.4479 300.4314529 +22.6046563     351.9659     70.03222      2.095     4.12    -2.023394     19.75822      32.6737         5     1.028     0.471  89.10   0
       194    575.0583     76.0563 300.3720189 +22.5466526      1014.91     70.10354      1.947     4.84    -1.922095     19.75822     68.31926        24     1.433     1.248  10.73   0
       195    298.9786     73.1415 300.2870648 +22.4630661     256.1372     70.03222      1.313     3.67    -1.988703     19.75822     33.45716         5     1.511     0.257 -67.34   0
       196     12.5227     72.5354 300.1982423 +22.3769856     403.7762     70.12135      1.666     5.38    -1.407069     19.75822     36.06855         8     1.036     0.788  22.96   0
       197    532.6618     69.5536 300.3609303 +22.5320801      725.746     70.05006      1.978     7.56    -1.975287     19.75822     42.55288        15     1.301     1.229  45.61   0
       198    638.1461     66.5002 300.3947623 +22.5628099     821.2629     70.12135      2.020     5.35    -1.750579     19.75822     50.31056        14     1.140     1.041  54.21   0
       199    458.3894     60.1663 300.3408601 +22.5071251     1168.939     70.01438      2.159     5.83    -2.034903     19.75822     81.18427        26     1.526     1.325  39.69   0
       200    105.7273     58.4744 300.2317550 +22.4009072     783.5089     70.08572      1.561     3.75    -2.290024     19.75822     75.93739        16     1.151     0.951  64.68   0
       201    166.5756     39.6045 300.2567826 +22.4137391     749.1851     69.99654      2.076     5.28    -2.342941     19.75822     59.49637        11     1.570     0.874  38.52   0
       202    742.7759     19.9335 300.4424564 +22.5807710     626.9275     70.01438      1.914     5.37    -2.023394     19.75822     49.04949         9     1.314     0.619 -37.63   0
       203    835.5510   1011.9362 300.1489709 +22.8934074     461.8712     70.06789      1.564     2.12    -5.673263     19.75822     48.30356         6     0.727     0.494 -83.76   0
       204    767.9593   1018.3108 300.1258346 +22.8749515     723.4791     70.03222      1.384     2.32     -5.54917     19.75822     107.8768        12     0.852     0.840  24.20  16
