#   1 NUMBER                 Running object number                                     
#   2 X_IMAGE                Object position along x                                    [pixel]
#   3 Y_IMAGE                Object position along y                                    [pixel]
#   4 ALPHA_J2000            Right ascension of barycenter (J2000)                      [deg]
#   5 DELTA_J2000            Declination of barycenter (J2000)                          [deg]
#   6 FLUX_APER              Flux vector within fixed circular aperture(s)              [count]
#   7 FLUXERR_APER           RMS error vector for aperture flux(es)                     [count]
#   8 FLUX_RADIUS            Fraction-of-light radii                                    [pixel]
#   9 FWHM_IMAGE             FWHM assuming a gaussian core                              [pixel]
#  10 BACKGROUND             Background at centroid position                            [count]
#  11 THRESHOLD              Detection threshold above background                       [count]
#  12 FLUX_MAX               Peak flux above background                                 [count]
#  13 ISOAREA_IMAGE          Isophotal area above Analysis threshold                    [pixel**2]
#  14 A_IMAGE                Profile RMS along major axis                               [pixel]
#  15 B_IMAGE                Profile RMS along minor axis                               [pixel]
#  16 THETA_IMAGE            Position angle (CCW/x)                                     [deg]
#  17 FLAGS                  Extraction flags                                          
         1    645.8458     18.0899 300.4124909 +22.5514285      1537.98      70.2083      2.006     5.13    -1.761518     19.81294     104.3798        30     1.495     1.352  63.42   0
         2    579.8281      7.8911 300.3952459 +22.5287159     770.3636      70.2083      1.897     5.32    -2.107103     19.81294     55.18995        21     1.409     1.247 -70.68  16
         3    369.4009      1.2654 300.3319228 +22.4637444     971.7301     54.26287      0.982     2.84    -2.100214     19.81294      210.351         8     0.926     0.490  -5.16  24
         4    768.0993   1017.3440 300.1257724 +22.8750257     670.8928     70.31557      1.347     2.68     -5.60163     19.81294     89.56921         9     0.890     0.675  69.47   0
         5    733.2618   1022.9845 300.1130848 +22.8661860     399.0167     58.34566      1.363     4.16    -5.638439     19.81294     49.28849        10     0.976     0.741  34.08  24
         6    109.3273   1022.6526 299.9191474 +22.6786712     899.8162     60.00149      9.058    13.89   -0.8878323     19.81294     41.48079        32     4.703     1.141  12.46  27
         7     88.4657   1022.5815 299.9126918 +22.6723803     972.2613     60.35635      3.934     8.81    -1.376613     19.81294     46.87922        19     2.291     0.946  14.43  27
         8     99.1539   1023.1361 299.9158304 +22.6757518     846.3021      57.5872      5.052     8.40   -0.8675013     19.81294     44.09447        17     1.848     1.067  24.64  27
         9     95.1494   1022.7341 299.9147177 +22.6744330      762.222     59.60239      3.938     6.52   -0.9774746     19.81294      45.2759        13     1.392     0.858  55.69  27
        10    924.9458   1014.9275 300.1754307 +22.9214053     212.9579     70.22619      1.057     3.66    -5.640239     19.81294     29.99228         5     0.628     0.613 -77.52   0
        11    835.6806   1011.1328 300.1488488 +22.8935282     328.2755     70.33344      1.371     4.39    -5.524556     19.81294     54.66757         8     1.146     0.620  83.55   0
        12    790.2041   1010.9823 300.1347300 +22.8798358     6668.643     70.17251      1.248     2.13    -5.530234     19.81294      1032.24        29     1.080     0.946  -6.38   0
        13    981.1719   1010.6206 300.1943610 +22.9370402     217.5381     70.22619      1.239     2.64    -5.496314     19.81294     43.92873         6     0.730     0.604  68.97   0
        14    101.8601   1003.3889 299.9231018 +22.6709088      494.868     70.19041      1.693     3.61    -1.600157     19.81294     68.55541         9     1.087     0.639  54.19   0
        15    798.6609    993.1311 300.1431785 +22.8772528     779.4757     70.26196      1.270     2.66     -5.29208     19.81294     116.9812        13     0.909     0.828  29.84   0
        16    650.8194    989.9299 300.0981801 +22.8319554     291.9707     70.24407      1.545     4.45    -5.158355     19.81294     35.01476         5     0.793     0.710 -69.22   0
        17    836.9998    986.4016 300.1573146 +22.8868285     513.9916     70.01122      1.210     2.45    -5.261553     19.81294     71.06544         9     0.843     0.654 -58.32   0
        18    884.9330    977.7296 300.1750753 +22.8987245     342.1632     70.26196      1.309     4.23    -5.224222     19.81294     51.31244         8     1.054     0.608  82.63   0
        19    736.2451    976.8140 300.1290513 +22.8538377     433.3592     70.24407      1.395     3.53    -5.091403     19.81294      53.6917        11     0.993     0.841  12.34   0
        20    449.2861    973.3864 300.0408539 +22.7666951     2385.938     70.17251      1.401     2.76    -5.264438     19.81294     263.3848        21     1.061     1.001  28.92   0
        21    747.9573    974.1382 300.1335704 +22.8565857     322.1216     70.22619      1.215     4.24     -5.05277     19.81294     45.85482         8     1.131     0.589   5.10   0
        22    174.4950    959.1827 299.9600581 +22.6800731     379.2635      70.1546      1.301     3.55    -3.165526     19.81294     61.76935         9     1.068     0.741  49.24   0
        23    151.7230    956.3570 299.9539039 +22.6724205     849.5923      70.2083      1.287     2.87     -3.18219     19.81294     126.8378        14     1.134     0.767  64.01   0
        24   1023.0679    944.7236 300.2288855 +22.9306948      1038.77     57.95684      1.114     2.26    -4.727809     19.81294     174.3994        11     0.789     0.750 -22.40  24
        25    977.4034    943.3116 300.2151071 +22.9165910     1172.812      70.1367      1.150     2.23    -4.721973     19.81294     160.6283        14     0.867     0.829   0.96   0
        26    683.2890    943.2792 300.1234808 +22.8283222      367.585     70.35129      1.821     5.90    -4.764504     19.81294     26.97372         8     1.582     0.619 -59.68   0
        27    183.6090    938.1066 299.9697516 +22.6767726     125.0091      70.1546      1.141     4.34    -3.824971     19.81294     31.28721         5     1.120     0.478  84.55   0
        28    761.0885    937.2380 300.1496762 +22.8499406     219.6472      70.2083      1.221     4.40    -4.575729     19.81294     34.41339         7     0.878     0.628 -25.25   0
        29    629.2393    931.2844 300.1105590 +22.8086565     2727.827      70.2083      1.390     2.62    -4.786582     19.81294     283.9532        26     1.127     1.080  66.06   0
        30    431.3581    928.4941 300.0498949 +22.7484404     359.6004     70.24407      1.432     3.64    -5.131842     19.81294     55.99635         7     1.029     0.518  46.55   0
        31    179.7066    925.5967 299.9726119 +22.6720154     635.8129      70.1367      1.270     2.44    -4.088209     19.81294     97.99749        11     0.854     0.778 -70.30   0
        32    649.8124    923.8840 300.1193730 +22.8127097     376.4793     70.17251      1.302     3.53     -4.71236     19.81294     47.03083         9     1.008     0.639  88.20   0
        33    805.1327    910.9473 300.1719563 +22.8556149     2345.838     70.24407      1.336     2.72    -4.444451     19.81294     271.9254        22     1.046     0.960 -26.00   0
        34   1022.0406    910.9347 300.2395672 +22.9206868     606.6005     62.78421      1.175     2.02    -4.367656     19.81294     122.7465         9     0.728     0.704 -18.11  16
        35    213.5551    905.6392 299.9896257 +22.6764661     303.0133     70.29771      1.424     4.31    -4.136915     19.81294     34.24864         7     0.957     0.554  32.49   0
        36    522.2811    903.8442 300.0862048 +22.7686750     385.8031      70.2083      1.410     4.43    -4.825889     19.81294     41.44928         8     1.007     0.616 -86.76   0
        37    168.9999    901.9472 299.9769844 +22.6620216     549.8334     70.17251      1.338     2.31    -4.301631     19.81294     80.56422         9     0.762     0.731 -79.00   0
        38    583.4042    896.8377 300.1075068 +22.7850164     251.8163     70.26196      1.264     2.80    -4.790533     19.81294     33.45566         5     0.726     0.449 -69.78   0
        39    318.3609    893.9410 300.0260073 +22.7045968     30879.17     70.22619      1.468     2.66    -4.280351     19.81294     3629.114        67     1.293     1.248  65.34   0
        40    576.0089    892.5570 300.1065987 +22.7815685     987.7404     70.24407      1.603     3.13    -4.791539     19.81294     83.84155        15     0.983     0.941   5.98   0
        41    988.8627    891.6997 300.2354844 +22.9052130     558.1484     70.31557      1.238     2.93    -4.226233     19.81294     78.43877         9     0.906     0.641 -63.00   0
        42    605.3341    888.5097 300.1170436 +22.7892110     430.0528     70.35129      1.295     2.95    -4.715108     19.81294     55.27651         8     0.800     0.736 -62.89   0
        43    616.1445    886.7846 300.1209701 +22.7919613     353.2081      70.2083      1.669     4.51     -4.67205     19.81294     31.75339         5     0.787     0.735  21.62   0
        44    935.7827    884.3203 300.2213390 +22.8871723     203.3283     70.22619      1.187     3.83    -4.276204     19.81294     26.06105         5     1.034     0.406  85.58   0
        45    721.2291    883.7502 300.1546762 +22.8226318     273.4974     70.24407      1.420     4.32    -4.474436     19.81294     34.76498         5     0.861     0.616 -49.69   0
        46    368.0995    871.1779 300.0488809 +22.7130097     18083.63     70.17251      1.517     2.90    -4.281331     19.81294     1738.155        59     1.316     1.270  82.13   0
        47    759.0370    873.3959 300.1698220 +22.8310070     442.0262     70.26196      1.547     3.93     -4.46575     19.81294      40.3761         8     0.997     0.597 -19.38   0
        48    382.4141    871.6682 300.0531725 +22.7174492     1159.807     70.24407      1.509     3.32    -4.388227     19.81294     108.9203        17     1.066     1.001 -30.14   0
        49    890.8828    866.5695 300.2131228 +22.8686074     1665.176     70.24407      1.379     2.60    -4.343139     19.81294     201.9105        22     1.145     0.975  73.27   0
        50    379.1136    865.5323 300.0541433 +22.7146988     381.4479     70.33344      1.351     2.72    -4.323947     19.81294     42.57472         6     0.763     0.499   1.96   0
        51    649.0746    862.9401 300.1389831 +22.7950056     412.4652     70.27983      1.443     5.39    -4.408398     19.81294      44.4842        10     1.103     0.742  -8.24   0
        52    250.5522    862.8755 300.0150423 +22.6753239     288.6094     70.22619      1.358     3.92    -4.077847     19.81294     52.57786         8     0.937     0.639  25.50   0
        53     55.5704    858.4628 299.9559078 +22.6154787     312.8522     70.24408      1.414     4.97    -4.079706     19.81294     37.19466         7     0.994     0.735 -51.28   0
        54    496.0343    857.7900 300.0930299 +22.7475869     546.4485     70.19041      1.600     5.00    -4.495569     19.81294     53.31724        13     1.094     0.900  33.48   0
        55    896.8505    854.1088 300.2190388 +22.8668210     287.7938     70.26196      1.278     2.33    -4.273075     19.81294     52.23235         6     0.742     0.535 -41.75   0
        56     83.8339    852.6850 299.9665650 +22.6223160     339.1092     70.19041      1.365     2.56    -4.194746     19.81294     51.08943         6     0.845     0.578 -70.48   0
        57    248.3590    847.2675 300.0194405 +22.6701913     313.8629      70.2083      1.495     3.33     -4.06418     19.81294     37.60063         5     0.724     0.466  78.18   0
        58    571.1998    837.5241 300.1230151 +22.7643394     224.6118     70.10087      1.471     3.35    -4.381922     19.81294     37.72415         5     1.187     0.274  54.26   0
        59    541.2271    835.7884 300.1142525 +22.7548441     382.4443     70.22619      1.617     3.72    -4.389037     19.81294      39.2906         5     0.928     0.429 -44.63   0
        60    562.9421    833.3536 300.1218025 +22.7606643     934.9484     70.27983      1.589     3.89     -4.33812     19.81294     80.39581        15     1.163     0.884  75.96   0
        61    957.2271    831.9702 300.2450645 +22.8785765     2631.056     70.22619      1.364     2.53    -4.047359     19.81294     328.7441        23     1.049     0.986 -40.57   0
        62    945.7977    823.3323 300.2443129 +22.8726684     950.3932      70.2083      1.355     2.62    -4.057231     19.81294     113.7993        15     0.968     0.890   7.76   0
        63    309.0827    817.8902 300.0478751 +22.6800080     486.7179     70.33344      1.496     3.90    -4.078079     19.81294      53.9743         9     0.849     0.716 -29.15   0
        64    772.1248    814.8149 300.1929657 +22.8181233     1471.388     70.22619      1.647     3.29    -4.225787     19.81294     124.9367        22     1.244     1.047   0.18   0
        65    976.8135    813.3667 300.2572256 +22.8791097     805.1315     70.22619      1.327     3.16    -3.993582     19.81294     101.2457        13     1.134     0.714 -88.49   0
        66    427.0599    804.8750 300.0887949 +22.7117026     647.0213     70.27983      0.499     0.96    -4.080665     19.81294     511.5414         5     0.407     0.358  78.07   0
        67    157.7569    801.7244 300.0061092 +22.6299212     213.1346      70.2083      1.312     2.61    -4.041799     19.81294     53.48427         6     0.993     0.420 -84.57   0
        68    854.6915    800.3788 300.2233877 +22.8387507     375.8545     70.17251      1.589     5.42    -4.177044     19.81294     38.96013         8     1.206     0.686  46.02   0
        69    890.4929    791.6018 300.2374009 +22.8469704     84485.42      70.1367      1.494     2.90    -4.133043     19.81294     7868.667       114     1.367     1.341  87.17   0
        70    742.9882    791.9570 300.1913289 +22.8028210     432.5961     70.22619      1.673     4.95    -4.179595     19.81294     40.68174         9     1.108     0.652 -17.16   0
        71    185.5562    785.8802 300.0199011 +22.6337304     1108.313      70.2083      0.665     0.72     -3.98709     19.81294     555.4736         5     0.498     0.399  -6.05   0
        72    923.2261    784.0859 300.2500491 +22.8546307       244.63      70.2083      1.395     3.67    -4.087938     19.81294     36.81417         5     0.790     0.652 -51.32   0
        73    576.8658    780.5659 300.1433140 +22.7497003     904.6038     70.22619      1.598     3.91    -3.841791     19.81294     80.54977        17     1.177     0.973  42.01   0
        74    757.9247    777.8349 300.2005765 +22.8032494     5328.199      70.2083      1.600     3.18    -4.202277     19.81294     431.0035        37     1.284     1.257 -29.93   0
        75    259.7278    773.3517 300.0470262 +22.6524163     2693.621      70.2083      1.538     3.07    -3.936884     19.81294      267.938        28     1.200     1.113  -4.69   0
        76    341.9414    771.5169 300.0731797 +22.6765789     504.3542     70.31557      1.486     3.71    -3.939965     19.81294      64.0264        13     1.038     0.892  64.69   0
        77    217.8215    769.6207 300.0352168 +22.6387607     242.0787     70.22619      1.394     4.31    -3.938636     19.81294     27.05864         5     0.979     0.542 -49.26   0
        78    541.6699    758.8010 300.1394423 +22.7328923      1909.54     70.17251      1.709     3.54    -3.743126     19.81294     142.3724        26     1.259     1.174  55.08   0
        79    531.9420    752.5862 300.1384371 +22.7281896     865.6506     70.19041      1.737     3.90    -3.712151     19.81294     76.30769        19     1.261     1.007  -6.94   0
        80    925.2979    750.0784 300.2617604 +22.8454878     374.1699     70.33344      1.332     3.15    -4.152907     19.81294     44.38802         7     0.840     0.602 -61.64   0
        81    195.3905    749.0070 300.0349531 +22.6261141     344.8564     70.08295      1.353     3.67    -3.875039     19.81294     50.30058         7     0.978     0.648 -76.71   0
        82    456.7198    742.5174 300.1183096 +22.7027219     1042.133     70.36915      1.713     4.06    -3.753388     19.81294     77.07561        19     1.158     1.112  36.06   0
        83    978.4059    742.8831 300.2806578 +22.8593481     397.5223      70.1546      1.552     4.45    -4.168154     19.81294     30.18537         7     0.922     0.609 -13.73   0
        84    541.4194    738.1389 300.1460865 +22.7268894     539.1435     70.17251      1.662     5.83    -3.602703     19.81294     60.56321        15     1.385     0.975 -65.86   0
        85    110.7786    737.5836 300.0123839 +22.5974248     11453.78      70.2083      1.570     2.89    -3.992073     19.81294      1231.59        45     1.291     1.235  55.78   0
        86    959.5058    723.4402 300.2810909 +22.8480971     588.8774     70.24408      1.466     4.03    -4.107037     19.81294     54.90451        13     1.074     0.843 -36.24   0
        87     56.8027    721.6728 300.0007965 +22.5766501     866.5851      70.1367      1.825     5.10    -4.284478     19.81294     64.07596        20     1.574     0.868  82.78   0
        88    899.5619    715.9964 300.2648270 +22.8279833     345.2466     70.26196      1.803     5.17    -4.033283     19.81294     33.92086         6     0.981     0.768  31.61   0
        89    461.5367    710.4545 300.1302381 +22.6949704     342.1083     70.26196      1.551     6.33    -3.655931     19.81294     38.86723         8     1.212     0.928 -67.38   0
        90    505.2411    706.2326 300.1452083 +22.7068771     479.3747     70.27983      1.903     5.73     -3.60487     19.81294     35.70856         8     1.412     0.655  70.51   0
        91    939.2954    701.7221 300.2818556 +22.8357998     1759.647     70.35129      1.536     3.16    -3.865583     19.81294     170.3449        21     1.113     1.026 -88.86   0
        92    471.4767    702.0137 300.1360760 +22.6955325     944.3646     70.24407      1.632     3.71    -3.628615     19.81294      88.6412        17     1.103     1.045 -42.25   0
        93     33.5044    695.7786 300.0019842 +22.5622296     2970.318      70.1367      1.552     2.71    -4.424992     19.81294     363.5498        26     1.175     1.099 -74.97   0
        94    334.8101    688.7163 300.0978975 +22.6506922     5379.514     70.19041      1.706     3.56    -3.928554     19.81294     456.7402        36     1.327     1.278 -67.37   0
        95    457.1690    685.7015 300.1369307 +22.6865583     5095.875      70.2083      1.715     3.54    -3.608385     19.81294     448.2872        36     1.315     1.302  59.69   0
        96    868.6695    679.1663 300.2671796 +22.8081433     1057.149     70.22619      1.586     4.60    -4.007922     19.81294     108.2935        20     1.247     1.059  76.62   0
        97    953.3261    676.6996 300.2943689 +22.8328209     7152.865     70.35129      1.550     3.16     -3.78288     19.81294     599.2766        36     1.244     1.182  39.81   0
        98    517.7731    675.2423 300.1591875 +22.7017467     6615.779     70.24407      1.781     3.87    -3.564543     19.81294     450.7609        43     1.405     1.366  84.78   0
        99    245.4464    670.9755 300.0758888 +22.6187732     756.2554     70.24407      1.640     4.63    -4.058764     19.81294     80.64704        15     1.393     1.046 -67.33   0
       100    792.2401    663.8660 300.2483418 +22.7808277     327.6654     70.19041      1.534     6.02    -4.051105     19.81294     32.77085         8     1.306     0.781 -55.17   0
       101    449.4521    663.4683 300.1417612 +22.6778637     2540.428     70.24408      1.819     3.79    -3.578286     19.81294     197.6423        30     1.336     1.260 -78.42   0
       102    427.9655    661.9911 300.1355581 +22.6709907     724.8918      70.2083      1.664     3.86     -3.58051     19.81294     63.36288        15     1.129     1.008 -84.22   0
       103    182.5556    661.4527 300.0594427 +22.5971575     375.4517     70.24408      1.512     5.94    -3.949466     19.81294     38.91544         9     1.311     0.757 -73.45   0
       104    868.9722    658.7109 300.2739270 +22.8023602       902.41      70.2083      1.746     4.10    -3.910925     19.81294     73.98077        18     1.209     1.053 -26.73   0
       105    566.0176    650.9343 300.1821063 +22.7092490     117381.9      70.2083      1.810     3.88    -3.456412     19.81294     9021.211       159     1.626     1.595 -20.09   0
       106    749.7621    655.9927 300.2376703 +22.7658262     324.8972     70.24407      1.709     5.12     -4.09484     19.81294     31.97225         8     1.365     0.542 -18.23   0
       107    252.2217    651.1021 300.0844574 +22.6151085     2056.577      70.1546      1.713     3.70    -3.867537     19.81294     182.6153        25     1.283     1.142  58.82   0
       108    301.7671    634.5379 300.1052440 +22.6252331     231.6859     70.22619      1.353     4.47    -3.691038     19.81294     25.06334         5     1.197     0.474  57.95   0
       109    456.6249    631.3301 300.1544436 +22.6707959     1478.156     70.22619      1.884     3.96    -3.571774     19.81294     114.2274        22     1.230     1.146  52.72   0
       110    853.4510    617.2039 300.2825885 +22.7857863     897.5831     70.22619      1.731     4.94    -3.713759     19.81294     59.38146        18     1.264     0.968 -64.32   0
       111    724.6245    614.9833 300.2431771 +22.7465127     1537.549     70.22619      1.844     4.16    -4.065012     19.81294     95.87166        26     1.294     1.259 -83.82   0
       112    512.9692    611.1463 300.1785363 +22.6819129     358.6033     70.24407      1.464     2.24    -3.570764     19.81294     54.71304         5     0.770     0.461 -58.64   0
       113    853.6838    607.4778 300.2858237 +22.7830630      1288.49     70.33344      1.836     4.51    -3.669451     19.81294     80.92578        23     1.366     1.123  79.91   0
       114    981.8362    608.7457 300.3253575 +22.8218502     684.2134     70.24407      1.472     4.09    -3.479748     19.81294     54.33331        14     1.071     0.920  -3.02   0
       115    967.3536    608.2201 300.3210129 +22.8173575     572.9473     70.27983      2.007     4.62    -3.453334     19.81294     52.13969        10     0.956     0.830  52.70   0
       116    607.7952    604.5748 300.2101849 +22.7084786     409.1723     70.19041      2.158     5.15     -3.18723     19.81294     27.18731         6     1.118     0.672 -85.97   0
       117    891.8971    602.3763 300.2993916 +22.7930561       2427.3      70.1546      1.651     3.50    -3.555614     19.81294     189.3392        25     1.174     1.160 -81.50   0
       118    124.3523    593.2046 300.0635517 +22.5601106     640.3885      70.2083      1.683     4.96    -3.818639     19.81294     63.49094        13     1.250     0.973 -80.56   0
       119    983.7294    592.8256 300.3311243 +22.8178444     412.9007     70.22619      1.542     5.94    -3.381945     19.81294     41.61317        11     1.117     0.890  26.36   0
       120    665.0481    572.9410 300.2382942 +22.7165727     386.6168     70.27983      1.933     6.44    -3.188794     19.81294     37.82903         8     1.289     0.904 -73.28   0
       121    726.1772    565.3808 300.2597881 +22.7327369      476.818     70.22619      1.795     6.05    -3.395236     19.81294     39.80425         9     1.221     0.843 -75.45   0
       122    979.5589    564.9143 300.3388989 +22.8085759     268.8354      70.2083      1.394     3.89    -3.224494     19.81294      36.8112         5     0.883     0.492  84.87   0
       123    883.3707    561.4553 300.3100389 +22.7787463     546.2908     70.22619      1.607     5.43    -3.686136     19.81294     49.89898        12     1.105     0.779  38.33   0
       124    611.9670    555.8411 300.2273275 +22.6957412     1547.847     70.27983      1.790     4.02    -2.993834     19.81294     142.8515        28     1.361     1.247  81.96   0
       125   1022.8721    534.6530 300.3622427 +22.8128639     567.1353      58.9241      1.383     3.65    -2.787395     19.81294     62.77067        14     1.108     0.842  81.32  24
       126    894.7236    535.1974 300.3221133 +22.7746076     332.3881      70.1367      1.547     3.76    -3.626646     19.81294     40.71419         5     0.732     0.719 -78.36   0
       127    981.3366    533.6038 300.3496319 +22.8001132     545.4099     70.19041      1.597     5.89    -3.091737     19.81294     43.34764        13     1.074     0.910 -48.27   0
       128    722.3990    529.6409 300.2702296 +22.7213414     652.9283     70.24407      1.789     5.97    -3.046569     19.81294     48.26878        14     1.272     0.968  43.28   0
       129    288.9872    523.9465 300.1372236 +22.5896735     2253.542     70.24407      1.931     4.06    -3.509896     19.81294     176.2411        33     1.490     1.299  86.72   0
       130   1021.7408    521.8296 300.3660584 +22.8088401     2536.944     64.11071      1.627     3.41    -2.798649     19.81294     192.5162        30     1.291     1.216 -85.41  24
       131    236.2313    518.8438 300.1224844 +22.5723742     4110.888     70.27983      1.806     3.63    -3.501105     19.81294     379.2009        34     1.363     1.319 -55.68   0
       132   1001.7021    513.1306 300.3626371 +22.8003348     1042.581     70.35129      1.630     3.59    -2.933233     19.81294     83.51982        20     1.243     0.978 -65.06   0
       133    376.9862    512.9429 300.1681604 +22.6129268     2650.773      70.2083      1.903     4.17    -3.206121     19.81294     176.5201        33     1.393     1.342 -22.24   0
       134    621.0264    509.4836 300.2452162 +22.6851502      10440.9      70.2083      1.937     4.31    -2.834847     19.81294      668.557        51     1.514     1.482  52.21   0
       135    954.4280    491.7186 300.3548568 +22.7800136      455.423     70.24407      1.776     5.45    -3.212059     19.81294     38.81355         8     1.005     0.833 -25.63   0
       136    175.9281    489.9798 300.1131259 +22.5459926     1207.214     70.26196      1.813     4.10    -3.463814     19.81294     91.99687        20     1.254     1.118  80.82   0
       137    975.0266    479.3625 300.3652948 +22.7826370        727.2     70.24407      1.871     5.05    -3.077038     19.81294     52.77743        14     1.167     0.994  52.72   0
       138    561.6708    478.8467 300.2366974 +22.6585508     3662.202      70.2083      1.948     4.46    -2.583266     19.81294     221.0445        34     1.418     1.396  41.27   0
       139    277.2486    478.6526 300.1482946 +22.5731557     373.5536     70.26196      1.510     4.05    -3.397865     19.81294     37.32185         6     0.726     0.657  67.27   0
       140    765.8149    467.7681 300.3038619 +22.7165911     754.9727     70.22619      1.997     7.52    -3.181084     19.81294     40.73419        17     1.399     1.148  79.26   0
       141    468.3503    465.2200 300.2120873 +22.6266445     3632.785      70.2083      1.996     4.18    -2.579795     19.81294     252.8712        39     1.529     1.385 -84.63   0
       142    860.3821    459.4332 300.3360350 +22.7425479     755.3141      70.2083      1.701     4.73     -3.47196     19.81294     62.06223        16     1.146     1.050  46.41   0
       143    957.7665    458.8755 300.3665713 +22.7715772     271.0914     70.22619      1.441     4.96    -3.208357     19.81294     34.77617         7     1.093     0.637  83.41   0
       144    355.8891    444.6316 300.1837984 +22.5869933     1373.811     70.19041      1.940     4.15    -2.922479     19.81294     109.0285        28     1.469     1.302   7.70   0
       145     74.2957    441.9301 300.0971678 +22.5016999      631.712     70.35129      1.889     6.92    -3.253279     19.81294     46.41502        15     1.468     0.914  72.24   0
       146    325.3011    434.0048 300.1777403 +22.5747653     16689.58     70.11878      1.973     4.29    -2.989314     19.81294     1203.284        62     1.563     1.516  69.86   0
       147    859.6345    431.0717 300.3450179 +22.7341757     795.9515     70.22619      1.928     5.07    -3.429113     19.81294     61.35461        18     1.400     1.021  13.75   0
       148     21.7880    421.9864 300.0873416 +22.4802156     2912.587      70.1546      1.740     3.26    -3.240202     19.81294     275.1946        32     1.351     1.221 -88.44   0
       149    735.3033    413.4438 300.3120095 +22.6918397     1124.302     70.24407      2.038     5.08    -2.996818     19.81294      73.2402        22     1.391     1.178  67.18   0
       150    950.4977    406.1634 300.3814329 +22.7542514     379.7159     70.22619      1.723     4.75    -3.274568     19.81294      33.4154         6     0.905     0.706  -6.90   0
       151    397.6399    398.4222 300.2117949 +22.5862576      1185.79     70.26196      1.955     4.88     -2.71478     19.81294     82.74173        23     1.476     1.124 -72.39   0
       152    836.4067    391.0078 300.3507962 +22.7157027     406.8273     70.08295      1.805     4.63    -3.246649     19.81294     32.75443         5     0.996     0.611 -26.46   0
       153    473.6248    377.5481 300.2422119 +22.6030592     546.7009     70.24408      1.893     6.24    -2.392281     19.81294     51.80507        14     1.240     1.100  69.36   0
       154    717.7623    369.3355 300.3208754 +22.6739109     1280.039      70.2083      1.991     5.43    -2.843369     19.81294     80.63335        23     1.329     1.233  69.70   0
       155    979.1537    363.5631 300.4042067 +22.7505951     1809.952     70.26196      1.719     3.97     -2.61069     19.81294      131.223        25     1.271     1.170 -24.42   0
       156    101.3500    348.1494 300.1360334 +22.4829212     654.3059     70.26196      1.582     3.81    -3.081517     19.81294     63.18858        12     1.259     0.703 -50.09   0
       157    132.4323    347.6264 300.1458584 +22.4921002     417.1776     70.22619      1.736     4.16    -3.076586     19.81294     34.09428         6     1.071     0.461  56.28   0
       158    790.2766    330.8415 300.3559666 +22.6845891      325.922     70.19041      1.601     5.15    -3.040109     19.81294     35.59626         6     1.197     0.626  19.67   0
       159    887.4797    319.6548 300.3898897 +22.7105057     1143.788     70.26196      1.808     4.32    -3.144895     19.81294     80.93759        23     1.304     1.177  -6.55   0
       160    306.7053    317.5406 300.2097885 +22.5357609     1134.484     70.29771      2.005     4.52     -2.62315     19.81294     100.7976        24     1.444     1.336 -54.28   0
       161    384.4252    312.7752 300.2355028 +22.5577078     492.8881     70.19041      1.806     5.31    -2.501834     19.81294      35.5715         9     1.086     0.732 -68.01   0
       162    738.8101    301.4591 300.3494764 +22.6607207     931.4235     70.19041      1.964     5.01    -2.584844     19.81294      67.8092        18     1.383     1.160 -51.19   0
       163   1010.1806    293.4951 300.4366390 +22.7397495     427.4599      70.1367      1.462     5.44    -2.212688     19.81294     48.01367        10     1.177     0.709 -15.77   0
       164    742.5040    293.2510 300.3532924 +22.6594696     431.6661     70.29771      1.968     4.85     -2.55188     19.81294     28.66972         5     1.061     0.629 -23.95   0
       165    663.5473    292.5131 300.3289423 +22.6355898      746.409     70.26196      1.909     5.41    -2.455105     19.81294     47.30574        14     1.118     0.940 -73.24   0
       166    589.7633    284.1531 300.3086858 +22.6110679     492.8874     70.26196      1.625     5.36    -2.496762     19.81294     47.48308        12     1.283     0.968  13.32   0
       167    858.9520    283.4036 300.3927712 +22.6915388     731.2758      70.2083      1.808     4.46     -2.98863     19.81294     65.27888        16     1.202     1.049 -31.09   0
       168    870.7131    282.4542 300.3967448 +22.6947901     420.5815     70.26196      1.799     3.82     -2.98604     19.81294     48.80815         8     1.029     0.817 -47.08   0
       169    987.3934    272.3927 300.4363858 +22.7268565     563.7738     70.08295      1.689     5.38     -2.44663     19.81294     47.09258        14     1.207     0.957 -48.65   0
       170    221.9762    266.0859 300.2001590 +22.4955721     460.0828     70.19041      1.988     4.49    -2.557881     19.81294     37.35344         6     1.186     0.484  34.64   0
       171     83.5916    261.1973 300.1587516 +22.4526446     1335.378     70.04709      1.982     4.46    -2.832058     19.81294      91.4958        25     1.434     1.210  -5.14   0
       172    906.9583    257.1536 300.4162571 +22.6983782     264.7895     70.27983      1.497     4.63    -2.842443     19.81294     30.79965         7     0.904     0.673  54.87   0
       173    241.0651    254.2857 300.2099227 +22.4979122     3175.187     70.31557      1.949     3.95    -2.505656     19.81294     259.8546        38     1.516     1.394 -85.73   0
       174     25.2458    248.4715 300.1447633 +22.4314828     823.9956      70.2083      2.020     3.56    -2.738118     19.81294     85.72734        15     1.246     1.044  43.89   0
       175    884.8408    235.3315 300.4164482 +22.6854789     1997.649      70.2083      1.850     4.49    -2.668766     19.81294     131.8606        29     1.414     1.271 -74.56   0
       176    988.3959    234.0814 300.4491375 +22.7161424     1542.497      70.1546      1.716     3.79    -2.422152     19.81294     118.6608        25     1.295     1.164 -84.73   0
       177    434.4549    231.5590 300.2774333 +22.5493937     443.4203     70.19041      1.929     4.19      -2.3662     19.81294     37.24055         5     1.244     0.402 -36.69   0
       178    486.1371    218.4724 300.2977602 +22.5611329     831.2355     70.26196      1.790     5.60    -2.345894     19.81294     66.88102        16     1.353     1.063 -35.05   0
       179    259.8849    198.2840 300.2339511 +22.4874825     3240.523     70.33344      1.912     4.05    -2.288321     19.81294     233.5352        35     1.473     1.345 -86.17   0
       180    111.0861    197.8229 300.1878636 +22.4427096     419.0796     70.17251      1.806     4.93    -2.598595     19.81294     38.53348         7     1.336     0.516  80.71   0
       181     22.5958    189.1591 300.1631925 +22.4136700     392.0828     70.24407      1.446     2.30    -2.767168     19.81294     35.81264         5     0.698     0.457 -70.32   0
       182    505.8235    183.4703 300.3152472 +22.5569820     3407.582     70.24407      2.013     4.85    -2.221849     19.81294      224.986        40     1.520     1.500 -60.72   0
       183    391.7873    183.7125 300.2796926 +22.5228588     351.8703     70.17251      1.717     4.71    -2.098109     19.81294     31.80176         6     1.012     0.622 -65.12   0
       184    757.3038    173.7867 300.3966864 +22.6295755     514.1639      70.1546      2.299     6.56     -2.28002     19.81294     28.78253         9     1.141     1.059 -20.45   0
       185    634.1247    163.4077 300.3616935 +22.5896781     3495.743      70.2083      2.005     4.51     -2.14986     19.81294     225.3867        40     1.544     1.444 -76.04   0
       186    408.9751    162.8458 300.2918107 +22.5220202     770.0889     70.24407      1.853     5.67    -1.959556     19.81294     56.56774        20     1.417     1.213 -69.09   0
       187    674.4753    160.7236 300.3751286 +22.6010001      435.593     70.31557      1.795     4.91    -2.144357     19.81294     29.10664         7     1.123     0.607  21.79   0
       188    158.6960    155.5764 300.2163650 +22.4448684     366.0627     70.11878      1.508     3.03    -2.300724     19.81294     43.86409         6     0.862     0.487 -45.75   0
       189    678.3454    148.2212 300.3803913 +22.5985672     1535.396     70.24407      1.913     4.84     -2.04159     19.81294     112.7523        25     1.451     1.293  46.32   0
       190    693.0792    146.8339 300.3854298 +22.6025839     515.2428     70.17251      2.130     6.73    -2.027906     19.81294     38.34648         8     1.202     1.068 -32.45   0
       191    764.3090    139.6235 300.4099561 +22.6218554     930.9323      70.1546      1.994     7.29    -2.031165     19.81294     56.00219        17     1.322     1.125  25.57   0
       192    702.4702    133.5701 300.3926589 +22.6015861     270.4034     70.22619      1.602     3.71    -1.913086     19.81294     32.82604         6     0.968     0.409 -70.97   0
       193    509.1339    132.5944 300.3327882 +22.5433599     599.4486     70.22619      2.055     5.74    -2.077958     19.81294     42.33764        10     1.225     0.757 -66.60   0
       194     82.0000    132.1357 300.2001457 +22.4151309     220.7161      70.2083      1.513     3.71    -2.456476     19.81294     41.85916         5     1.372     0.289  90.00   0
       195    412.8019    130.9442 300.3033535 +22.5140054     411.9858      70.1546      1.516     5.92    -1.953605     19.81294     40.11444        10     1.078     0.914 -83.39   0
       196    183.8160    120.8699 300.2354322 +22.4424411     2128.957     70.24407      1.858     3.77    -2.278504     19.81294      161.223        30     1.398     1.292  65.60   0
       197    299.8434    113.3193 300.2739454 +22.4750723     711.1025      70.2083      2.104     6.44    -2.025983     19.81294     49.50938        16     1.331     1.195 -79.14   0
       198    745.5777    112.7957 300.4128267 +22.6085319     378.3651     70.19041      1.602     5.60    -1.697757     19.81294      38.2386         7     1.066     0.828 -66.82   0
       199    802.6267    104.0504 300.4334373 +22.6231097     1250.863     70.24407      1.880     4.35    -1.649327     19.81294     97.81551        25     1.445     1.123   4.48   0
       200    508.3859    102.5897 300.3422913 +22.5345158      356.089      70.1367      2.266     4.47     -2.00627     19.81294     32.15472         5     1.168     0.486   4.04   0
       201    186.1538     99.5692 300.2430697 +22.4370272     643.6039     70.26196      1.920     5.36    -2.268087     19.81294     52.38153        12     1.217     0.908  15.89   0
       202    977.0816     97.0643 300.4900805 +22.6733541     406.2189     70.33344      1.707     4.37    -2.194674     19.81294     35.66736         7     0.844     0.699  29.92   0
       203    751.2430     97.4029 300.4195860 +22.6058047     467.8625     70.24407      1.792     3.04    -1.534517     19.81294     43.08932         5     0.707     0.486   7.69   0
       204    604.2785     81.9729 300.3788263 +22.5573329        543.9     70.22619      1.867     6.29    -1.885622     19.81294     44.36022        12     1.500     0.776 -74.54   0
       205    765.9860     77.2887 300.4307047 +22.6044396     264.7965     70.17251      1.490     4.59    -1.534517     19.81294     35.43701         6     1.096     0.546  24.48   0
       206    575.3222     74.8235 300.3721320 +22.5466004     1012.554     70.22619      1.831     4.59    -1.974447     19.81294     72.74119        20     1.376     1.123  22.46   0
       207    299.1624     72.5161 300.2869716 +22.4631507      425.008      70.2083      1.965     2.35    -2.063539     19.81294     42.17399         5     0.714     0.474 -17.12   0
       208     13.1198     71.0787 300.1985633 +22.3769415     465.4684     70.35129      1.946     4.69    -2.321688     19.81294     37.49621         7     0.871     0.715  34.26   0
       209    532.9616     68.5307 300.3609891 +22.5320965     773.2531     70.19041      2.027     6.52    -2.033854     19.81294     48.42727        18     1.313     1.193 -40.95   0
       210    638.1251     65.3544 300.3947553 +22.5626997     849.2808      70.2083      2.006     5.38    -1.779245     19.81294     55.20635        14     1.227     1.042   9.42   0
       211    233.7421     64.6151 300.2691985 +22.4412638      241.001      70.2083      1.491     4.98    -2.202998     19.81294     31.56436         6     0.985     0.714 -75.06   0
       212    282.8152     61.9372 300.2853213 +22.4552108     257.1966     70.19041      1.627     4.85    -2.089617     19.81294      37.3147         7     1.378     0.577 -79.00   0
       213    458.6649     59.2454 300.3408828 +22.5071591      1261.36     70.22619      1.999     4.76    -2.004898     19.81294     100.8478        28     1.496     1.351  71.74   0
       214    106.0202     57.3963 300.2318540 +22.4008838     787.6678     70.19041      1.672     4.09    -2.325162     19.81294     85.22626        16     1.328     0.885 -63.32   0
       215    167.0492     39.2227 300.2567093 +22.4139713     572.3545     70.22619      1.499     4.10    -2.356126     19.81294     55.43827         9     1.137     0.605 -66.54   0
       216    267.4704   1021.1749 299.9687611 +22.7257733     6959.681     66.28784      0.691     0.91    -3.730305     19.81294     2835.642        10     0.531     0.419  -6.81  16
       217    742.4064     17.9159 300.4426195 +22.5803071     531.7398      70.1546      1.996     6.37    -1.534517     19.81294     36.84111        12     1.308     0.870 -37.42   0
       218    855.2079   1018.3996 300.1525662 +22.9014736     154.2377     70.04709      0.991     4.20    -5.583314     19.81294     29.50603         5     0.890     0.565 -50.08  16
