#   1 NUMBER                 Running object number                                     
#   2 X_IMAGE                Object position along x                                    [pixel]
#   3 Y_IMAGE                Object position along y                                    [pixel]
#   4 ALPHA_J2000            Right ascension of barycenter (J2000)                      [deg]
#   5 DELTA_J2000            Declination of barycenter (J2000)                          [deg]
#   6 FLUX_APER              Flux vector within fixed circular aperture(s)              [count]
#   7 FLUXERR_APER           RMS error vector for aperture flux(es)                     [count]
#   8 FLUX_RADIUS            Fraction-of-light radii                                    [pixel]
#   9 FWHM_IMAGE             FWHM assuming a gaussian core                              [pixel]
#  10 BACKGROUND             Background at centroid position                            [count]
#  11 THRESHOLD              Detection threshold above background                       [count]
#  12 FLUX_MAX               Peak flux above background                                 [count]
#  13 ISOAREA_IMAGE          Isophotal area above Analysis threshold                    [pixel**2]
#  14 A_IMAGE                Profile RMS along major axis                               [pixel]
#  15 B_IMAGE                Profile RMS along minor axis                               [pixel]
#  16 THETA_IMAGE            Position angle (CCW/x)                                     [deg]
#  17 FLAGS                  Extraction flags                                          
         1    596.2184      7.8890 300.3787014 +22.5571116     433.4983      69.9056      1.266     3.13    -2.355164     19.74262     60.45519        10     1.017     0.644   7.79   0
         2    731.3873      5.8155 300.4214732 +22.5969999     249.0386     69.92344      1.352     3.90    -2.773605     19.74262     35.77498         5     0.893     0.487 -89.25  16
         3    205.3281      5.6659 300.2578156 +22.4393362     392.4215     70.01257      1.765     3.79    -2.695013     19.74262     48.72853         5     0.777     0.682 -45.73   0
         4    759.2112      2.4662 300.4312284 +22.6043691     490.6329     60.34916      1.425     3.08    -2.777813     19.74262     50.43567         8     0.882     0.608  58.56  24
         5    567.8303      1.4488 300.3719514 +22.5467569     764.7408     55.12117      1.141     2.74    -2.174996     19.74262     134.4526        11     1.119     0.602  -0.67  24
         6      1.8466    996.4471 299.8726450 +22.6623894     543.8018     57.29579      3.827     4.32      -12.817     19.74262     26.82943         5     0.944     0.563  46.47  24
         7    193.9172   1021.1497 299.9242626 +22.7271777     1447.317     66.14691     12.417    15.19     13.56946     19.74262     50.19083        45     3.190     2.011  23.47  27
         8    210.4557   1022.1575 299.9290740 +22.7324350     1813.319     62.12121     13.678    27.75     9.759807     19.74262     64.46084       137     5.923     3.610  27.84  27
         9    225.1067   1022.4197 299.9335420 +22.7369115     2634.433     60.88414      5.415    18.28     6.027094     19.74262     84.28021       103     4.294     2.163   4.79  27
        10     81.9901    959.2934 299.9096304 +22.6758302     1885.562     69.92344     23.442    41.48     2.950124     19.74262     132.3615       397     7.768     6.147 -45.22   3
        11     85.2435    994.7473 299.8990974 +22.6869633     2976.985     70.01257     24.463    79.23     11.94794     19.74262     69.10763      1293    15.761    11.052 -72.59  18
        12    248.7020    990.9466 299.9511248 +22.7349816      268.095     70.06599      1.067     2.68    0.2525675     19.74262     63.64022         7     0.717     0.655  52.14   0
        13    173.2200   1018.8920 299.9185664 +22.7203128       1700.8      69.9056      6.948    12.12      18.3176     19.74262     43.67521        35     2.760     1.482  42.66  26
        14     67.2229   1001.4842 299.8913066 +22.6834781     2640.904     69.94128     16.942    29.02     7.572577     19.74262     61.71245       192     7.039     3.321 -74.45  19
        15    565.9670    987.3148 300.0509929 +22.8292090     918.4547     69.94128      1.107     1.93    -5.644437     19.74262     166.4212        10     0.807     0.659 -81.87   0
        16    242.9472   1015.8198 299.9412363 +22.7403799     5279.894     69.95911      9.630    38.33      2.83899     19.74262     149.5214       594     9.369     6.020  41.87  26
        17    932.0683   1012.9117 300.1567040 +22.9464110     502.4238     70.11938      1.365     2.21    -5.833669     19.74262     94.05468         9     0.883     0.562 -83.89   0
        18    459.6920    983.7775 300.0190724 +22.7962895     534.9481      69.9056      1.108     2.26    -5.838949     19.74262     111.3335         8     0.795     0.642  74.99   0
        19    390.4480    981.8927 299.9981461 +22.7749576     3966.333     69.99476      1.175     2.00    -5.815663     19.74262     598.9018        25     1.024     0.910 -85.38   0
        20    115.4423    983.4767 299.9121478 +22.6928085     1178.601     69.94128     10.805    10.56     12.18027     19.74262     38.37747        19     2.601     1.195  13.34   2
        21    423.0718    968.6266 300.0126134 +22.7809509     297.2787     69.95911      1.126     2.67    -5.683435     19.74262     52.22267         8     0.797     0.656  81.29   0
        22    657.4221    996.5938 300.0764440 +22.8593210     4093.109     69.95911      1.150     2.06    -5.729397     19.74262     561.4508        30     1.040     0.985  43.47   0
        23    936.6469    960.4246 300.1752247 +22.9327221     1212.349     69.99476      1.061     1.87    -5.464894     19.74262     220.8431        16     0.908     0.801  88.01   0
        24    586.8147    957.7390 300.0671130 +22.8269857     311.0644     69.94128      1.440     2.78     -5.38842     19.74262     38.17798         6     0.734     0.563  47.24   0
        25    725.6390    949.8057 300.1129252 +22.8663726     320.2476     69.99476      1.747     5.92    -5.334205     19.74262     51.49519         9     1.661     0.595  61.34   0
        26    151.3835    999.5040 299.9180951 +22.7081981     1095.135     69.88776      4.921     7.09     16.67998     19.74262     34.29319        10     1.296     1.087  72.01   2
        27    760.3883    943.2288 300.1258915 +22.8749123     699.8176     69.97694      1.225     2.98    -5.324665     19.74262     114.6879        13     1.202     0.753 -71.88   0
        28    782.5486    937.2114 300.1347548 +22.8798346     6837.471     69.97694      1.116     1.89    -5.308205     19.74262     1064.742        33     1.054     0.944  62.50   0
        29    828.0890    937.0344 300.1490028 +22.8934462     324.0743     69.95911      1.134     2.24    -5.319258     19.74262     55.43115         5     0.602     0.581 -82.66   0
        30     93.7722    928.9161 299.9231793 +22.6706678     453.7191     69.97694      1.181     2.20    -3.587577     19.74262     64.83092         7     0.692     0.647  41.01   0
        31    834.3779    924.7517 300.1549617 +22.8918084     274.4675     69.99476      1.183     3.22    -5.236442     19.74262     41.14757         5     0.737     0.447 -71.31   0
        32    791.0096    919.0556 300.1433022 +22.8771638     868.4822     69.97694      1.248     2.33    -5.199373     19.74262     151.9069        13     1.087     0.722  84.77   0
        33    129.1905    994.5692 299.9128070 +22.7001167     852.4014     69.97694      7.888     8.77     15.46556     19.74262     43.28566        12     2.170     0.990  34.97   0
        34    973.7225    918.7932 300.2003403 +22.9318927     206.0933      69.9056      1.157     3.39    -5.230731     19.74262     63.99577         5     1.013     0.329 -52.76   0
        35    829.2711    912.7843 300.1572664 +22.8868424     510.5926     69.97694      1.169     2.35    -5.157469     19.74262      77.3289         8     0.842     0.579 -77.11   0
        36    937.9078    909.5334 300.1921877 +22.9184941     129.2403     70.11938      0.962     2.76    -5.243015     19.74262     40.24641         6     0.766     0.499   1.51   0
        37    877.7152    904.0095 300.1752215 +22.8988554     315.3055     69.92344      1.228     2.24    -5.127058     19.74262     60.75758         7     0.711     0.626 -53.65   0
        38    729.0640    903.2603 300.1291459 +22.8540471     392.1726     70.01257      1.221     2.34     -5.13876     19.74262     73.80055         7     0.796     0.592  70.93   0
        39    441.5229    899.6215 300.0408187 +22.7667072      2641.93     69.97694      1.148     1.96    -5.213281     19.74262     371.6362        23     1.041     0.903 -72.75   0
        40    740.0896    900.1066 300.1336070 +22.8564503     454.4838     70.13717      1.272     2.92    -5.136091     19.74262     70.26181         8     0.874     0.699 -15.19   0
        41    220.0629    888.0535 299.9757205 +22.6968941     348.3857     70.03039      1.347     3.78    -4.056241     19.74262     40.94033         5     0.796     0.515 -26.90   0
        42    166.7540    885.4357 299.9600060 +22.6801330      453.964     70.01257      1.026     2.04    -3.341403     19.74262     91.84901         9     0.769     0.687 -25.09   0
        43    143.9795    882.3958 299.9539191 +22.6724212     941.8232     69.94128      1.185     1.82    -3.671635     19.74262     164.1301        12     0.847     0.718 -84.21   0
        44     18.4041    871.9841 299.9183025 +22.6317148     381.5991     69.88776      1.895     3.63    -4.747149     19.74262     50.96349         7     1.063     0.655 -78.92   0
        45   1015.6110    871.0519 300.2289455 +22.9307484     1313.108     69.97694      1.090     1.94    -5.220864     19.74262     238.9143        15     0.880     0.797  89.29   0
        46    969.8728    869.6041 300.2151529 +22.9166182     1216.623     69.92344      1.141     1.93    -5.223009     19.74262     197.6114        17     0.992     0.819 -30.59   0
        47    446.5542    869.2020 300.0522853 +22.7594952     240.6888     69.97694      1.091     3.11    -5.141778     19.74262      32.1828         5     0.732     0.448 -68.16   0
        48    753.3201    863.4621 300.1496568 +22.8499053     288.2637     70.06599      1.092     2.95    -4.978714     19.74262     61.84101         6     0.806     0.577 -71.48   0
        49    175.7633    864.0237 299.9697742 +22.6767028     284.6162     69.99476      1.066     1.79    -4.446128     19.74262     66.63496         7     0.678     0.626 -84.62   0
        50    621.5007    857.6179 300.1105047 +22.8086788     2723.121     69.88776      1.098     2.05    -4.993322     19.74262     380.1621        17     0.924     0.811  55.19   0
        51    111.5274    858.4344 299.9516353 +22.6558075     228.5616     69.97694      1.150     3.96    -4.570722     19.74262     40.77187         7     1.066     0.723 -56.58   0
        52    423.8586    854.8708 300.0498890 +22.7485730     376.8994     70.01257      1.201     1.95       -5.087     19.74262     83.96822         7     0.791     0.500  43.43   0
        53    171.7140    851.6075 299.9725567 +22.6719284     778.5192      69.9056      1.150     2.17    -4.481019     19.74262     119.4732        11     0.837     0.698  -0.31   0
        54    642.0132    850.0308 300.1193610 +22.8126572     480.1287     69.95911      1.235     2.02    -4.949051     19.74262     88.15337         7     0.796     0.515 -51.10   0
        55   1014.2977    837.4171 300.2394837 +22.9206976     576.2759      69.9056      1.068     2.23    -4.948191     19.74262     111.4089        11     0.931     0.721 -65.72   0
        56    797.5004    837.2269 300.1719606 +22.8556296     2289.814     69.92344      1.103     1.89    -4.752066     19.74262     379.4839        17     0.897     0.796 -85.45   0
        57    205.9316    831.7556 299.9896504 +22.6765150     253.3951     69.94128      1.197     2.98    -4.463649     19.74262     46.81335         8     0.919     0.612 -62.26   0
        58    514.5912    829.9268 300.0862378 +22.7686531     394.3306     69.95911      1.312     3.05     -4.88061     19.74262     59.84113         7     0.836     0.558 -58.93   0
        59    161.2056    827.7448 299.9770567 +22.6619336      593.673     69.97694      1.206     2.21    -4.546368     19.74262     104.7327         9     0.797     0.698 -12.57   0
        60    576.1914    823.0594 300.1076458 +22.7851692     417.9272     69.94128      1.095     1.87    -4.838214     19.74262     64.05173         6     0.683     0.538  48.26   0
        61    310.6620    820.0865 300.0260038 +22.7046170     30837.48     70.06599      1.207     2.01    -4.596971     19.74262     5004.491        63     1.157     1.077  83.91   0
        62    568.4447    819.0002 300.1065552 +22.7816802     956.2253     69.97694      1.153     1.87    -4.820539     19.74262     154.2148        10     0.820     0.677  56.92   0
        63    981.2639    817.7755 300.2355738 +22.9051540     618.8704     69.95911      1.279     4.09    -4.829029     19.74262     78.60455        11     1.097     0.793  29.54   0
        64    284.2391    817.8280 300.0185235 +22.6960364     147.8984     70.01257      1.149     3.48    -4.582682     19.74262     23.21114         5     1.004     0.348  45.57   0
        65    238.5837    817.6547 300.0043873 +22.6822782     191.3734     69.94128      1.140     3.91    -4.506741     19.74262      35.5567         6     0.922     0.475   1.33   0
        66    597.4515    814.9508 300.1169029 +22.7892226     447.1562     70.01257      1.179     2.63    -4.802865     19.74262     74.84022         8     0.864     0.625  54.82   0
        67    608.4445    813.3214 300.1208555 +22.7920536     263.6673     69.95911      1.084     2.52    -4.794027     19.74262     44.28236         5     0.689     0.462  68.95   0
        68    928.3113    810.7692 300.2213427 +22.8872654     199.4265     69.95911      1.318     5.19    -4.890522     19.74262     36.67736         6     1.111     0.684 -44.01   0
        69    713.8944    809.8646 300.1548186 +22.8226985     258.0341     70.08379      1.146     3.12    -4.696496     19.74262     45.85182         7     0.873     0.519  48.60   0
        70    751.5999    799.7844 300.1698443 +22.8311162     388.1689      69.8342      1.069     2.69    -4.649935     19.74262      80.4511         8     0.853     0.621  86.10   0
        71    360.3439    797.3182 300.0488616 +22.7130040     18369.11     70.01257      1.180     2.06    -4.604958     19.74262     2764.997        47     1.099     1.038  76.94   0
        72    374.5455    797.7574 300.0531355 +22.7173930       1241.9     69.97694      1.243     2.41    -4.609553     19.74262     181.0795        15     0.977     0.813  54.39   0
        73    883.2352    793.0318 300.2130624 +22.8686569     1568.168     69.99476      1.143     1.95    -4.841882     19.74262     306.4942        12     0.803     0.752 -70.54   0
        74    371.5510    791.7947 300.0541442 +22.7147844     391.1397     69.95911      1.360     2.60    -4.609452     19.74262     51.34349         5     0.713     0.452  67.82   0
        75    242.9290    789.2869 300.0149681 +22.6754509     462.8824     70.10159      1.171     2.45    -4.560268     19.74262     78.37666         9     0.899     0.669  79.20   0
        76    641.3419    788.9031 300.1390440 +22.7949182     481.3793     70.04819      1.185     2.44    -4.661555     19.74262     97.09032         9     0.846     0.677  85.77   0
        77    477.6246    789.2572 300.0879681 +22.7458942     292.5524     69.97694      1.139     2.43    -4.684567     19.74262     49.35905         5     0.712     0.447 -70.29   0
        78    488.2780    784.0533 300.0929763 +22.7475987     512.7659     70.01257      1.168     3.23    -4.664394     19.74262     74.22408         8     0.918     0.573 -63.43   0
        79     47.4131    784.6257 299.9557366 +22.6153998     232.5897     69.97694      1.104     3.43    -4.608928     19.74262     41.80144         5     0.733     0.463 -72.83   0
        80    889.3588    780.7336 300.2189730 +22.8669626     374.7222     69.95911      1.139     1.84     -4.83809     19.74262     56.57888         5     0.648     0.469 -77.14   0
        81    390.2320    780.5904 300.0636000 +22.7171788     285.6478     69.97694      1.310     5.10    -4.613475     19.74262     43.34959         7     1.189     0.782 -43.64   0
        82     76.0802    778.3682 299.9666761 +22.6222169     441.7943     69.97694      1.467     3.86    -4.606277     19.74262     38.69432         6     0.996     0.429 -14.25   0
        83    240.3402    773.3495 300.0193484 +22.6701048     204.3026     70.03039      1.118     2.47    -4.559793     19.74262     49.52394         5     0.701     0.464  79.45   0
        84    563.8149    763.7377 300.1230952 +22.7644377     247.1588     69.94128      1.328     4.00    -4.594834     19.74262     34.72148         6     0.796     0.575  41.52   0
        85    533.3314    761.6273 300.1142934 +22.7546856     366.5151     69.95911      1.037     2.43    -4.548174     19.74262     67.65797         6     0.813     0.471 -89.77   0
        86    442.7846    761.0294 300.0863119 +22.7273419     260.6313     69.97694      1.268     2.48    -4.591058     19.74262     41.44946         5     0.765     0.482  35.15   0
        87    949.7230    758.3052 300.2450900 +22.8786222     2550.663     70.08379      1.115     2.04    -4.753429     19.74262     452.9189        17     0.881     0.842 -88.19   0
        88    555.0840    759.3156 300.1218161 +22.7605494     900.8119     70.08379      1.242     2.64    -4.552986     19.74262     114.3496        15     1.005     0.833  66.69   0
        89    475.1125    758.9506 300.0970466 +22.7364475      149.038     69.97694      0.942     2.53    -4.559715     19.74262     43.54086         6     0.737     0.554 -50.29   0
        90    938.2665    749.6396 300.2443372 +22.8726993      1056.44     69.94128      1.162     1.87    -4.795641     19.74262     174.5003        14     0.899     0.784  24.44   0
        91    301.2768    743.9191 300.0478665 +22.6799610      478.509     70.08379      1.227     2.59    -4.620862     19.74262     81.68835         8     0.827     0.598  47.55   0
        92    764.3049    740.9428 300.1929472 +22.8180389     1615.365     70.04819      1.251     2.13    -4.482934     19.74262     226.5129        15     0.943     0.776  82.48   0
        93    969.2047    739.7363 300.2572060 +22.8791307      970.373     69.95911      1.156     2.19    -4.669303     19.74262      149.841        12     0.920     0.733 -51.57   0
        94    150.1690    727.9615 300.0060898 +22.6300190     427.9641     69.97694      1.321     4.25    -4.536458     19.74262     50.08886         7     0.741     0.696 -88.88   0
        95    846.5581    726.6998 300.2232117 +22.8386163     341.0103     69.95911      1.072     2.65    -4.630743     19.74262     46.96006         5     0.697     0.463  69.79   0
        96    882.9382    717.8890 300.2374173 +22.8469947     86244.36     70.06599      1.223     1.95    -4.694069     19.74262     15498.21       116     1.257     1.157  72.09   0
        97    735.5229    718.2556 300.1913608 +22.8028950     350.7824     70.01257      1.123     2.66    -4.427771     19.74262     60.16107         5     0.719     0.422  62.63   0
        98    915.7523    710.8640 300.2499320 +22.8548155     255.5353     69.99476      1.478     4.38    -4.644022     19.74262     38.62619         6     0.946     0.577  28.48   0
        99    569.2108    707.1057 300.1431972 +22.7498082     983.5727     69.92344      1.260     2.32    -4.438117     19.74262     153.7127        14     0.986     0.789  54.05   0
       100    750.3889    704.0829 300.2006020 +22.8032852     5472.349     69.94128      1.227     2.10    -4.301263     19.74262     813.9193        30     1.051     0.980  68.44   0
       101    252.0314    699.4016 300.0470364 +22.6524132      2871.73     69.94128      1.247     2.23    -4.543186     19.74262     417.3215        22     0.985     0.930  83.08   0
       102    333.9882    697.3728 300.0731778 +22.6764321     695.6304     69.97694      1.291     2.36    -4.618446     19.74262     102.0974        10     0.796     0.777 -79.34   0
       103    209.8230    694.8138 300.0354088 +22.6384267     277.4976     69.95911      1.263     3.37    -4.504849     19.74262     35.02399         6     0.754     0.562  51.16   0
       104    542.2917    693.0044 300.1394045 +22.7376862     499.5925     69.88776      1.354     2.06    -4.359168     19.74262     69.20536         7     0.697     0.615 -64.75   0
       105    533.8539    684.9793 300.1393883 +22.7328522     1888.337     69.97694      1.289     2.20    -4.338993     19.74262     294.7643        20     1.048     0.881  59.24   0
       106    524.1044    678.8294 300.1383539 +22.7281626     856.5402      69.9056      1.304     2.09      -4.3155     19.74262      141.034        10     0.819     0.689 -77.70   0
       107    187.4235    675.0106 300.0348875 +22.6260242     300.4713     69.97694      1.154     2.51     -4.46214     19.74262     70.11381         7     0.707     0.661 -57.90   0
       108    201.8760    673.3456 300.0399205 +22.6298856     336.7311     70.01257      1.246     3.01    -4.475079     19.74262      59.2397         6     0.760     0.579  36.22   0
       109    227.5053    670.1339 300.0489308 +22.6366585     288.2699     70.10159      1.025     4.05    -4.480524     19.74262     48.99195         7     0.993     0.472  79.15   0
       110    971.3755    669.6430 300.2806830 +22.8596518      259.943     70.03039      1.030     3.14    -4.108704     19.74262     61.49426         6     0.968     0.475 -83.57   0
       111    448.9370    668.5635 300.1183019 +22.7026645     1042.175     69.97694      1.385     2.69    -4.295069     19.74262     139.5845        16     0.992     0.908  61.05   0
       112    548.2028    668.7571 300.1491302 +22.7325022     229.2063     69.99476      1.142     2.85     -4.30768     19.74262     47.55116         6     0.725     0.620  80.79   0
       113    102.9893    663.6685 300.0123409 +22.5974224     11692.39     69.97694      1.310     2.23    -4.376402     19.74262     1617.132        47     1.170     1.101  62.63   0
       114    533.7711    663.9369 300.1462058 +22.7267896      773.411     69.99476      1.510     2.87    -4.248672     19.74262     85.34546        14     0.973     0.889 -52.79   0
       115     24.1466    665.2515 299.9873373 +22.5742013     368.6762     70.01257      1.395     5.27    -4.132441     19.74262     51.26861        10     1.192     0.659  10.90   0
       116    568.8111    662.4485 300.1575967 +22.7368742     187.6105     69.99476      1.355     4.42    -4.282737     19.74262     30.88055         5     1.134     0.491   4.48   0
       117    951.9492    649.8090 300.2810757 +22.8481326     605.5613     69.97694      1.163     2.04    -4.135117     19.74262     112.8929        10     0.805     0.684  81.66   0
       118     49.0192    647.9427 300.0006900 +22.5767090      906.711     69.95911      1.659     4.21    -4.143451     19.74262     111.0639        18     1.592     0.802 -89.13   0
       119    818.2214    647.8376 300.2400305 +22.8074779     303.7284     69.99476      1.099     2.38    -4.074353     19.74262     54.30186         6     0.745     0.527 -39.71   0
       120    290.0038    643.2054 300.0771162 +22.6476958     262.2858     69.81634      1.156     3.13    -4.302605     19.74262     34.26908         5     0.797     0.489  54.32   0
       121    892.0453    642.1151 300.2649012 +22.8279666     347.1812     69.95911      1.158     2.26     -4.23887     19.74262     66.13589         9     0.775     0.698  80.16   0
       122    453.7924    636.7892 300.1301449 +22.6950054     477.6367     69.85206      1.351     2.74    -4.036796     19.74262        77.01         8     0.824     0.679  -9.80   0
       123    619.8060    633.6307 300.1828440 +22.7439000     333.4862     69.97694      1.217     4.37    -4.191153     19.74262     50.38523         9     1.112     0.619 -66.06   0
       124    601.8051    635.2867 300.1767009 +22.7389762     419.6383      69.9056      1.359     2.47    -4.181693     19.74262      47.8063         6     0.706     0.612  66.49   0
       125    649.4011    633.7647 300.1920159 +22.7528147     277.9907     69.94128      1.193     2.92    -4.180072     19.74262      46.6064         5     0.764     0.400 -64.27   0
       126    498.3652    632.3741 300.1454502 +22.7071113     514.1165     69.99476      1.242     2.79     -3.97686     19.74262     62.68323        11     0.993     0.712  56.69   0
       127    463.6900    627.9456 300.1361001 +22.6954377     1035.372     70.01257      1.373     2.11    -3.957952     19.74262     154.0624        15     0.981     0.784  74.19   0
       128     25.7829    621.8198 300.0019668 +22.5622437     2932.318     69.95911      1.263     2.26    -3.987995     19.74262     420.7574        22     1.056     0.906  76.84   0
       129    931.8447    627.8948 300.2819334 +22.8358126     1904.711     69.99476      1.234     2.02    -4.091177     19.74262     334.8545        21     0.999     0.898  77.37   0
       130    327.1518    614.8907 300.0978731 +22.6507232     5300.841     69.99476      1.305     2.33    -4.173919     19.74262     716.8885        29     1.115     0.990  69.16   0
       131    449.5512    611.7639 300.1369622 +22.6865529     5066.529     69.97694      1.289     2.27    -3.846814     19.74262     734.0975        32     1.160     1.003  88.25   0
       132    861.1245    605.6782 300.2671108 +22.8082337       1137.9     70.08379      1.279     2.42    -4.172495     19.74262     150.8476        17     1.086     0.842 -64.91   0
       133    945.7545    602.9397 300.2943848 +22.8328140     7322.453     69.99476      1.215     2.09    -3.982274     19.74262     1194.413        30     1.060     0.931  76.00   0
       134    510.1241    601.3593 300.1591937 +22.7017391     6776.944     69.94128      1.324     2.46    -3.784888     19.74262     801.1573        35     1.150     1.051  83.29   0
       135    237.5726    596.9705 300.0758484 +22.6186993     879.0559     69.97694      1.472     2.71    -4.045892     19.74262     116.0791        17     1.161     0.869  49.58   0
       136    679.5638    596.8315 300.2134179 +22.7512584     242.5494     69.99476      1.227     3.43    -4.066381     19.74262     38.76756         5     0.777     0.439  68.87   0
       137    441.8482    589.5568 300.1417853 +22.6778702     2431.134     69.99476      1.352     2.43    -3.788346     19.74262     331.2624        22     1.053     0.947 -87.19   0
       138    784.4006    589.4550 300.2484749 +22.7805744     506.1652      69.9056      1.391     4.07    -4.096297     19.74262     60.34988        11     0.994     0.905 -74.04   0
       139    419.9831    587.9565 300.1355030 +22.6708511     744.7145     69.99476      1.433     3.69    -3.803351     19.74262     73.22054        14     1.126     0.823 -74.26   0
       140    174.5378    587.7556 300.0592526 +22.5971367       301.77     69.99476      1.151     2.26     -4.04035     19.74262     55.15353         6     0.724     0.498 -88.97   0
       141    861.4317    585.0322 300.2739191 +22.8023965     929.3677     70.01257      1.440     3.41    -4.164181     19.74262     102.4952        15     1.172     0.792 -42.05   0
       142    108.3605    584.7182 300.0396777 +22.5764003     89.12383     69.94128      1.311     3.85     -4.03456     19.74262     38.96084         5     0.955     0.477 -86.37   0
       143    558.3898    577.1267 300.1820945 +22.7092621     119524.3     69.97694      1.355     2.41    -3.694937     19.74262     14594.56       151     1.387     1.348 -61.12   0
       144    742.1957    581.9473 300.2377662 +22.7657652     555.9171     69.97694      1.279     3.13    -4.083021     19.74262     60.39103        10     0.867     0.753 -15.82   0
       145    184.9762    581.8624 300.0644122 +22.5985799     2000.251     69.95911      0.496     2.21    -4.044487     19.74262     1343.332         7     0.403     0.371 -81.65   0
       146    244.6769    577.1735 300.0844923 +22.6151537     1964.122     69.99476      1.291     2.27    -4.019008     19.74262     278.2223        20     1.046     0.919  60.98   0
       147    810.2369    572.8481 300.2619247 +22.7835511     322.6622     69.99476      1.031     3.48    -4.124887     19.74262     36.87249         5     1.122     0.312   9.44   0
       148    449.0632    557.3431 300.1545019 +22.6707912     1554.379     70.03039      1.457     2.69    -3.711869     19.74262     177.6099        18     1.060     0.902  79.60   2
       149    845.7775    543.4746 300.2825495 +22.7857687      987.741     69.99476      1.305     2.40    -4.149764     19.74262      143.866        17     1.050     0.867 -83.28   0
       150    717.1565    541.1964 300.2432131 +22.7465573     1426.437     69.99476      1.304     2.74    -4.067512     19.74262     176.5067        19     1.000     0.929 -61.91   0
       151    504.2728    537.0079 300.1782914 +22.6815162     384.1949     69.95911      1.386     2.95    -3.556795     19.74262     47.55008         7     0.825     0.653  33.06   0
       152    974.2747    534.9491 300.3253817 +22.8218294     734.9428     69.99476      1.240     2.48    -4.036558     19.74262     114.1513        12     0.945     0.746  66.93   0
       153    846.2270    533.7119 300.2858630 +22.7830995     1264.848     69.95911      1.368     2.25    -4.156151     19.74262     166.1768        19     1.232     0.896  80.62   0
       154    959.9861    534.1445 300.3211875 +22.8173167     438.2243     69.95911      1.187     3.09    -4.082707     19.74262     63.16312         6     0.750     0.556 -33.57   0
       155    599.4927    531.8695 300.2096014 +22.7085986     332.0892     70.10159      1.131     1.90    -3.553333     19.74262     65.03435         5     0.681     0.487 -76.47   0
       156    884.3189    528.6699 300.2993753 +22.7930680     2438.457     70.08379      1.230     2.29    -4.165879     19.74262     325.7805        20     1.068     0.854  68.91   0
       157    116.4640    519.4540 300.0634075 +22.5601186     555.2718     70.01257      1.202     2.90    -3.966631     19.74262      76.0527        10     0.958     0.714  68.53   0
       158    976.0946    518.8063 300.3311963 +22.8177369      365.993     69.86991      1.144     2.51    -4.021447     19.74262     87.41995         8     0.970     0.475 -57.59   0
       159    716.4087    502.8721 300.2554362 +22.7353284     280.1164     69.95911      1.273     4.06    -3.984797     19.74262       37.291         6     0.774     0.607  47.56   0
       160    657.6578    499.3403 300.2382852 +22.7167004      414.481     70.04819      1.283     3.28    -3.687906     19.74262     53.85065         9     0.977     0.637 -85.62   0
       161    718.5378    491.4420 300.2598140 +22.7326844     594.0374     69.95911      1.537     3.03    -3.976302     19.74262     69.76755        12     0.996     0.833 -89.65   0
       162    972.0453    491.3830 300.3388463 +22.8086444     380.5969     69.99476      1.258     3.14    -4.023873     19.74262     47.52986         7     0.843     0.569  29.19   0
       163    875.8657    487.4224 300.3101459 +22.7786860     604.3356     69.95911      1.212     2.62     -4.18295     19.74262     92.67741        11     0.878     0.807  43.60   0
       164    859.8439    483.9395 300.3062837 +22.7728840     404.0526     69.99476      1.330     2.56    -4.181881     19.74262     72.10108        10     0.861     0.758  25.90   0
       165    604.3470    481.9632 300.2273319 +22.6957269     1835.912     69.99476      1.349     2.56    -3.381413     19.74262     222.3893        21     1.073     0.972  60.95   0
       166    964.8525    480.8284 300.3400333 +22.8034566     286.8636     69.99476      1.266     1.81    -4.051368     19.74262     61.74359         6     0.713     0.502  41.28   0
       167   1015.5897    460.8730 300.3623418 +22.8129233     699.2628     69.97694      1.203     2.35    -3.712361     19.74262     116.2861        11     0.924     0.695  44.06   0
       168    974.0814    459.6025 300.3498089 +22.8001227     538.7153     69.88776      1.303     2.77    -3.930501     19.74262     73.25835        11     1.006     0.672  28.09   0
       169    714.9988    455.8139 300.2702891 +22.7213919     600.3213     69.81634      1.292     2.85     -3.77006     19.74262     82.91864        10     0.889     0.722 -88.00   0
       170    218.9600    454.2070 300.1164601 +22.5721640     352.1479     70.01257      1.216     2.76     -3.70469     19.74262     59.13885         8     0.843     0.599  47.95   0
       171    281.4211    450.0015 300.1372439 +22.5896981     2152.557      69.9056      1.377     2.57    -3.627683     19.74262     249.3148        19     1.034     0.932 -76.43   0
       172   1014.3236    448.1323 300.3660869 +22.8088826     2535.182     70.06599      1.243     2.27    -3.654505     19.74262     354.7301        19     1.018     0.853  78.86   0
       173    228.6081    444.8102 300.1225120 +22.5723631     4473.337     69.85206      1.391     2.54    -3.652782     19.74262     574.4577        30     1.115     1.099  84.23   0
       174    369.3715    439.0179 300.1681627 +22.6129303     2681.544     69.97694      1.424     2.71    -3.479419     19.74262     301.5227        25     1.148     1.024  63.48   0
       175    994.2623    439.0249 300.3627891 +22.8002555     1115.354     69.97694      1.232     2.21    -3.728879     19.74262     180.5515        15     1.007     0.859  56.26   0
       176    613.4622    435.5417 300.2452535 +22.6851314     10671.11     70.03039      1.415     2.64     -3.07998     19.74262     1226.896        42     1.274     1.089  78.60   0
       177    631.2418    435.8355 300.2506943 +22.6905461     588.9045     70.03039      1.886     5.29    -3.173161     19.74262     53.19065        10     1.153     0.686 -44.38   0
       178    946.9762    417.8010 300.3549385 +22.7799902     414.8579     69.92344      1.230     3.42    -3.955797     19.74262     51.55444         7     0.720     0.690  76.63   0
       179    168.3267    415.9318 300.1131579 +22.5459908     1245.394     70.04819      1.372     2.34    -3.727086     19.74262     149.8902        16     0.978     0.895  89.46   0
       180    554.1008    405.1310 300.2366523 +22.6586020     3696.224     70.06599      1.403     2.86    -2.871236     19.74262      414.451        29     1.217     1.013  87.19   0
       181    967.5938    405.1346 300.3654828 +22.7825270     729.4236     69.95911      1.277     2.99    -3.768034     19.74262     111.2222        10     0.978     0.731 -21.71   0
       182    269.1825    404.4296 300.1482435 +22.5729504      393.899     69.95911      1.549     3.68    -3.431854     19.74262     54.19843         8     0.970     0.622 -84.17   0
       183    126.9259    397.7069 300.1062132 +22.5283397     335.8303     70.11938      1.220     2.34    -3.659846     19.74262     54.15816         7     0.697     0.664  11.55   0
       184    758.2599    393.9778 300.3038561 +22.7165978     869.1949     69.95911      1.649     3.24    -3.580785     19.74262     78.93782        15     1.091     0.881  86.14   0
       185    667.8021    394.7819 300.2754169 +22.6897165     292.0408     69.88776      1.383     5.03    -3.123185     19.74262     32.13094         6     1.090     0.656  76.82   0
       186    460.7761    391.3590 300.2120809 +22.6266647     3671.862     70.01257      1.458     2.51    -2.949873     19.74262     421.9468        33     1.280     1.092  89.29   0
       187    852.5686    385.3849 300.3360369 +22.7423900     805.6058     69.97694      1.413     2.87     -3.77188     19.74262      90.8472        15     1.019     0.874  77.68   0
       188    949.9091    385.4396 300.3663661 +22.7715692     370.6228     69.97694      1.148     3.28     -3.76296     19.74262     52.26215         5     0.779     0.401 -25.94   0
       189    348.3427    370.7945 300.1837839 +22.5870429     1480.376     69.94128      1.469     2.90    -3.174463     19.74262     165.2965        20     1.181     0.951  65.57   0
       190     66.9534    368.0617 300.0972101 +22.5018393     639.9447     69.99476      1.337     3.06    -3.543208     19.74262     76.81889        11     0.955     0.770 -47.03   0
       191    317.6745    360.0983 300.1777203 +22.5747747     17270.49     70.10159      1.434     2.64    -3.150414     19.74262     2052.093        52     1.304     1.132  74.13   0
       192    852.3300    357.2870 300.3450893 +22.7342452     788.9908     70.08379      1.273     2.64    -3.548162     19.74262     104.2637        13     0.951     0.776  41.52   0
       193     14.0557    348.0544 300.0872779 +22.4802261      2764.51     70.01257      1.356     2.37    -3.420166     19.74262     381.3389        24     1.155     0.952  81.18   0
       194    767.5912    346.4449 300.3222029 +22.7057392     236.8905     69.99476      1.217     2.58    -3.238755     19.74262     56.69753         6     0.852     0.440  72.58   0
       195    415.7071    345.2017 300.2130500 +22.5998993     346.3846     69.88776      1.614     3.61     -2.98652     19.74262     36.89507         5     0.948     0.395   4.57   0
       196    727.8505    339.6602 300.3120250 +22.6918810     1126.217     70.03039      1.404     2.59    -3.080764     19.74262     138.1893        18     1.035     0.940  55.07   0
       197    943.2919    332.0183 300.3816543 +22.7542338     414.7622      69.9056      1.308     3.05    -3.456203     19.74262     54.19666         6     0.789     0.620  -1.29   0
       198    389.7098    324.3237 300.2117426 +22.5861099     1171.437     70.11938      1.632     3.82    -2.989292     19.74262     103.6676        19     1.242     0.957  80.02   0
       199    828.7216    317.4730 300.3506615 +22.7157316      302.841     70.08379      1.307     5.88    -3.341568     19.74262     60.38103         9     1.333     0.731 -62.35   0
       200    465.6631    303.8245 300.2420299 +22.6029988      809.376     69.95911      1.548     2.96    -2.894393     19.74262     82.66396        13     0.959     0.867  34.87   0
       201    206.0629    298.4157 300.1630509 +22.5235945     128.7643     69.95911      1.445     4.49    -3.213709     19.74262     24.71622         5     1.480     0.387  12.34   0
       202    710.4623    295.6628 300.3208959 +22.6740306     1226.917     70.01257      1.458     2.96    -2.824619     19.74262     134.1312        16     1.077     0.860  73.35   0
       203    971.6815    289.8033 300.4042163 +22.7506030     1868.938     69.88776      1.328     2.39    -3.181383     19.74262     257.9156        18     1.017     0.874  83.50   0
       204     93.6001    273.8619 300.1360752 +22.4828111     795.7324     69.92344      1.469     3.07    -3.165963     19.74262     91.50529        14     1.058     0.836 -31.00   0
       205    124.2606    273.4738 300.1457272 +22.4918981     448.3256     70.01257      1.450     3.22    -3.193359     19.74262     44.84278        10     0.951     0.692 -87.66   0
       206    987.2964    270.3553 300.4154009 +22.7496888     267.6855     69.99476      1.361     3.48    -3.142065     19.74262     43.91404         5     0.738     0.473   7.59   0
       207    831.4334    267.4991 300.3677337 +22.7021831     171.5109     69.95911      1.626     4.24    -3.176618     19.74262     31.91729         5     1.227     0.418  33.47   0
       208    177.9835    265.8788 300.1648872 +22.5058345     408.0474     69.97694      1.725     4.32    -3.199949     19.74262     47.24108         6     1.079     0.493  82.52   0
       209    853.8069    258.9745 300.3774749 +22.7064355     138.9307     69.97694      1.051     3.80    -3.154746     19.74262     34.47033         5     0.815     0.507 -25.74   0
       210    781.9744    256.7800 300.3558005 +22.6842857     330.8447     69.97694      1.338     2.39      -3.0246     19.74262     60.41582         6     0.853     0.440  39.06   0
       211    880.1037    245.7569 300.3899634 +22.7105135      1151.41     69.99476      1.330     2.51    -3.063949     19.74262     164.9227        21     1.067     1.024 -16.84   0
       212    298.8582    243.3918 300.2097632 +22.5356329     1387.723     69.95911      1.535     2.87    -3.125479     19.74262     148.3599        17     1.059     0.941  42.95   0
       213    376.6742    238.5434 300.2355381 +22.5575743     622.7986     70.01257      1.617     3.15    -2.969393     19.74262     64.94028        10     0.920     0.754  41.70   0
       214    778.5652    236.7945 300.3612264 +22.6775212     315.7366     69.95911      1.357     3.15    -2.977551     19.74262     36.10357         5     0.723     0.474  74.62   0
       215    193.7039    230.6348 300.1812138 +22.5004351     518.3928     69.97694      1.536     2.73    -3.175887     19.74262     75.41911        11     0.939     0.764  73.04   0
       216    731.4578    227.2700 300.3496410 +22.6606711     965.6859     69.99476      1.435     3.18    -2.795361     19.74262     103.5972        15     1.021     0.901 -77.99   0
       217    796.0064    226.5005 300.3700030 +22.6797879     431.1579     69.86991      1.518     3.08    -3.028982     19.74262     52.27788         8     0.896     0.690 -77.35   0
       218    215.0213    224.0579 300.1899745 +22.5049410     426.7249     69.97694      1.472     3.76    -3.168147     19.74262     44.90518         7     0.874     0.550  54.04   0
       219   1002.7324    219.5738 300.4367016 +22.7397115     602.0433     69.95911      1.480     2.65    -3.096878     19.74262     67.27944        10     0.902     0.705  85.49   0
       220    735.2570    219.1707 300.3534538 +22.6594820     435.5789     69.97694      1.388     3.71    -2.778352     19.74262      47.6936        10     1.008     0.704 -42.63   0
       221    655.9011    218.2222 300.3290431 +22.6354326     775.9005      69.9056      1.411     3.07    -2.786889     19.74262     96.15851        14     1.007     0.903 -65.88   0
       222    851.3099    209.7124 300.3926887 +22.6915287     827.0402     70.13717      1.385     3.22    -2.976194     19.74262     92.35362        12     1.049     0.742  85.27   0
       223    863.2141    209.0714 300.3966074 +22.6949099     509.2902     69.97694      1.716     4.18    -2.960826     19.74262     54.02298         6     0.908     0.563  68.96   0
       224    581.9750    210.1494 300.3086439 +22.6109602     558.1485     69.99476      1.419     4.11    -2.936258     19.74262     56.91635         9     0.912     0.723   0.81   0
       225    909.6223    206.9465 300.4117648 +22.7081984     125.9355     69.99476      1.001     3.88    -2.963696     19.74262     28.35443         5     0.889     0.484 -88.38   0
       226   1023.5854    199.2441 300.4498052 +22.7401098      665.585     54.96254      1.135     2.37    -3.126362     19.74262     137.0382        10     0.952     0.661  89.22  24
       227    980.0518    198.6868 300.4364077 +22.7269146     606.4681     70.01257      1.239     2.11    -3.056243     19.74262     107.3905         9     0.836     0.628  67.43   0
       228    214.2776    192.4779 300.1999930 +22.4956534     511.1801     70.08379      1.454     3.75    -3.171031     19.74262     54.41122         7     1.096     0.461  40.72   0
       229     76.2576    187.2135 300.1588124 +22.4527458     1243.364     69.94128      1.336     2.64    -2.878421     19.74262     169.6031        18     1.154     0.829  67.71   0
       230    899.1547    183.7194 300.4160404 +22.6983863     415.3615     69.95911      1.252     3.21    -2.987537     19.74262     54.03074         8     0.789     0.681  20.57   0
       231     25.6798    183.9491 300.1441613 +22.4366365     167.4346     69.97694      1.201     4.12     -2.21575     19.74262     37.65051         6     0.779     0.622 -26.13   0
       232    233.4647    180.4204 300.2098705 +22.4979462     3315.993     69.95911      1.472     2.61    -3.167939     19.74262     351.3361        28     1.174     1.094  86.37   0
       233     17.6793    174.7209 300.1446712 +22.4315885     595.9863     70.10159      1.312     2.89     -2.10374     19.74262     96.92832        14     0.979     0.881  -0.56   0
       234    215.9251    171.4049 300.2073439 +22.4900985     406.9539      69.9056      1.821     5.69    -3.172075     19.74262      47.1843         8     1.043     0.875 -23.04   0
       235    877.3499    161.7309 300.4163790 +22.6855350     2061.682     69.97694      1.321     2.50    -3.004861     19.74262     254.6968        20     1.001     0.969  84.37   0
       236    981.1198    160.3097 300.4491965 +22.7161997     1574.359     70.08379      1.311     2.48      -3.0669     19.74262     201.3366        19     0.994     0.914 -63.71   0
       237    426.6595    156.9556 300.2775683 +22.5491306     261.8674     69.99476      1.301     3.94     -3.11365     19.74262     48.42468         7     0.978     0.810  89.22   0
       238    350.9727    149.1932 300.2565427 +22.5242130     471.9388     69.97694      1.316     3.76    -3.126072     19.74262     42.92226         7     0.971     0.569  54.53   0
       239    478.3991    144.3952 300.2977437 +22.5610307     963.5779     69.79847      1.429     3.16    -3.074422     19.74262     104.0717        17     1.135     0.922  79.90   0
       240    116.8873    146.2570 300.1847256 +22.4531786     359.4483     70.04819      1.357     4.17    -3.229697     19.74262     46.26376         7     0.967     0.657  18.89   0
       241    406.0577    144.8466 300.2750881 +22.5394776     294.2519     70.03039      1.482     4.98    -3.110523     19.74262     27.46297         6     1.151     0.611  17.25   0
       242    252.3724    124.3872 300.2339306 +22.4875293     3358.906     69.97694      1.428     2.66    -3.125015     19.74262     358.1742        29     1.203     1.065  75.94   0
       243    103.4622    123.8342 300.1878296 +22.4427165     397.2256     69.97694      1.425     4.15    -3.277951     19.74262     42.16471         8     0.909     0.758  17.06   0
       244    882.1437    120.7809 300.4311619 +22.6751976     278.4032     69.95911      1.587     5.76     -2.96618     19.74262     33.37933         8     1.122     0.832  36.57   0
       245    498.2900    109.4207 300.3152820 +22.5569451     3543.406     69.92344      1.482     2.81     -3.06889     19.74262     376.3239        30     1.255     1.072  73.59   0
       246    383.6744    109.5113 300.2795899 +22.5226200      382.747     70.11938      1.653     5.88    -3.097298     19.74262     31.07521        10     1.089     0.893  44.66   0
       247    750.9712     98.9478 300.3973648 +22.6296374     546.9201     69.99476      1.706     3.44    -2.675902     19.74262     52.94078        10     0.913     0.752 -79.97   0
       248    191.0299     93.2733 300.2249562 +22.4602037     224.8351     69.99476      1.184     4.35    -3.164695     19.74262     31.54517         7     0.784     0.688   6.32   0
       249    626.7106     89.4941 300.3617263 +22.5896982      3677.02     70.15495      1.508     2.80    -2.644195     19.74262     425.0121        29     1.204     1.092  49.89   0
       250    401.6718     88.5698 300.2919825 +22.5219996     779.8497     69.97694      1.487     3.64    -2.988804     19.74262     95.68392        15     1.128     0.905 -85.88   0
       251    667.7821     86.8423 300.3753775 +22.6012400     450.5399     69.99476      1.444     3.44    -2.555302     19.74262     68.82509        11     1.001     0.894  26.46   0
       252    953.6738     80.3929 300.4665686 +22.6850012     437.9113     69.92344      1.438     3.35    -3.154908     19.74262     51.90244         6     0.931     0.404 -73.49   0
       253    150.8616     80.8969 300.2164874 +22.4446060     414.9751     70.06599      1.470     3.71    -3.268201     19.74262     52.21946        11     0.970     0.830  59.60   0
       254    670.9609     74.3378 300.3804242 +22.5985983     1572.375     69.97694      1.399     2.88    -2.536456     19.74262     163.6761        19     1.061     0.972  77.08   0
       255    312.7365     75.3885 300.2685962 +22.4915564     239.8535     69.94128      1.266     3.47    -2.844011     19.74262     29.93185         5     0.766     0.454 -16.83   0
       256    685.9527     72.9104 300.3855568 +22.6026788     618.6133     69.94128      1.842     4.42     -2.55923     19.74262     49.03306        10     1.218     0.590  63.18   0
       257    757.3370     65.9778 300.4100443 +22.6220666      948.723     69.95911      1.403     2.91    -2.727105     19.74262     126.4463        15     1.121     0.910  16.29   0
       258    695.2798     59.0330 300.3929639 +22.6014838       312.71     69.95911      1.449     5.18     -2.57956     19.74262     51.09676        10     1.247     0.734  46.91   0
       259     74.0142     59.1083 300.1996777 +22.4153067     414.9094      69.9056      1.884     6.26    -3.408808     19.74262     29.17603         9     1.142     0.963   1.07   0
       260    501.0905     58.2549 300.3327523 +22.5430847     646.2098     70.03039      1.488     4.74    -3.022964     19.74262     68.26134        12     1.323     0.660 -80.88   0
       261    404.8701     56.5783 300.3033552 +22.5137689     552.6816     69.97694      1.497     2.62    -2.660894     19.74262     66.16975        10     0.900     0.704  85.13   0
       262    176.2921     46.7514 300.2354661 +22.4424282     2388.601     70.01257      1.537     2.90    -3.231526     19.74262     231.1128        27     1.222     1.063  65.76   0
       263    744.1166     47.3251 300.4119758 +22.6127452     380.1612     70.06599      1.326     2.52    -2.727316     19.74262     46.40653         6     0.796     0.716 -26.60   0
       264    598.3552     43.4010 300.3678490 +22.5679576     201.4497     69.97694      1.489     4.18    -2.522861     19.74262     24.79626         5     1.026     0.486   3.94   0
       265    737.3440     38.8576 300.4126123 +22.6082828     484.5629     70.04819      1.315     2.93    -2.735591     19.74262     66.16454         8     0.863     0.647  77.05   0
       266    292.1589     38.6014 300.2741296 +22.4748234     703.3825     69.97694      1.605     3.94    -2.469866     19.74262     74.37442        13     1.156     0.759  61.21   0
       267    775.3318     34.1229 300.4259843 +22.6182979     545.7449     70.06599      2.025     5.13    -2.761257     19.74262     40.60358        10     1.276     0.583  81.94   0
       268    795.4330     30.2947 300.4334899 +22.6232166      1243.52     69.95911      1.389     2.93    -2.763078     19.74262     123.6848        18     1.089     0.967  66.60   0
       269    500.6792     28.6185 300.3422369 +22.5344464     250.1812     69.97694      1.436     3.33    -2.990727     19.74262     41.23441         5     0.932     0.476   6.78   0
       270    178.8349     25.9208 300.2430123 +22.4372097      571.731     69.92344      1.554     3.58    -3.207473     19.74262     68.68042        11     1.106     0.804  80.06   0
       271    970.3437     23.4495 300.4902388 +22.6736143     450.2852     70.01257      1.241     2.73    -3.416443     19.74262     67.94654         7     0.844     0.583 -67.46   0
       272    743.7138     22.7159 300.4198324 +22.6055500     507.7562     70.08379      1.315     3.44    -2.767118     19.74262      70.3925        11     1.030     0.723  40.67   0
       273     66.9633    973.9570 299.9001889 +22.6755155     1724.105     70.04819     15.858    21.44     3.203624     19.74262     48.84067        86     5.511     2.317 -73.43   3
       274    503.7298   1019.2200 300.0212328 +22.8196722      198.525     69.97694      1.211     3.55    -6.082884     19.74262     42.87162         5     0.910     0.438  84.61  16
       275    118.0261   1018.1747 299.9016518 +22.7035241     1142.957     69.94128      5.713     5.79      21.7672     19.74262     33.92925         9     1.512     0.625  45.99  18
       276      3.0648   1016.4114 299.8665223 +22.6684728     821.2629     63.01824      7.826    10.67    -14.68752     19.74262     30.45146        11     2.114     1.501 -66.79  25
