#   1 NUMBER                 Running object number                                     
#   2 X_IMAGE                Object position along x                                    [pixel]
#   3 Y_IMAGE                Object position along y                                    [pixel]
#   4 ALPHA_J2000            Right ascension of barycenter (J2000)                      [deg]
#   5 DELTA_J2000            Declination of barycenter (J2000)                          [deg]
#   6 FLUX_APER              Flux vector within fixed circular aperture(s)              [count]
#   7 FLUXERR_APER           RMS error vector for aperture flux(es)                     [count]
#   8 FLUX_RADIUS            Fraction-of-light radii                                    [pixel]
#   9 FWHM_IMAGE             FWHM assuming a gaussian core                              [pixel]
#  10 BACKGROUND             Background at centroid position                            [count]
#  11 THRESHOLD              Detection threshold above background                       [count]
#  12 FLUX_MAX               Peak flux above background                                 [count]
#  13 ISOAREA_IMAGE          Isophotal area above Analysis threshold                    [pixel**2]
#  14 A_IMAGE                Profile RMS along major axis                               [pixel]
#  15 B_IMAGE                Profile RMS along minor axis                               [pixel]
#  16 THETA_IMAGE            Position angle (CCW/x)                                     [deg]
#  17 FLAGS                  Extraction flags                                          
         1    644.2637      7.1704 300.4125860 +22.5515514     1592.876     70.34339      1.987     4.91    -2.030828     19.84095      85.7432        27     1.432     1.286  37.93  16
         2    740.4899      7.2362 300.4425319 +22.5803989     689.6708     70.30756      2.038     6.21    -1.812516     19.84095     43.29005        14     1.371     0.918  10.29  16
         3    592.9686   1020.3284 300.0672844 +22.8269957     227.4006     68.91412      1.344     2.85    -5.257865     19.84095     43.30992         6     0.795     0.627 -34.18  16
         4    942.3525   1022.9799 300.1752435 +22.9326347      1088.09     58.51434      1.058     1.94    -5.528185     19.84095     217.3024        13     0.806     0.770  20.52  24
         5     97.2659   1022.3314 299.9125223 +22.6786422     1267.024     61.63866     13.469    19.18     1.559018     19.84095     39.40774        40     3.465     2.949  71.52  27
         6     86.4006   1016.4651 299.9110587 +22.6736963     2233.448     70.32548      8.833    24.91    0.2370202     19.84095      52.1776       106     5.886     2.928 -29.65  26
         7    730.6088   1011.4448 300.1130291 +22.8657738     380.7892     70.34339      1.447     3.08    -5.187645     19.84095     55.07576         6     0.917     0.409 -20.10   0
         8    766.1379   1006.2354 300.1257914 +22.8749451     590.9547     70.34339      1.264     2.66    -5.200968     19.84095     85.45171        10     0.862     0.782  30.68   0
         9    788.3094    999.9108 300.1347576 +22.8797861     6294.517     70.48651      1.250     2.16    -5.197493     19.84095     933.3438        28     1.022     0.987  72.96   0
        10    978.9802    999.1035 300.1944394 +22.9367741      197.081     70.23586      0.972     3.80    -5.864867     19.84095     48.54297         5     0.779     0.533  27.53   0
        11    833.8152    999.5977 300.1490361 +22.8933545     236.8228     70.18203      1.116     2.22    -5.183511     19.84095     45.08135         5     0.710     0.436  23.57   0
        12    920.7766    993.4521 300.1781370 +22.9176883     82.11194     70.34339      0.923     3.82    -5.243262     19.84095     28.37539         5     1.039     0.403  83.64   0
        13    100.2841    992.5939 299.9231447 +22.6710326     310.6522     70.25379      1.357     5.35   -0.3385891     19.84095     43.20033         9     1.246     0.649  55.82   0
        14    493.7004    988.4079 300.0467927 +22.7880337     239.9457     70.23586      1.188     2.90    -5.211117     19.84095     47.54887         5     0.699     0.486  -8.26   0
        15    840.5308    987.2472 300.1551513 +22.8918269     191.8733     70.30756      1.105     3.38    -5.145633     19.84095     37.74238         5     0.770     0.429 -66.52   0
        16    796.8483    981.9641 300.1432631 +22.8772011     869.1263     70.34339      1.255     2.14    -5.144446     19.84095     137.5262        12     0.859     0.770 -85.17   0
        17    979.8701    981.1382 300.2005687 +22.9318857     372.0084      70.3613      1.274     2.71    -5.719332     19.84095     48.27202         5     0.758     0.505  48.65   0
        18    834.9754    975.3169 300.1573062 +22.8867371     478.4379     70.28964      1.280     1.85    -5.114997     19.84095     74.29327         7     0.682     0.611   3.90   0
        19    943.3112    972.6466 300.1919377 +22.9184801     179.3287     70.30756      1.061     3.74    -5.325264     19.84095     40.48462         5     0.953     0.422 -77.11   0
        20    883.2619    966.7491 300.1751427 +22.8987695     249.1445      70.3792      1.156     3.06    -5.119455     19.84095     56.45698         7     0.915     0.648 -88.39   0
        21    734.3630    965.6152 300.1291254 +22.8537564     327.1966     70.32548      1.164     3.49    -5.165964     19.84095     57.52732         5     0.751     0.470 -12.46   0
        22    746.4633    963.0067 300.1337434 +22.8566403     269.8977     70.27172      1.202     4.05    -5.153632     19.84095     43.41818         8     1.062     0.666 -57.77   0
        23    447.3791    962.4203 300.0408472 +22.7666724      2350.22     70.32548      1.317     2.50    -5.145551     19.84095     285.6143        22     1.060     0.984 -66.27   0
        24    109.0931    951.2711 299.9393369 +22.6618441     191.0816     70.45076      1.155     3.19    -3.071031     19.84095     41.81573         6     0.845     0.586 -86.09   0
        25    172.7172    948.2032 299.9600986 +22.6800851     434.1448     70.25379      1.348     2.30     -3.29262     19.84095     61.55581         7     0.794     0.566  57.85   0
        26    150.1225    945.4524 299.9539753 +22.6725074     753.0557     70.34339      1.200     2.67    -3.399625     19.84095     115.6538        12     0.924     0.757  52.10   0
        27   1021.1652    933.6978 300.2288948 +22.9306588     1197.775      66.4195      1.197     2.09    -5.477788     19.84095     196.3833        15     0.934     0.807  77.09  16
        28     24.3190    935.0063 299.9183091 +22.6317064       298.08     70.25379      1.362     4.44    -5.402722     19.84095      34.5944         7     0.780     0.718 -70.87   0
        29    975.4266    932.1475 300.2151388 +22.9164931      1163.35     70.34339      1.123     2.24    -5.271436     19.84095     195.1391        13     0.902     0.797  50.60   0
        30    759.1753    926.4226 300.1496163 +22.8499614     380.6491     70.28964      1.386     4.26    -5.059749     19.84095     51.98277         8     0.994     0.648  37.34   0
        31    182.1911    926.4096 299.9701378 +22.6766881     323.0411     70.21792      1.604     3.45    -4.422688     19.84095     26.77207         5     0.773     0.445  19.32   0
        32    627.2808    920.4254 300.1105004 +22.8086510     2744.125     70.30756      1.412     2.62    -5.030607     19.84095     290.2482        28     1.118     1.095  44.82   0
        33    116.9384    921.6448 299.9514197 +22.6557151     234.5684     70.34339      1.244     3.01    -4.521883     19.84095     45.16529         5     0.748     0.429  20.28   0
        34    430.0801    917.7895 300.0499996 +22.7486831     309.3857     70.30756      1.490     4.62    -5.027479     19.84095     31.67865         7     1.037     0.583  16.08   0
        35    177.6190    914.6406 299.9725492 +22.6719423     920.8665     70.34339      1.544     3.02    -4.466995     19.84095     101.3811        15     1.028     0.923  72.72   0
        36    647.8489    912.4692 300.1194939 +22.8125436     376.3286     70.32548      1.136     3.07    -4.967862     19.84095     59.33139         9     1.016     0.611  33.15   0
        37    196.8362    911.7169 299.9794714 +22.6768787      279.909     70.30756      1.360     2.71     -4.48781     19.84095      51.9457         5     0.828     0.427  48.76   0
        38   1020.2253    900.0911 300.2395451 +22.9207305     749.6514     69.13313      1.270     2.34    -5.452401     19.84095     111.5296        12     1.032     0.757 -77.10  16
        39    803.3050    899.9962 300.1719673 +22.8556235     2359.517     70.23586      1.363     2.65    -4.690434     19.84095     260.2484        23     1.089     0.993  23.09   0
        40    520.2024    892.6005 300.0862357 +22.7685238     346.6407      70.1102      1.494     4.41    -4.818568     19.84095     42.00748         6     0.887     0.625 -32.15   0
        41    166.7421    890.7682 299.9769418 +22.6618343     606.8653     70.34339      1.385     3.63    -4.565906     19.84095     69.26949         9     0.895     0.728  20.48   0
        42    581.3837    886.1191 300.1073844 +22.7850338     275.3594     70.32548      1.524     4.31    -4.742366     19.84095     36.16434         5     0.957     0.554 -44.72   0
        43    316.4960    882.9927 300.0260105 +22.7045944     30608.79     70.21792      1.454     2.58    -4.760551     19.84095     3718.869        71     1.320     1.241  43.81   0
        44    574.2171    881.7354 300.1065811 +22.7816251     871.1144     70.30756      1.406     3.20    -4.710736     19.84095     88.74819        12     0.949     0.835 -81.55   0
        45    987.0465    880.7935 300.2354831 +22.9052391     415.1189     70.34339      1.211     2.48    -5.235278     19.84095     74.75794        10     0.859     0.716  84.69   0
        46    245.1517    881.2473 300.0044039 +22.6826631     296.3701      70.3613      1.442     4.68     -4.63981     19.84095     40.55571         5     0.878     0.707 -72.83   0
        47    603.1814    878.0543 300.1167942 +22.7892645      519.116     70.30756      1.387     3.86    -4.698333     19.84095     59.78143        11     0.974     0.864  17.27   0
        48      2.4947    877.8121 299.9301532 +22.6087655     510.2148     60.73277      1.160     2.90    -5.682489     19.84095     95.40118         9     1.024     0.610  34.28  24
        49    613.9585    876.3057 300.1207180 +22.7919982     291.5225     70.34339      1.317     4.18    -4.685508     19.84095     39.36918         6     0.797     0.626  62.70   0
        50    934.1932    873.2137 300.2214742 +22.8872090      295.112     70.21792      1.337     3.38    -4.793963     19.84095     35.27089         5     0.953     0.347 -45.72   0
        51    366.1792    860.2008 300.0488762 +22.7129833     17881.49     70.25379      1.464     2.73    -4.684339     19.84095      1784.56        55     1.288     1.228  84.91   0
        52    757.1992    862.5502 300.1697967 +22.8310441     410.4842     70.30756      1.388     5.02    -4.480952     19.84095     49.52871        12     1.127     0.817  43.40   0
        53    380.4900    860.5505 300.0532122 +22.7173814     1180.904     70.32548      1.522     2.76      -4.6893     19.84095     114.4242        16     0.967     0.961 -39.28   0
        54    889.0216    855.5641 300.2131411 +22.8685922     1528.698     70.34339      1.328     2.50    -4.390257     19.84095     204.5417        20     1.037     0.980  78.94   0
        55    377.5137    853.9866 300.0544233 +22.7146058     528.2488     70.27172      2.039     4.61     -4.63827     19.84095     33.65969         7     0.958     0.628  30.66   0
        56    647.1853    852.0923 300.1389436 +22.7950266     576.4854     70.25379      1.435     3.74    -4.579997     19.84095     51.91953        11     0.952     0.822 -27.17   0
        57    248.6072    852.1254 300.0149573 +22.6753552       443.32     70.27172      1.329     3.85    -4.551245     19.84095     60.59827         9     1.003     0.698  64.86   0
        58     53.1649    848.3891 299.9554616 +22.6155649     344.9625     70.32548      1.389     3.56     -5.20568     19.84095     45.25417         7     0.862     0.606  65.42   0
        59    494.3833    846.7820 300.0931182 +22.7476333     539.1193     70.30756      1.505     3.98    -4.683949     19.84095     53.05028         7     0.815     0.701  23.14   0
        60    895.3660    843.3406 300.2190974 +22.8669873     311.6547      70.3613      1.338     3.08    -4.382579     19.84095     47.95393         5     0.725     0.468  78.10   0
        61     82.2180    841.2479 299.9668075 +22.6222492     388.0224      70.3613      1.783     5.45    -4.863372     19.84095     41.61783         8     1.140     0.747 -14.83   0
        62    246.3226    836.5397 300.0193201 +22.6702020     307.9379      70.3792      1.422     4.78    -4.405874     19.84095     34.49254         8     1.268     0.510 -71.09   0
        63    569.2426    826.2173 300.1231051 +22.7642091     364.0123     70.34339      2.079     5.67    -4.543943     19.84095     29.64687         9     1.029     0.880 -88.70   0
        64    539.3737    824.7701 300.1142811 +22.7548278     189.6016     70.32548      1.131     2.92    -4.551211     19.84095     36.91177         5     0.726     0.453 -72.48   0
        65    561.0044    822.1877 300.1218528 +22.7605804     808.6804     70.18203      1.420     3.49    -4.538806     19.84095     74.67477        14     1.112     0.866  65.48   0
        66    955.4532    820.9209 300.2451243 +22.8785762     2733.236      70.3613      1.353     2.59    -4.670722     19.84095     315.4671        26     1.257     0.998 -44.01   0
        67    943.7836    812.5344 300.2442163 +22.8726686     922.7379     70.30756      1.281     3.53    -4.498189     19.84095     126.5183        12     1.031     0.822 -70.62   0
        68    306.9670    806.7598 300.0478611 +22.6798807     484.5088      70.3792      1.540     3.30    -4.090689     19.84095     61.87907        10     1.032     0.670  45.96   0
        69    770.1370    803.8914 300.1929200 +22.8180951     1564.186     70.41499      1.578     3.06    -4.361057     19.84095     136.7334        19     1.106     1.018 -70.02   0
        70    974.9849    802.4608 300.2572218 +22.8791349     964.5688     70.28964      1.356     2.60    -4.793424     19.84095     129.8873        16     1.037     0.839  -8.81   0
        71    155.9414    790.8025 300.0061224 +22.6299441     366.8848     70.28964      1.283     4.32    -4.346062     19.84095     45.40767         8     0.844     0.675 -38.74   0
        72    888.6068    780.6518 300.2373948 +22.8469663     84697.26     70.32548      1.453     2.65    -4.210139     19.84095     8912.345       110     1.355     1.316  58.73   0
        73    741.1238    781.0372 300.1913211 +22.8028316     521.5559     70.28964      1.537     3.58    -4.208177     19.84095     47.14081         9     0.881     0.774  -7.36   0
        74    921.2876    773.4687 300.2499182 +22.8547068     159.0369     70.46864      1.382     3.49    -4.229858     19.84095     38.73132         5     0.744     0.473  16.10   0
        75    574.9062    769.7841 300.1432334 +22.7497219     1085.161     70.25379      1.776     3.55    -4.306778     19.84095     81.58589        17     1.116     0.978 -79.50   0
        76    756.1680    766.8720 300.2006163 +22.8032806     5234.408     70.32548      1.486     2.93     -4.15074     19.84095     474.4107        32     1.275     1.112  61.60   0
        77    257.9222    762.4011 300.0470513 +22.6524351     2704.292     70.21792      1.509     2.83    -4.038929     19.84095     304.7716        28     1.220     1.087  70.34   0
        78    339.9026    760.4113 300.0731821 +22.6764836     610.2689     70.21792      1.517     3.75     -4.06472     19.84095     70.82545        12     1.004     0.816 -58.99   0
        79    548.5121    755.9385 300.1395246 +22.7378282     413.2855     70.41499      1.676     3.49    -4.240402     19.84095      37.6656         6     0.788     0.495  83.43   0
        80    539.8114    747.9763 300.1394078 +22.7329327      1996.97     70.32548      1.684     3.48    -4.200203     19.84095     161.3232        28     1.332     1.187 -13.89   0
        81    529.9755    741.7122 300.1383853 +22.7281836     751.3381     70.28964      1.652     3.95    -4.172447     19.84095     65.06045        15     1.170     0.878 -11.24   0
        82    923.1844    738.8950 300.2617599 +22.8453501     362.3592     70.25379      1.638     3.96     -4.22107     19.84095     33.08201         6     0.777     0.577 -53.07   0
        83    193.2154    738.2586 300.0347986 +22.6260807     296.8133     70.30756      1.363     3.83    -4.069945     19.84095     50.86468         7     0.975     0.610  71.48   0
        84    976.7056    732.6156 300.2804876 +22.8595977     335.0644     70.25379      1.246     4.59    -4.598993     19.84095     38.22212         7     1.023     0.585 -22.83   0
        85    454.7112    731.3941 300.1183266 +22.7026319     1027.776     70.23586      1.706     3.82    -4.140968     19.84095     94.76935        20     1.257     1.101  35.72   0
        86    553.4675    731.6408 300.1489723 +22.7323455     398.3311     70.30756      1.583     4.30    -4.087001     19.84095     34.88431         6     1.161     0.454   8.41   0
        87    108.8568    726.6417 300.0123721 +22.5974122     11335.68     70.30756      1.541     2.86    -4.059979     19.84095     1166.074        49     1.352     1.195  78.21   0
        88    539.8281    726.5831 300.1463734 +22.7268009     591.9975     70.32548      1.766     4.20    -4.064943     19.84095     57.12387        13     1.127     1.066  81.42   0
        89    957.2527    712.5397 300.2809549 +22.8479998     565.2076      70.3792      1.440     3.51    -4.308542     19.84095     73.99817        11     1.081     0.762  57.66   0
        90     54.9380    710.6321 300.0008354 +22.5766267     848.9056     70.34339      1.891     5.35    -4.057616     19.84095     64.38216        19     1.707     0.834 -84.63   0
        91    897.8956    705.0667 300.2648841 +22.8280537     600.7902     70.45076      2.482     4.43    -4.139481     19.84095     40.02862         8     0.931     0.813  37.11   2
        92    460.5347    698.9732 300.1306853 +22.6950810     596.1793     70.30756      2.138     3.91    -3.910688     19.84095     44.11236         5     0.888     0.493  81.72   2
        93    654.3985    696.9078 300.1916884 +22.7526684     277.1945     70.23586      1.581     5.91    -3.847429     19.84095     30.04949         6     1.333     0.737 -88.67   0
        94    504.3748    695.5386 300.1454413 +22.7072545     585.6285     70.32548      1.823     4.55    -3.856411     19.84095     50.02541         9     1.163     0.735   9.98   0
        95    937.5787    690.5530 300.2819748 +22.8357870     1902.079      70.3613      1.523     3.05    -4.148307     19.84095     180.0744        21     1.080     1.027  -6.06   0
        96    469.5571    690.8321 300.1361402 +22.6954540     966.8422      70.3613      1.571     3.48    -3.840188     19.84095     99.18845        14     1.015     0.903  26.74   0
        97     31.6454    684.8578 300.0019866 +22.5622431     2861.926      70.3613      1.509     2.78    -4.053933     19.84095     325.1617        29     1.282     1.047  79.36   0
        98    332.9009    677.8066 300.0978781 +22.6506950     5207.058     70.21792      1.652     3.38    -4.007592     19.84095     432.4467        37     1.334     1.236  62.85   0
        99    455.3336    674.7832 300.1369360 +22.6865812     5183.178     70.30756      1.732     3.36    -3.750716     19.84095     443.7236        44     1.421     1.334  77.57   0
       100    866.7037    668.1826 300.2671619 +22.8081095     990.4757     70.23586      1.557     3.80    -4.085373     19.84095     83.87177        17     1.134     0.997  62.98   0
       101    951.4067    665.7293 300.2943605 +22.8328053     7199.249     70.28964      1.518     2.99    -4.024578     19.84095     664.1568        36     1.233     1.137  64.30   0
       102    515.8697    664.3317 300.1591687 +22.7017518     6636.399      70.3792      1.716     3.54    -3.654626     19.84095     466.1104        41     1.381     1.273  66.55   0
       103    243.4264    660.1102 300.0758216 +22.6187558     785.2047     70.28964      1.616     4.01    -4.055606     19.84095     70.65463        18     1.165     1.057 -45.83   0
       104    447.5678    652.5686 300.1417456 +22.6778780     2634.479     70.32548      1.818     3.74    -3.680308     19.84095     183.7008        32     1.359     1.260  85.11   0
       105    790.3281    652.1907 300.2485668 +22.7806119     429.4666     70.30756      1.554     5.76    -3.730697     19.84095     38.10772         9     1.111     0.867   5.49   0
       106    425.7408    651.0066 300.1354645 +22.6708785     598.1038     70.28964      1.639     4.77    -3.713586     19.84095     50.59099        13     1.157     0.965 -38.79   0
       107    180.2141    650.3647 300.0593488 +22.5969799     435.3784     70.32548      1.654     5.40    -4.097484     19.84095     40.44665        10     1.049     0.952 -64.69   0
       108    866.9836    647.5408 300.2739632 +22.8022669     879.7336     70.28964      1.633     4.09      -3.9977     19.84095     72.10756        15     1.127     1.003 -56.42   0
       109    564.1199    640.0143 300.1820924 +22.7092542       115589     70.30756      1.764     3.63    -3.577219     19.84095     8696.566       156     1.617     1.585 -84.22   0
       110    748.0175    644.7759 300.2377988 +22.7657924     414.7388     70.32548      1.626     4.60     -3.61541     19.84095     49.28628        12     1.146     0.837  20.62   0
       111    250.3420    640.3049 300.0844119 +22.6151535     2069.736     70.39709      1.768     3.45    -4.047393     19.84095     168.9168        26     1.317     1.155  74.33   0
       112    454.7837    620.5392 300.1544066 +22.6708554     1582.843     70.28964      1.788     3.91    -3.556223     19.84095     113.8475        26     1.427     1.188   7.93   0
       113    851.6185    606.3948 300.2825568 +22.7858449     907.0825     70.28965      1.655     4.55    -3.770246     19.84095     70.96977        18     1.230     1.039  75.13   0
       114    722.9197    604.1532 300.2431932 +22.7466033     1453.765     70.34339      1.651     3.75    -3.450151     19.84095     108.3316        23     1.206     1.148  22.68   0
       115    511.1198    600.3777 300.1784894 +22.6819773     435.3705     70.28964      1.826     4.06    -3.439229     19.84095      34.6363         8     1.041     0.562 -56.22   0
       116    980.1141    597.8632 300.3253831 +22.8219215     767.3041     70.41499      1.492     3.30     -3.65502     19.84095     77.23488        12     1.001     0.788  73.66   0
       117    852.0011    596.5072 300.2858914 +22.7831205     1198.864     70.21792      1.707     4.21    -3.740216     19.84095     104.0616        23     1.321     1.113  67.10   0
       118    966.0329    597.1842 300.3212137 +22.8175050     501.2396     70.30756      2.301     3.95     -3.70009     19.84095     42.44288         7     0.999     0.684  76.99   0
       119    605.4620    594.5380 300.2097487 +22.7086084     436.8122      70.3613      1.908     3.71    -3.385113     19.84095     29.31248         6     0.995     0.397 -19.32   0
       120    889.9940    591.3688 300.2994023 +22.7930372     2543.574     70.32548      1.610     3.34    -3.769821     19.84095     220.9331        24     1.225     1.065  42.07   0
       121    122.7994    582.2902 300.0636481 +22.5602218     658.8615     70.21792      1.915     3.40    -4.154106     19.84095     61.73035        11     1.079     0.694 -88.81   0
       122    981.7841    581.8334 300.3311163 +22.8178178     385.1667     70.30756      1.418     3.42    -3.635438     19.84095     45.13602         8     0.900     0.653  -4.78   0
       123    663.6038    562.2931 300.2383335 +22.7167951     452.0351     70.23586      1.551     4.10    -3.276786     19.84095     50.55168        11     0.974     0.908   4.49   0
       124    724.3597    554.4111 300.2598154 +22.7327554     417.6377     70.32548      1.749     5.08    -3.353482     19.84095       43.647         9     1.179     0.809 -61.34   0
       125    977.8098    554.2772 300.3388372 +22.8087111      355.178     70.28964      1.365     3.90    -3.615165     19.84095     39.35175         6     0.797     0.547 -39.44   0
       126    881.2556    550.5639 300.3099466 +22.7786986     549.4522     70.34339      1.661     6.38    -3.600856     19.84095     48.56477        13     1.206     0.946 -74.91   0
       127    865.6428    546.5357 300.3063907 +22.7728607     348.3849     70.30756      1.716     5.58    -3.575402     19.84095     37.90615         6     0.987     0.889  19.51   0
       128    609.9529    544.8975 300.2272863 +22.6957082     1817.386      70.3613      1.810     4.80    -3.049691     19.84095      122.783        24     1.351     1.176 -11.04   0
       129   1021.1540    523.7030 300.3622925 +22.8129197     783.5714     66.47638      1.659     4.57    -3.276925     19.84095     68.59598        14     1.075     0.946  42.35  16
       130    979.6875    522.5156 300.3497486 +22.8001499     357.7001     70.45076      1.327     3.69    -3.386368     19.84095     46.73632        12     1.054     0.787  40.27   0
       131    720.7545    519.0420 300.2701909 +22.7215194     593.5594     70.39709      1.774     6.28    -3.221876     19.84095     47.27094        11     1.276     0.870 -79.53   0
       132    287.1472    513.1581 300.1371897 +22.5897376     2075.988     70.32548      1.808     3.63    -3.382382     19.84095     166.9727        30     1.463     1.205 -78.95   0
       133   1019.8244    510.9273 300.3660311 +22.8088507     2380.857     70.00231      1.509     3.10    -3.078148     19.84095     209.3778        27     1.194     1.098  42.40  16
       134    234.4174    507.8670 300.1225205 +22.5723922     4269.554     70.30756      1.759     3.40    -3.209909     19.84095     389.9118        36     1.412     1.256 -87.39   0
       135    374.9904    501.9341 300.1681490 +22.6128815     2712.391     70.28964      1.872     3.91    -3.240152     19.84095      195.972        35     1.481     1.315  72.58   0
       136    999.7917    502.1337 300.3626428 +22.8003202     966.2676     70.32548      1.523     3.41    -3.057789     19.84095     84.90982        17     1.056     1.006  12.78   0
       137    619.1616    498.4990 300.2452356 +22.6851519     10495.62     70.34339      1.855     4.04    -3.042867     19.84095     771.4629        54     1.499     1.430  62.74   0
       138    952.8253    480.6716 300.3549755 +22.7800774     395.0298     70.34339      1.471     5.69    -3.207407     19.84095      42.8579        10     1.372     0.664  77.40   0
       139    174.1809    478.8214 300.1132427 +22.5459793     1215.361     70.32548      1.785     3.40    -3.524778     19.84095     121.5162        22     1.263     1.058  60.95   0
       140    559.8312    467.9977 300.2366817 +22.6585999     3725.089     70.28964      1.969     4.17    -3.032945     19.84095     228.4486        39     1.512     1.345  63.76   0
       141    973.2908    467.9231 300.3654995 +22.7825487     630.4658     70.46864      1.656     4.45    -2.993827     19.84095     51.36236        16     1.136     0.997 -48.06   0
       142    764.1268    456.6347 300.3039842 +22.7166050     716.5065     70.30756      1.886     5.70    -3.147125     19.84095     49.34209        14     1.127     0.996  80.79   0
       143    466.5770    454.3129 300.2121121 +22.6266971     3447.379     70.27172      1.927     4.26    -2.847778     19.84095      239.185        36     1.432     1.359  54.40   0
       144    956.1130    448.3877 300.3664930 +22.7717877     370.8385     70.27172      1.731     4.62     -3.01144     19.84095     33.98426         7     1.039     0.583 -88.10   0
       145    858.2878    448.5276 300.3359560 +22.7425060      741.644     70.46864      1.739     4.76    -3.247121     19.84095     67.56955        14     1.096     0.988  26.99   0
       146    831.1683    435.7977 300.3316422 +22.7307197     251.3292     70.28964      1.488     3.61    -3.173068     19.84095     34.82487         5     0.744     0.697  44.13   0
       147    354.0632    433.5951 300.1838504 +22.5869935     1510.727     70.28964      1.972     4.54    -2.968735     19.84095     110.7641        27     1.453     1.232  82.10   0
       148     72.8437    431.1846 300.0972439 +22.5018952     595.0159     70.34339      1.653     3.79    -3.377727     19.84095     54.56369        11     0.982     0.820  68.04   0
       149    323.3691    423.1379 300.1777047 +22.5747826     16769.16     70.34339      1.892     3.83    -2.957676     19.84095     1254.337        67     1.568     1.490  65.55   0
       150    857.9654    419.8494 300.3451749 +22.7341713     727.2484      70.3613      1.670     5.43    -3.094527     19.84095     51.36258        17     1.279     1.022  80.76   0
       151     19.8433    411.0611 300.0873239 +22.4802120     2834.064     70.32548      1.705     3.50    -3.749808     19.84095      240.478        33     1.346     1.263  89.90   0
       152    773.1355    410.1650 300.3218911 +22.7059598     280.0714     70.32548      1.999     5.92    -3.040396     19.84095     31.76042         6     1.419     0.694 -50.80   0
       153    422.4034    408.3695 300.2132998 +22.6002589     335.8281     70.28965      1.876     5.14     -2.86375     19.84095     26.97777         7     1.021     0.733  47.97   0
       154    733.5887    402.5597 300.3120438 +22.6919190      1107.41     70.32548      1.980     4.81    -2.998265     19.84095     76.97534        24     1.359     1.224 -78.28   0
       155    395.5862    387.5883 300.2117107 +22.5862493     1275.657     70.25379      2.048     4.95    -2.956918     19.84095     74.42921        25     1.396     1.266 -85.07   0
       156    834.2733    380.6348 300.3505335 +22.7158044     285.0727     70.30756      1.352     4.67    -2.982196     19.84095     39.77282         7     1.017     0.608  47.90   0
       157    471.4120    366.9338 300.2420065 +22.6030672     661.7606     70.28964      1.869     5.61    -2.582498     19.84095     47.48373        17     1.230     1.117  12.41   0
       158    715.9728    358.4333 300.3208932 +22.6739642     1347.207     70.34339      2.008     4.59    -2.916732     19.84095     99.07063        24     1.345     1.182  79.76   0
       159    977.2393    352.4840 300.4042408 +22.7505609     1762.529     70.28964      1.764     3.86    -2.625911     19.84095     123.5816        26     1.316     1.220  88.72   0
       160    424.9773    343.3818 300.2352122 +22.5823781       321.96     70.32548      1.428     4.85    -3.001763     19.84095     41.77299         7     1.209     0.551 -31.76   0
       161    130.5779    337.0142 300.1457676 +22.4922164     345.8539     70.30756      1.662     4.23    -2.870427     19.84095     32.57195         6     0.966     0.529  14.64   0
       162     99.5308    336.6638 300.1362374 +22.4827973     742.0861      70.3792      1.688     4.20    -2.840271     19.84095     62.29246        16     1.105     1.007 -19.91   0
       163    179.7716    326.2288 300.1645540 +22.5038861     2140.894     70.28964      0.684     1.34    -2.751204     19.84095     895.5391         7     0.574     0.421  22.09   0
       164    885.7512    308.6274 300.3899666 +22.7105435     1123.504     70.34339      1.915     5.66    -2.687731     19.84095     77.53886        22     1.507     1.122 -76.22   0
       165    304.4950    306.6673 300.2096708 +22.5356970     1189.495     70.46864      1.855     4.43     -2.74006     19.84095      92.3606        23     1.331     1.245  16.07   0
       166    382.4848    301.7617 300.2355139 +22.5576850     643.2944     70.30756      1.879     5.12    -2.866731     19.84095     42.15685        12     1.140     0.989 -81.52   0
       167    199.7721    293.4453 300.1814153 +22.5004817      431.413      70.3613      1.763     4.95    -2.549936     19.84095     42.70752         9     0.931     0.782  30.65   0
       168    737.0737    290.4610 300.3495429 +22.6607648     1016.695      70.3613      1.871     3.99    -2.494947     19.84095     74.74999        17     1.150     1.059 -35.12   0
       169    801.8862    289.8051 300.3699460 +22.6800022     363.2235     70.25379      1.816     5.03    -2.685023     19.84095     28.90128         6     1.075     0.667   7.99   0
       170   1008.2339    282.5228 300.4366294 +22.7397389     464.1387     70.32548      1.617     4.28     -2.45714     19.84095     52.46524        11     1.060     0.955 -79.35   0
       171    740.5636    282.1944 300.3533145 +22.6594361     460.5208     70.34339      1.880     5.95    -2.489612     19.84095      34.9595         8     1.258     0.793  -5.15   0
       172    661.5277    281.3104 300.3289880 +22.6354903     617.2584     70.48651      1.794     5.03     -2.71174     19.84095     53.52821        16     1.366     1.082 -25.43   0
       173    856.9684    272.3596 300.3927749 +22.6914965     827.4714      70.3792      1.745     5.57    -2.601707     19.84095     62.03039        17     1.186     1.133  44.39   0
       174    588.3822    272.9016 300.3089469 +22.6111460     395.7771     70.25379      2.099     5.53    -2.428118     19.84095     37.77371         7     1.044     0.825  66.32   0
       175    868.9948    270.9976 300.3969651 +22.6947089     419.0364     70.14613      1.689     6.30    -2.595599     19.84095     33.68402         7     1.149     0.970 -45.78   0
       176    985.3204    261.7098 300.4362433 +22.7268920     682.0596     70.45076      1.693     5.11    -2.501504     19.84095     54.48575        14     1.116     0.926 -21.60   0
       177    219.9107    255.4718 300.2000038 +22.4956277     303.4225     70.48651      1.556     5.04    -2.518426     19.84095     51.58282         8     1.087     0.782  32.57   0
       178     81.7431    249.9944 300.1588564 +22.4525962     1143.455     70.28964      1.772     4.59    -2.319137     19.84095     95.20226        23     1.390     1.185  55.74   0
       179    904.6984    247.0607 300.4158659 +22.6985276     357.3476     70.39709      1.376     4.69    -2.564444     19.84095     38.98658         5     1.184     0.554  12.40   0
       180     31.7115    247.1694 300.1442362 +22.4367702     270.5111     70.30756      1.396     4.30    -1.994821     19.84095      36.0193         5     0.851     0.619 -48.02   0
       181    239.1422    243.5220 300.2098605 +22.4979681     3310.235      70.3613      1.925     3.54    -2.530397     19.84095     278.5566        36     1.423     1.384 -88.28   0
       182     23.4431    238.1004 300.1446130 +22.4316871     605.4987     70.30756      1.472     3.93    -1.861986     19.84095      63.3336        10     1.021     0.717  38.35   0
       183    222.2247    235.3496 300.2072560 +22.4905473     325.2932     70.34339      1.781     4.61    -2.509583     19.84095     29.82058         6     1.196     0.504  46.80   0
       184    882.9702    224.4934 300.4164209 +22.6855315     1957.618     70.25379      1.840     4.03    -2.515908     19.84095     133.2918        32     1.405     1.278  42.93   0
       185    986.7073    223.1777 300.4491873 +22.7162309     1531.776     70.25379      1.675     3.74    -2.493253     19.84095      131.082        22     1.271     1.072 -83.40   0
       186    357.6193    211.8058 300.2569894 +22.5244035     428.8982     70.28964      1.719     3.87    -2.447075     19.84095      36.6308         5     1.040     0.412  74.42   0
       187    123.4112    209.4289 300.1849683 +22.4534612     210.1534     70.32548      1.206     3.94    -2.311406     19.84095     32.70221         5     1.020     0.437  14.64   0
       188    483.9304    207.1912 300.2977761 +22.5609570     943.9391     70.30756      1.975     5.15    -2.248347     19.84095     72.87613        24     1.454     1.244   0.91   0
       189    258.0733    187.3761 300.2339712 +22.4875325     3268.449      70.3613      1.914     3.86    -2.311985     19.84095     242.9025        37     1.426     1.389  72.80   0
       190    109.2273    187.2248 300.1877698 +22.4428339     420.8573     70.28964      1.290     4.30    -2.153668     19.84095     44.41153         7     1.085     0.485  29.58   0
       191    503.9936    172.5087 300.3152770 +22.5570122     3452.304     70.23586      2.009     4.30     -2.08514     19.84095     219.2507        38     1.487     1.436  75.90   0
       192    756.0789    162.2390 300.3970928 +22.6296195     503.4106     70.30756      2.072     6.02    -2.255277     19.84095     31.47197         8     1.129     0.937  10.45   0
       193    632.3698    152.5071 300.3617261 +22.5897494      3582.15     70.25379      1.951     4.10    -2.237738     19.84095     256.5224        40     1.530     1.385  50.78   0
       194    407.2302    152.2411 300.2917524 +22.5221789     777.8286      70.3613      1.867     4.87    -1.880616     19.84095     60.73593        15     1.207     1.112  -3.87   0
       195    673.4754    150.3357 300.3752297 +22.6014452     496.0463     70.39709      1.680     5.94    -2.111322     19.84095     38.77741        12     1.249     0.810 -13.06   0
       196    688.7502    146.0595 300.3813742 +22.6047941     343.5547      70.3792      1.772     3.48    -2.095966     19.84095     30.64274         5     1.009     0.513  53.42   0
       197    676.5125    137.2239 300.3804309 +22.5985879      1624.38     70.28964      2.043     4.71    -2.061415     19.84095     101.4472        28     1.426     1.279  45.12   0
       198    691.5491    135.8643 300.3855547 +22.6027034     517.9201      70.3792      1.867     3.99    -2.057576     19.84095     49.77575         9     1.053     0.825 -25.84   0
       199    762.8449    128.9772 300.4099960 +22.6220881     802.2424      70.3613      1.712     4.27    -2.117232     19.84095     85.87184        17     1.315     0.942  -5.63   0
       200    507.0017    121.6413 300.3327221 +22.5433038     618.8746     70.32548      1.928     6.99    -2.056392     19.84095     37.53654        15     1.185     1.156   3.22   0
       201    410.3700    120.4568 300.3030440 +22.5139929     381.6207     70.34339      1.635     4.93    -1.920619     19.84095     36.58268         9     1.236     0.709 -33.46   0
       202    181.9573    109.9066 300.2354577 +22.4424636     2154.857     70.34339      1.827     3.64    -2.114421     19.84095     174.9457        30     1.439     1.215 -50.89   0
       203    743.1565    102.7190 300.4123844 +22.6086424     412.5455     70.30756      1.578     4.28    -1.941665     19.84095     40.94351         8     1.002     0.624 -14.81   0
       204    298.3366    101.3582 300.2744032 +22.4749145     669.6669     70.30756      2.004     6.06    -2.108844     19.84095     59.53626        12     1.508     0.740 -82.27   0
       205    780.9429     97.2057 300.4259444 +22.6183789     430.2132     70.28964      1.648     3.43    -1.971333     19.84095     46.42897         6     0.889     0.527  88.69   0
       206    800.8722     93.4626 300.4333681 +22.6232736      1211.38      70.3613      1.886     3.85    -1.990258     19.84095     95.72182        20     1.183     1.109  15.17   0
       207    184.1080     88.8508 300.2429579 +22.4370646     535.1183      70.3792      1.937     5.84    -2.103008     19.84095     38.79052        11     1.170     0.820  17.13   0
       208    975.5385     86.7123 300.4899993 +22.6736498     399.8362     70.41499      1.749     3.80     -2.56143     19.84095     41.55671         7     0.956     0.515 -29.29   0
       209    749.1692     86.0393 300.4196697 +22.6056500      494.011     70.32548      1.989     3.13    -1.910753     19.84095     40.02675         5     0.878     0.637  66.48   0
       210    601.4883     71.2930 300.3784668 +22.5571601     340.6797     70.48651      1.647     5.23    -2.203561     19.84095     36.66776         7     1.173     0.658  33.16   0
       211    764.5703     66.2114 300.4309007 +22.6045651     360.7484     70.32548      1.627     5.99     -1.89645     19.84095      28.5147         6     1.075     0.939  85.07   0
       212    573.5496     63.9047 300.3721671 +22.5466642     995.3041     70.39709      1.804     4.26    -2.379033     19.84095     77.29303        22     1.318     1.168  14.68   0
       213     11.6650     60.7942 300.1984965 +22.3772814     293.9311     70.30756      1.375     3.79    -1.962049     19.84095     42.78172         5     0.895     0.460  42.11   0
       214    531.3963     57.7198 300.3610542 +22.5322535     911.4854     70.23586      2.080     5.69    -2.489945     19.84095     60.56748        18     1.392     1.280 -27.23   0
       215    636.1405     54.4392 300.3947229 +22.5627015     636.4182     70.32548      1.672     3.94    -2.056994     19.84095     63.35978        16     1.075     1.058 -49.01   0
       216    456.5655     48.0723 300.3409002 +22.5070522     1296.085     70.32548      2.144     5.45    -2.269686     19.84095     91.39159        27     1.533     1.250  78.88   0
       217    103.8263     46.3961 300.2317893 +22.4007973      790.213     70.28964      1.644     3.46    -2.111497     19.84095     83.58397        17     1.170     0.942  42.74   0
       218    164.7156     28.1575 300.2566220 +22.4138251     554.8497     70.28964      1.690     4.11    -2.086524     19.84095     48.03964        13     1.151     0.852 -70.10   0
       219    126.2760     19.7754 300.2473982 +22.3998897     312.9716     70.34339      1.275     4.98    -2.114163     19.84095     37.84679         7     1.200     0.586 -14.67   0
       220    103.0662   1021.2115 299.9146883 +22.6800650     820.5826     66.17249      4.028     5.23     1.488311     19.84095     29.02425         9     1.116     0.694  77.63  17
