#   1 NUMBER                 Running object number                                     
#   2 X_IMAGE                Object position along x                                    [pixel]
#   3 Y_IMAGE                Object position along y                                    [pixel]
#   4 ALPHA_J2000            Right ascension of barycenter (J2000)                      [deg]
#   5 DELTA_J2000            Declination of barycenter (J2000)                          [deg]
#   6 FLUX_APER              Flux vector within fixed circular aperture(s)              [count]
#   7 FLUXERR_APER           RMS error vector for aperture flux(es)                     [count]
#   8 FLUX_RADIUS            Fraction-of-light radii                                    [pixel]
#   9 FWHM_IMAGE             FWHM assuming a gaussian core                              [pixel]
#  10 BACKGROUND             Background at centroid position                            [count]
#  11 THRESHOLD              Detection threshold above background                       [count]
#  12 FLUX_MAX               Peak flux above background                                 [count]
#  13 ISOAREA_IMAGE          Isophotal area above Analysis threshold                    [pixel**2]
#  14 A_IMAGE                Profile RMS along major axis                               [pixel]
#  15 B_IMAGE                Profile RMS along minor axis                               [pixel]
#  16 THETA_IMAGE            Position angle (CCW/x)                                     [deg]
#  17 FLAGS                  Extraction flags                                          
         1    526.3000     13.8390 300.3609232 +22.5321066     765.6277     70.19766      1.407     2.69    -1.236762     19.79985     105.3051        12     0.901     0.827 -38.48   0
         2    631.6808     10.4353 300.3948320 +22.5626990     624.9377     70.12614      1.284     3.00    -1.282874     19.79985     83.88281        11     0.920     0.789  11.09   0
         3    226.9231      9.6491 300.2691686 +22.4411787     197.4675     70.17979      1.232     3.46    -1.596984     19.79985     40.99949         5     0.818     0.422  18.53   0
         4    452.0081      4.2440 300.3409173 +22.5070896     1342.257      67.5938      1.504     3.14    -1.076665     19.79985     135.3293        19     1.179     0.944 -87.77  24
         5     99.0968      2.3899 300.2318027 +22.4007690     826.3216     60.12899      1.341     3.08    -1.564575     19.79985     90.82992        14     1.008     0.885  72.46  24
         6    353.6309      1.7278 300.3111321 +22.4768848     2773.762     56.80315      0.724     0.83    -1.185681     19.79985     1449.247         8     0.611     0.425  25.49  24
         7    658.5376   1015.7189 300.0764430 +22.8593292     4054.798     70.28696      1.106     1.97    -4.697529     19.79985     691.5189        22     0.950     0.861  53.48   0
         8    240.5885   1022.4941 299.9442285 +22.7357635     1824.223     60.68969      9.431    21.36     1.941289     19.79985     66.21209       106     6.520     1.943   4.38  26
         9     83.8752    983.2281 299.9083303 +22.6774312     2382.525     70.19766     19.896    57.07     3.849699     19.79985     62.03865       519    11.721     7.712 -28.25  19
        10     70.5434   1021.4742 299.8917349 +22.6843778     2483.103     65.11713      9.579    24.41     5.935575     19.79985     65.93982       151     5.565     2.973  22.58  27
        11     89.4537   1019.0954 299.8983823 +22.6893794      3552.81     70.25126     23.998    48.13      9.88954     19.79985     70.60294       436    11.097     5.793   8.68  27
        12    538.0579   1009.8367 300.0408577 +22.8214748     333.8405     70.17979      1.182     2.49    -4.569334     19.79985     52.34065         6     0.840     0.472 -31.92   0
        13    249.7825   1010.1041 299.9511211 +22.7349761     167.4054     70.09035      1.034     2.17      0.16546     19.79985     66.61964         6     0.727     0.527 -50.08   0
        14    241.5228   1015.5775 299.9467715 +22.7340628     1231.379     70.16191      6.269    10.44     1.438847     19.79985     43.08002        26     3.323     0.915  50.12  19
        15    567.1278   1006.4976 300.0509919 +22.8292450     846.8512     70.30481      0.990     1.77    -4.595611     19.79985     168.4096         9     0.721     0.679 -30.34   0
        16    128.2070   1006.9034 299.9143895 +22.6975328     905.7819     70.07246      7.697     7.33     9.584302     19.79985     37.03421        10     1.545     0.973  19.03   1
        17    460.8327   1002.9408 300.0190765 +22.7963108     596.4968     70.19766      1.095     1.92    -4.637705     19.79985     131.3967         7     0.694     0.570  79.93   0
        18    391.5618   1001.0554 299.9981452 +22.7749686     3755.035     70.17979      1.095     1.86     -4.52675     19.79985     681.3944        18     0.872     0.831 -79.19   0
        19    701.8253    989.9293 300.0983216 +22.8649264     161.0789     70.17979      1.340     3.80    -4.657185     19.79985     38.24375         5     1.291     0.322  60.69   0
        20    423.7156    987.8077 300.0124596 +22.7808278     207.0484     70.10825      1.182     2.60    -4.603538     19.79985     62.40507         5     0.916     0.435  81.58   0
        21    937.6927    979.5748 300.1751834 +22.9327274     1287.333     70.12614      1.001     1.73    -5.189472     19.79985     238.0148        15     0.976     0.761 -60.41   0
        22    620.4417    974.5791 300.0779817 +22.8360979     150.0288     70.21553      1.058     3.51    -4.649162     19.79985     37.37088         5     1.050     0.338  21.23   0
        23    726.8276    968.6119 300.1130505 +22.8663161     389.4143     70.17979      1.528     4.11     -4.64427     19.79985     83.99054         6     1.453     0.332  57.60   0
        24     84.8942    971.5492 299.9124497 +22.6743925     2088.405     70.25126     10.081    24.09     2.473479     19.79985     54.06857       146     6.112     2.637 -12.26   3
        25    761.3984    962.6840 300.1257487 +22.8749899     553.3978     70.09035      0.991     1.85    -4.780773     19.79985     108.0069         8     0.781     0.553  18.42   0
        26    783.6078    956.3420 300.1347324 +22.8798349     6377.048     70.16191      1.028     1.76    -4.832131     19.79985     1148.823        24     0.885     0.846  16.93   0
        27    974.6595    955.7756 300.1944589 +22.9369865     193.5605     70.17979      0.910     2.70    -4.787632     19.79985     44.87164         5     0.704     0.463  79.24   0
        28    829.2316    956.1702 300.1490026 +22.8934744     330.6249     70.17979      1.131     2.16    -4.961728     19.79985     53.65778         6     0.690     0.559  52.60   0
        29     95.0572    948.1028 299.9232402 +22.6707307     479.0446     70.26911      1.165     2.14   -0.2684838     19.79985     71.60717         7     0.796     0.532  47.01   0
        30    488.9513    944.5732 300.0468315 +22.7880224     270.2557     70.19766      1.309     2.87    -4.721778     19.79985     38.92323         6     0.773     0.492  -4.67   0
        31    792.0905    938.5168 300.1431795 +22.8772667     815.8044     70.30481      1.115     1.89    -4.651002     19.79985     166.2928        11     0.954     0.685 -59.82   0
        32    975.2468    937.3540 300.2006409 +22.9318760     287.1441     70.19766      1.069     2.99    -4.691623     19.79985     40.58784         5     0.723     0.457  14.42   0
        33    644.5737    935.7162 300.0981494 +22.8321966      289.165     70.16191      1.089     2.74    -4.582639     19.79985     39.72161         5     0.693     0.481  76.61   0
        34    830.1284    931.8887 300.1571889 +22.8867774     467.1313     70.34048      1.131     1.83    -4.657462     19.79985     92.85614         8     0.750     0.596  36.75   0
        35    878.6913    923.2015 300.1751508 +22.8988533     315.0394     70.09035      1.149     3.52    -4.698279     19.79985     65.30941         7     1.086     0.450 -50.82   0
        36    730.0244    922.0283 300.1292151 +22.8539140      406.412     70.17979      1.078     1.77    -4.559951     19.79985     123.0589         7     0.794     0.469 -40.14   0
        37    442.6921    918.7761 300.0408401 +22.7667387     2451.206     70.10825      1.111     1.84    -4.688957     19.79985     477.2385        20     0.930     0.843  65.85   0
        38    220.2361    907.5066 299.9753458 +22.6967057     270.7683     70.16191      1.324     4.36    -3.870233     19.79985     36.79644         5     1.088     0.497  59.19   0
        39    167.9147    904.5579 299.9600485 +22.6801448     396.7896     70.14403      1.115     2.63    -2.870366     19.79985     80.49749         7     0.829     0.614 -74.83   0
        40    145.0787    901.5475 299.9539340 +22.6724225     950.2724     70.19766      1.140     1.99    -3.028519     19.79985     166.8358        15     1.042     0.782  52.33   0
        41     19.5838    891.2921 299.9182978 +22.6317818     259.6484     70.10825      1.253     3.60    -4.240846     19.79985     42.51704         5     0.925     0.485 -83.42   0
        42   1016.7106    890.2345 300.2289121 +22.9307867     1079.133     70.16191      0.957     1.67    -4.219759     19.79985     260.3289        11     0.769     0.652 -80.62   0
        43    970.8464    888.6801 300.2151171 +22.9165868     1171.445     70.16191      0.995     1.67    -4.361727     19.79985     269.4997        11     0.744     0.687 -56.34   0
        44    754.5513    882.7938 300.1496281 +22.8500181      338.624     70.17979      1.112     3.52    -4.242079     19.79985     56.35919         8     1.007     0.606  78.51   0
        45    622.6003    876.7497 300.1105063 +22.8086909     2819.077     70.14403      1.121     1.99    -4.476151     19.79985     470.3762        22     1.010     0.850  74.92   0
        46    424.5063    873.5629 300.0499022 +22.7483174     326.1793     70.16191      1.224     3.14    -4.430975     19.79985     71.65727         8     0.936     0.700  33.61   0
        47    172.8099    870.7104 299.9725870 +22.6719174     985.0278     70.12614      1.195     2.08    -3.861946     19.79985     156.5748        12     0.874     0.737  56.22   0
        48    642.9809    869.2253 300.1193006 +22.8126489     382.7054     70.19766      1.219     3.28    -4.423324     19.79985     70.92523         9     0.921     0.675 -21.31   0
        49    192.1183    867.7971 299.9795345 +22.6768820     356.4936     70.09035      1.139     1.81    -3.988715     19.79985     74.15153         6     0.717     0.491 -41.36   0
        50   1015.5608    856.4301 300.2395585 +22.9207383      661.311     70.17979      0.995     1.94    -4.016731     19.79985     106.7823         9     0.814     0.571 -86.07   0
        51    798.5338    856.3423 300.1719401 +22.8556238     2527.899     70.21553      1.082     1.97    -4.102062     19.79985      411.613        19     0.906     0.829  67.10   0
        52    206.9120    850.4442 299.9897793 +22.6763527     296.1373     70.17979      1.016     2.13    -4.071805     19.79985     56.00481         6     0.699     0.581  58.89   0
        53    515.3979    848.9482 300.0861906 +22.7685439     367.8521     70.16191      1.295     2.54    -4.477777     19.79985      56.9557         9     0.857     0.671  20.18   0
        54    161.9564    847.0247 299.9769240 +22.6618706     600.5068     70.21553      1.098     2.01    -4.017376     19.79985     119.2446         9     0.750     0.663 -77.71   0
        55    577.0788    842.3325 300.1075393 +22.7851588     240.7504     70.28696      1.211     2.60    -4.361502     19.79985     47.27754         7     0.725     0.638  25.06   0
        56    311.6753    839.1857 300.0260053 +22.7045863      30948.7     70.19766      1.172     1.97     -4.24539     19.79985     5263.193        61     1.110     1.057  74.37   0
        57    569.4874    838.1265 300.1065455 +22.7816743      860.601     70.32265      1.116     2.10    -4.338078     19.79985     150.4306        13     0.907     0.759 -72.23   0
        58    982.2441    837.1329 300.2354510 +22.9052088     358.9569     70.16191      1.050     2.17    -4.123561     19.79985     95.49674         9     0.837     0.618  79.86   0
        59    239.9173    837.1526 300.0043620 +22.6824557     295.4743     70.19766      1.215     3.53    -4.141743     19.79985     54.67937         8     0.994     0.646   7.61   0
        60    598.4454    834.1766 300.1168445 +22.7892316     580.5599     70.21553      1.144     2.20    -4.344193     19.79985     91.44541         9     0.785     0.678 -87.47   0
        61    609.4089    832.6649 300.1207493 +22.7920880     369.2847     70.16191      1.062     3.17    -4.349984     19.79985     55.65345        10     0.992     0.718  86.02   0
        62    714.5239    828.7510 300.1547523 +22.8225048     223.9837     70.17979      1.130     2.84    -4.148825     19.79985     45.73454         5     0.729     0.429 -64.24   0
        63    752.2048    818.9951 300.1696637 +22.8310100     448.7922     70.03664      1.159     3.44    -4.101367     19.79985     91.19689         9     1.164     0.476  39.72   0
        64    361.4169    816.4131 300.0488821 +22.7129928     18486.18     70.12614      1.178     2.12    -4.161271     19.79985      2515.34        49     1.100     1.025  72.43   0
        65    375.7437    816.7625 300.0532235 +22.7173941      1178.51     70.17979      1.234     2.16    -4.160975     19.79985     193.4273        14     0.886     0.876  52.49   0
        66    884.3970    811.9294 300.2131516 +22.8686324     1694.521     70.12614      1.116     1.83    -4.115808     19.79985     322.9465        19     0.963     0.874  84.87   0
        67    372.3104    811.0718 300.0540078 +22.7147319     398.4715     70.34048      1.527     3.39    -4.142908     19.79985     43.97544         7     0.852     0.591 -55.27   0
        68    642.3347    808.2527 300.1389446 +22.7949653     594.7349     70.21553      1.182     2.60    -4.205692     19.79985     84.85768         9     0.854     0.665  77.51   0
        69    243.8254    808.3159 300.0149609 +22.6753646     485.8486     70.16191      1.181     2.51     -4.17143     19.79985     77.12089         9     0.882     0.624  65.64   0
        70     48.4591    804.0286 299.9556633 +22.6154596     373.6523     70.17979      1.038     2.21    -4.199917     19.79985     64.72768         6     0.727     0.494  83.26   0
        71    489.5216    802.9763 300.0931009 +22.7475942     581.5755     70.16191      1.223     2.40    -4.138899     19.79985     79.53261         8     0.741     0.672  21.62   0
        72    890.5592    800.0386 300.2189421 +22.8670675     352.4042     70.25126      1.212     4.34    -4.105545     19.79985     54.99518         7     1.030     0.637  50.24   0
        73    435.0066    798.1454 300.0777136 +22.7298463     325.8104     70.17979      1.507     5.21    -4.096981     19.79985     38.35081         6     1.083     0.709 -62.90   0
        74     77.1485    797.8304 299.9665895 +22.6223016     186.7845     70.21553      1.156     2.98    -4.111125     19.79985     48.70444         7     0.816     0.726  62.41   0
        75    868.1733    794.6956 300.2137040 +22.8588206     344.6927     70.12614      1.268     2.73    -4.087938     19.79985     47.83264         5     0.882     0.352  46.91   0
        76    241.3444    792.3608 300.0193815 +22.6700466     271.9145     70.17979      1.141     3.76    -4.163702     19.79985     46.66436         5     0.859     0.473  45.27   0
        77    534.4197    780.9207 300.1142485 +22.7547434     309.4405     70.17979      1.464     3.82    -4.105847     19.79985     50.30149         6     0.966     0.493 -87.88   0
        78    556.1912    778.4437 300.1218299 +22.7605662     844.8602     70.19766      1.187     2.28    -4.128009     19.79985     119.3093        11     0.861     0.715  85.73   0
        79    950.7574    777.2863 300.2451113 +22.8785876     2654.324     70.14403      1.116     1.92    -4.169083     19.79985     451.8552        18     0.881     0.850  87.79   0
        80    638.2468    773.3762 300.1490211 +22.7837336     206.8017     70.19766      1.018     3.61    -4.166559     19.79985     36.66131         6     0.710     0.657 -87.57   0
        81    939.1392    768.6010 300.2443155 +22.8726107     1066.565     70.14403      1.114     1.97     -4.20281     19.79985     183.8336        14     0.992     0.758  63.33   0
        82    704.8286    764.4091 300.1726713 +22.8011356     184.2138     70.17979      1.063     3.67    -4.139754     19.79985     25.77733         5     1.046     0.370  85.79   0
        83    302.2561    762.8336 300.0479223 +22.6798712      504.849     70.19766      1.169     3.14    -4.226829     19.79985      72.6264        10     1.018     0.724 -80.12   0
        84    765.5039    760.0515 300.1929876 +22.8180854     1409.034     70.25126      1.171     2.09    -4.119874     19.79985     207.3449        14     0.855     0.804 -20.05   0
        85    970.4882    758.7745 300.2572866 +22.8791888     984.1261     70.12614      1.106     1.88    -4.171002     19.79985     186.1313        14     0.993     0.910  48.77   0
        86    150.9977    746.9580 300.0060799 +22.6299036     322.5789     70.17979      1.197     2.18    -4.060905     19.79985     77.40644         7     0.838     0.489  47.85   0
        87    847.8664    745.8698 300.2232634 +22.8387165     363.8304     70.21553      1.349     4.10    -4.097887     19.79985      52.8121         8     1.120     0.539  29.69   0
        88    883.9898    737.0275 300.2373982 +22.8470106     85677.05     70.17979      1.196     1.87    -4.158514     19.79985     16839.97        99     1.164     1.078  73.70   0
        89    736.3388    737.3508 300.1912889 +22.8028230     403.0241      70.2334      1.043     2.54    -4.157475     19.79985     59.30585         8     0.830     0.625 -88.65   0
        90    916.9116    729.8947 300.2499804 +22.8548342     191.1395     70.35832      0.947     2.36    -4.205052     19.79985     52.98363         5     0.604     0.582 -67.95   0
        91    570.3212    726.1378 300.1432457 +22.7498020     889.2894     70.25126      1.250     2.42    -3.969537     19.79985     130.8745        14     0.949     0.814  64.40   0
        92    751.4734    723.1871 300.2006110 +22.8032977     5539.289     70.19766      1.194     2.10    -4.134886     19.79985      804.323        29     1.008     0.973 -69.71   0
        93    253.0578    718.5151 300.0470469 +22.6523955     2800.747     70.28696      1.218     2.23    -4.053417     19.79985     427.9778        18     0.942     0.873  56.33   0
        94    335.1536    716.5235 300.0732158 +22.6764694     640.8498     70.17979      1.086     1.79    -4.064558     19.79985     112.1702        10     0.895     0.663 -27.87   0
        95    210.6463    714.1644 300.0352812 +22.6384149     233.5076     70.21553      1.267     2.90    -3.974581     19.79985     53.71111         5     0.936     0.364   4.50   0
        96    543.4424    711.7625 300.1395566 +22.7376134     443.1071     70.26911      1.431     2.49    -3.721344     19.79985     66.00378         8     0.856     0.632  82.88   0
        97    534.9291    704.2174 300.1393616 +22.7328946     1886.876     70.19766      1.248     2.18    -3.594774     19.79985      282.731        18     0.924     0.892  18.78   0
        98    525.2104    698.1517 300.1383103 +22.7282385     816.5209     70.19766      1.249     2.55    -3.499221     19.79985      110.615        13     0.910     0.856  -4.86   0
        99    918.4592    695.6786 300.2615941 +22.8454747     316.5083     70.21553      1.194     3.40    -3.926214     19.79985     45.22852         5     0.733     0.456 -69.54   0
       100    188.5097    694.2420 300.0348825 +22.6260576     398.4075     70.17979      1.202     2.34    -3.950835     19.79985      65.7708         5     0.700     0.462  68.63   0
       101    202.6137    692.7744 300.0397425 +22.6298715     375.6906     70.17979      1.132     2.33    -3.912058     19.79985     70.04829         8     0.798     0.660  38.26   0
       102     88.4848    692.0853 300.0045104 +22.5954045     289.1772     70.30481      1.513     4.10    -4.087478     19.79985     35.85468         5     0.912     0.527  43.67   0
       103    228.1311    689.2250 300.0488268 +22.6365150     320.8243     70.17979      1.371     5.09     -3.84095     19.79985     42.09349         9     0.937     0.783 -66.97   0
       104    259.4377    689.3057 300.0585308 +22.6459367     216.5437     70.16191      1.093     3.43    -3.900743     19.79985     35.15794         5     0.742     0.457  70.81   0
       105    549.0114    688.0496 300.1490032 +22.7324816     163.5654     70.19766      1.058     2.86    -3.392675     19.79985     32.70573         5     0.615     0.604 -87.47   0
       106    450.0436    687.6784 300.1183299 +22.7026792     1089.263     70.16191      1.333     2.41    -3.615288     19.79985     152.6736        14     0.898     0.881 -72.62   0
       107    104.0354    682.8250 300.0123522 +22.5974203     11508.47     70.19766      1.258     2.08    -4.041728     19.79985     1845.197        41     1.108     1.033  71.55   0
       108    535.0168    683.0350 300.1462790 +22.7268442     643.1483     70.17979      1.419     2.92    -3.294579     19.79985     73.02596        13     1.015     0.809  52.82   0
       109     24.9314    684.1821 299.9873445 +22.5740533     318.3695     70.17979      1.193     2.38    -4.215226     19.79985     69.29534         9     0.768     0.731 -61.51   0
       110    570.3819    682.2117 300.1575533 +22.7372183     208.9184     70.14403      1.284     4.19    -3.427736     19.79985     32.94987         5     0.833     0.676 -36.83   0
       111    952.8633    668.8978 300.2810308 +22.8480990     519.1437     70.26911      1.141     2.06    -3.866808     19.79985     109.0797         9     0.744     0.690  30.63   0
       112     49.9853    667.0180 300.0007063 +22.5766588     868.5632     70.16191      1.655     4.34    -4.042918     19.79985      93.4343        16     1.400     0.758 -87.44   0
       113    819.4728    666.8106 300.2401344 +22.8075082     173.8601     70.17979      1.120     2.88    -3.892201     19.79985      48.9815         6     0.730     0.632  42.24   0
       114    115.9971    666.7211 300.0213051 +22.5963964     171.5287     70.09035      1.186     4.12     -3.98683     19.79985     40.20537         6     0.940     0.515 -89.92   0
       115    498.1837    663.3240 300.1412282 +22.7101383      115.423     70.17979      1.358     4.45    -3.111693     19.79985     30.02092         6     0.973     0.580  66.02   0
       116    290.2563    662.9066 300.0766965 +22.6476187     318.5952      70.2334      1.592     4.24    -3.813445     19.79985     30.81196         5     1.005     0.535 -53.59   0
       117    893.0214    661.6064 300.2647478 +22.8280658     485.7566     70.16191      1.234     2.35    -3.638241     19.79985     60.78113         7     0.720     0.618  23.15   0
       118    455.0134    655.7073 300.1302741 +22.6950000     405.2809     70.10825      1.332     4.50     -3.31401     19.79985     51.86422         8     0.855     0.673  79.74   0
       119    620.6495    652.4441 300.1828825 +22.7437567     365.1553     70.21553      1.501     4.84    -3.482048     19.79985     40.76686         8     1.038     0.640  62.86   0
       120    499.2334    651.6740 300.1453437 +22.7071112     360.9505     70.16191      1.197     2.76    -3.066473     19.79985     60.81969        10     0.870     0.790  31.11   0
       121    932.8907    647.0638 300.2819056 +22.8358422     1897.024     70.26911      1.150     1.97     -3.62203     19.79985     366.6641        17     0.912     0.829  86.66   0
       122    464.8473    647.2915 300.1360704 +22.6955366      922.846     70.17979      1.258     2.59    -3.181206     19.79985     136.8535        12     0.901     0.793  86.03   0
       123    830.0048    643.9887 300.2508387 +22.8041144      196.755     70.05455      1.250     3.30    -3.501587     19.79985     27.49365         5     0.619     0.613   0.42   0
       124     26.7639    641.0358 300.0019445 +22.5622391     2927.313     70.25126      1.240     2.12    -3.501162     19.79985     475.7284        23     1.057     0.905  79.63   0
       125    328.1982    633.9997 300.0978928 +22.6507174      5345.84     69.96495      1.285     2.48    -3.646403     19.79985     686.0334        27     1.064     0.992  67.21   0
       126    450.6013    630.9984 300.1369369 +22.6865882      5088.29     69.96495      1.328     2.41    -3.145203     19.79985     710.7205        29     1.091     1.015  81.13   0
       127    862.2028    624.6271 300.2671691 +22.8082088     986.0947     70.12614      1.178     2.24    -3.180182     19.79985     163.3914        15     0.990     0.801  78.77   0
       128    946.8399    622.0421 300.2943918 +22.8328381     7372.248     70.26911      1.211     2.02    -3.559824     19.79985     1259.696        34     1.038     0.981  56.76   0
       129    511.1988    620.6094 300.1591689 +22.7017888     6747.802     70.00081      1.364     2.54    -2.902403     19.79985     794.2454        35     1.141     1.052  74.55   0
       130    680.5529    616.5570 300.2132046 +22.7514245     221.0541     70.21553      1.281     4.17    -3.381817     19.79985     34.84818         6     1.033     0.481 -34.34   0
       131    238.6782    616.1547 300.0758671 +22.6187311     777.2701     70.16191      1.388     2.56    -3.586516     19.79985     113.1859        11     0.967     0.703  66.31   0
       132    442.8377    608.7303 300.1417626 +22.6778708     2467.692     70.14403      1.315     2.49    -2.969204     19.79985     355.2585        23     1.075     0.953  86.95   0
       133    785.7137    608.6276 300.2485380 +22.7806827     409.6955     70.17979      1.206     2.94    -3.056831     19.79985     61.60119        10     0.880     0.761 -47.46   0
       134    421.0658    607.0067 300.1355506 +22.6708438     672.9248     70.17979      1.343     2.91    -2.971908     19.79985     103.1043        12     1.116     0.758  80.80   0
       135    175.4585    607.0115 300.0591939 +22.5971320     472.2986     70.12614      1.440     3.20    -3.698461     19.79985     60.08063         9     0.914     0.726  79.43   0
       136    862.5051    604.1319 300.2739281 +22.8024147     886.7093     70.32265      1.379     2.71    -2.989582     19.79985     118.3977        16     1.072     0.866 -43.52   0
       137    559.4247    596.2773 300.1820889 +22.7092743     118735.3     70.19766      1.374     2.57    -2.713231     19.79985     13503.66       147     1.352     1.344 -48.63   0
       138    743.1224    601.2451 300.2376706 +22.7657926     507.2855     70.16191      1.296     3.16    -3.209918     19.79985      70.1442        12     1.012     0.807  29.66   0
       139    245.5657    596.3416 300.0844497 +22.6151170     2049.139     70.19766      1.337     2.30    -3.491681     19.79985     271.4963        23     1.089     0.993 -71.66   0
       140    811.2929    591.9617 300.2619267 +22.7835671     263.1842     70.17979      1.348     3.84    -2.989582     19.79985     28.65907         5     0.837     0.504 -35.48   0
       141    450.1091    576.4483 300.1545205 +22.6707912      1528.12     70.19766      1.455     2.84    -2.854406     19.79985     161.9605        19     1.108     0.921 -56.07   0
       142    861.8412    572.4120 300.2840348 +22.7931073     241.1249     70.16191      1.330     2.92    -2.989582     19.79985     40.03555         6     0.749     0.617  57.42   0
       143    847.0433    562.7592 300.2825615 +22.7858995     1005.422     70.26911      1.295     2.24    -2.989582     19.79985     145.6541        14     0.927     0.833  56.87   0
       144    767.1553    564.3357 300.2571575 +22.7624024     188.4345     70.19766      0.982     2.79    -3.011125     19.79985     44.34259         5     0.747     0.430  18.65   0
       145    718.2269    560.3607 300.2432091 +22.7465910     1367.028     70.19766      1.315     2.65    -3.003694     19.79985     146.1396        14     0.958     0.833  31.88   0
       146    962.1923    557.3531 300.3202123 +22.8188605     368.9022     70.19766      1.098     2.32    -3.198771     19.79985     42.92261         5     0.708     0.449  17.29   0
       147    623.0464    556.8599 300.2147086 +22.7170441     253.0976     70.21553      1.426     3.80    -2.707338     19.79985     38.98275         5     0.805     0.513  53.67   0
       148    505.4487    556.1785 300.1783280 +22.6815769     364.0326     70.17979      1.231     2.99    -2.556809     19.79985     62.46673         8     0.900     0.601  73.18   0
       149    975.5011    554.0497 300.3254360 +22.8219001     720.3522     70.25126      1.134     2.18    -3.227403     19.79985     120.6269        10     0.843     0.665 -29.86   0
       150    847.2103    552.6608 300.2858966 +22.7830497     1338.763     70.14403      1.542     3.18    -2.989582     19.79985     160.1702        23     1.603     0.962  72.70   0
       151    961.0637    553.3360 300.3211664 +22.8173684     465.6263     70.21553      1.451     2.95    -3.167683     19.79985     55.47379         7     0.742     0.640  13.17   0
       152    885.4057    547.7414 300.2993999 +22.7930860     2495.414     70.14403      1.203     2.17    -3.000659     19.79985     373.9258        21     1.085     0.872  37.28   0
       153    117.5113    538.4836 300.0634683 +22.5600890     507.1895     70.28696      1.143     2.44    -3.203005     19.79985     75.77411        12     0.861     0.821  63.77   0
       154    977.2835    537.9459 300.3312270 +22.8178085     466.2119     70.21553      1.340     3.20    -3.093141     19.79985      62.2989        10     0.934     0.770  36.34   0
       155    973.3904    527.3567 300.3334555 +22.8136000     229.2429     70.19766      1.335     4.70    -2.980982     19.79985     33.15054         7     0.892     0.701  29.02   0
       156    717.5402    522.2646 300.2553794 +22.7354481     162.8063     70.21553      1.057     3.47    -2.911644     19.79985     29.30956         5     0.758     0.458 -71.09   0
       157    658.7501    518.0331 300.2384464 +22.7166059     519.5996     70.21553      1.426     2.96    -2.799408     19.79985     72.65102         9     1.063     0.634  -1.40   0
       158    973.2255    510.6278 300.3388419 +22.8087451     335.1803     70.16191      1.362     3.06    -2.828553     19.79985     41.64781         6     0.706     0.640  55.11   0
       159    719.7583    510.3541 300.2599417 +22.7326936     473.3256      70.2334      1.296     3.26    -2.909183     19.79985     79.70491         8     1.011     0.630  45.67   0
       160    876.8606    506.6170 300.3101046 +22.7787139     653.3032     70.12614      1.281     2.98    -2.990881     19.79985     93.47418        12     1.062     0.706 -71.46   0
       161    860.9835    502.8609 300.3063772 +22.7728765     487.2422     70.12614      1.362     3.31    -2.989582     19.79985     55.86245         9     0.943     0.679  82.15   0
       162    841.8837    502.6228 300.3005022 +22.7670834     165.0262     70.14403      1.511     4.38    -2.989582     19.79985     30.11848         5     1.133     0.483  -2.46   0
       163    605.3026    501.1410 300.2272963 +22.6957299     2002.545     70.25126      1.474     2.91    -2.530977     19.79985     222.0475        20     1.086     0.984  40.15   0
       164    966.2381    499.7976 300.3401835 +22.8035400      450.495     70.19766      1.527     3.56    -2.766854     19.79985     45.51502         9     1.015     0.661 -44.71   0
       165    611.7856    489.3728 300.2331393 +22.6942959     117.5977     70.19766      1.007     3.47    -2.552689     19.79985     25.58339         5     1.274     0.273  55.01   0
       166   1016.5909    479.8792 300.3623590 +22.8129049     703.6728     70.14403      1.158     2.63    -2.094423     19.79985     118.1757        11     0.897     0.774  62.45   0
       167    888.5665    479.8999 300.3224368 +22.7745484     238.4561     70.16191      1.163     3.73    -2.991637     19.79985     43.52212         8     1.071     0.495  88.17   0
       168    691.0767    481.5961 300.2603557 +22.7158378     1234.875     70.09035      0.637     0.83    -2.855161     19.79985     649.2057         6     0.491     0.396 -88.42   0
       169    974.9343    478.7006 300.3497519 +22.8000850     541.8013     70.26911      1.187     2.46    -2.521131     19.79985     90.69949        11     0.913     0.705  76.11   0
       170    716.0349    475.0337 300.2702614 +22.7214361      650.681     70.21553      1.406     4.15    -2.861911     19.79985     65.99443        12     1.035     0.914 -57.52   0
       171    220.1258    473.6917 300.1164090 +22.5723074     375.1188     70.32265      1.372     3.18     -2.69393     19.79985     61.45263         8     1.010     0.558  60.57   0
       172    282.3347    469.1674 300.1372155 +22.5896766     2133.341     70.17979      1.453     2.68    -2.666993     19.79985     253.4265        24     1.219     0.975  67.66   0
       173   1015.4194    467.2053 300.3661127 +22.8089124     2455.306     70.14403      1.217     2.23    -2.095875     19.79985     355.7418        23     1.017     0.986  53.30   0
       174    229.5866    464.0419 300.1224850 +22.5723786     4385.179     70.19766      1.394     2.57    -2.621464     19.79985     596.3167        28     1.116     1.036  72.11   0
       175    370.3203    458.1934 300.1681388 +22.6129256     2715.557     70.10825      1.388     2.59    -2.619574     19.79985      336.426        25     1.095     1.059  80.72   0
       176    995.3337    458.2269 300.3627668 +22.8003150     1034.385     70.16191      1.197     2.54    -2.295099     19.79985      166.664        14     0.996     0.779  70.82   0
       177    614.5116    454.7007 300.2452556 +22.6851600     10617.55     70.34048      1.461     2.72    -2.555495     19.79985     1268.686        43     1.211     1.160  56.65   0
       178    631.5911    455.1701 300.2504205 +22.6904158     407.2245     70.17979      1.631     3.44    -2.602943     19.79985     29.68038         5     0.770     0.444 -70.43   0
       179    947.8494    437.1030 300.3548253 +22.7800187     465.0301      70.2334      1.316     2.99    -2.791633     19.79985     65.15575         8     0.897     0.638  32.70   0
       180    169.3468    435.0372 300.1131892 +22.5459823     1191.959     70.19766      1.304     2.60    -2.941973     19.79985     159.0905        16     1.032     0.841 -89.36   0
       181    555.1188    424.3238 300.2366379 +22.6586307     3781.389     70.28696      1.455     2.86    -2.480897     19.79985     406.7749        31     1.203     1.117  77.62   0
       182    968.7264    424.4500 300.3654459 +22.7826384     699.7025     70.17979      1.153     2.31    -2.552953     19.79985     103.6204        12     0.918     0.728  51.17   0
       183    270.3739    423.9658 300.1481842 +22.5731208     363.8262     70.19766      1.608     4.08    -2.527353     19.79985     42.55449         6     0.836     0.648  50.26   0
       184    127.5841    416.8486 300.1061231 +22.5282327     349.5898     70.21553      1.406     2.66    -3.008512     19.79985     57.18315         6     0.844     0.643  -3.58   0
       185    759.2672    413.0772 300.3038604 +22.7166036     596.1956     70.26911      1.489     3.67    -2.747692     19.79985     63.61545        13     1.105     0.827  45.73   0
       186    669.2304    414.0797 300.2754917 +22.6899026     375.6104     70.17979      1.723     3.92     -2.55298     19.79985      39.8567         5     0.838     0.524 -41.18   0
       187    461.8118    410.5146 300.2120891 +22.6266859     3544.296     70.12614      1.440     2.71    -2.455154     19.79985     463.6522        27     1.146     1.070 -88.32   0
       188    951.1753    404.7393 300.3663779 +22.7717167     279.3171     70.17979      1.347     2.98    -2.683802     19.79985     46.81173         6     0.874     0.634 -74.08   0
       189    853.5507    404.4829 300.3360300 +22.7423914     935.2697     70.17979      1.596     3.63    -3.184561     19.79985     92.05462        16     1.159     0.901  39.91   0
       190    445.9503    399.5599 300.2107134 +22.6187848     424.3953     70.21553      1.686     5.31    -2.431333     19.79985     56.04004         7     1.119     0.711 -65.85   0
       191    826.3669    392.2388 300.3315367 +22.7307281     386.5073     70.21553      1.505     3.58    -3.148427     19.79985     46.86663         7     0.802     0.651 -72.89   0
       192    349.3723    389.6718 300.1838868 +22.5869801     1492.457     70.16191      1.425     2.94    -2.489654     19.79985     186.1928        19     1.117     0.973 -89.20   0
       193     67.9490    387.4103 300.0971621 +22.5018927     614.5101     70.19766      1.363     2.58    -3.037479     19.79985     86.71317        10     0.888     0.731 -50.79   0
       194    318.7117    379.3098 300.1777191 +22.5748096      17243.3     70.34048      1.477     2.68    -2.523036     19.79985     1980.681        52     1.286     1.161  84.61   0
       195    853.4435    376.5698 300.3450650 +22.7343406     914.4405     70.21553      1.552     3.22    -3.200696     19.79985     81.88758        15     1.053     0.937 -60.30   0
       196     15.0774    367.2650 300.0872864 +22.4802472     3015.423     70.26911      1.372     2.52    -3.452879     19.79985     358.8319        24     1.119     0.978  65.48   0
       197    768.6002    365.6498 300.3221757 +22.7057788     405.8667     70.14403      1.551     3.13    -2.833732     19.79985     40.78532         8     0.902     0.650  -2.62   0
       198    192.9879    365.4090 300.1431543 +22.5331038     305.3643     70.07246      1.504     5.53    -2.547787     19.79985     37.15859         7     1.397     0.618 -73.70   0
       199    417.5307    364.6519 300.2132123 +22.6002425     423.0437     70.16191      1.812     5.00    -2.424448     19.79985     35.33305         7     0.976     0.725 -52.43   0
       200    729.0084    358.7083 300.3120973 +22.6919193     1114.773     70.09035      1.415     2.98    -2.548288     19.79985     122.7995        17     1.000     0.977  21.74   0
       201    944.2717    351.0709 300.3816605 +22.7542274     396.9124     70.25126      1.400     3.84    -2.394659     19.79985     43.21677         8     0.956     0.622  22.17   0
       202    390.9216    343.5641 300.2117851 +22.5862099      1430.22     70.14403      1.777     3.92    -2.399588     19.79985     112.5115        21     1.319     0.967  66.92   0
       203    829.6791    335.9129 300.3508658 +22.7155396     271.7604     70.32265      1.283     3.29    -3.047935     19.79985     44.23031         9     0.893     0.701 -12.85   0
       204    712.3893    334.1260 300.3149055 +22.6798780     216.4003     70.19766      1.318     4.22    -2.563652     19.79985     31.86584         6     0.753     0.674 -32.87   0
       205    466.4956    322.6835 300.2420761 +22.6028791     578.1042     70.35832      1.442     3.94    -2.193344     19.79985     69.34203        11     0.996     0.840  71.98   0
       206    711.4355    314.4775 300.3209898 +22.6739485     1221.098     70.14403      1.465     3.26    -2.604363     19.79985     135.5792        20     1.266     0.987  81.48   0
       207    972.6295    308.8752 300.4042075 +22.7505959      1753.85     70.19766      1.319     2.53    -2.410778     19.79985     265.1705        16     0.998     0.858  76.36   0
       208    419.9710    298.7600 300.2353714 +22.5820609     398.0064     70.19766      1.475     3.57    -2.148632     19.79985     52.20703         9     0.932     0.787  54.70   0
       209     94.6926    292.9557 300.1361444 +22.4828266     777.9236     70.17979      1.653     3.95    -2.626082     19.79985     77.61795        14     1.129     0.914 -36.27   0
       210    125.5468    292.7679 300.1457901 +22.4920302      348.721     70.19766      1.460     4.48    -2.613533     19.79985      44.4305         8     0.922     0.829  56.95   0
       211    179.1450    285.2166 300.1648952 +22.5059439     288.0297     70.16191      1.408     3.80     -2.45639     19.79985     37.86253         6     1.226     0.339  85.29   0
       212    783.1304    276.1482 300.3557708 +22.6844219     408.5036     70.16191      1.408     5.41    -2.745248     19.79985     42.34628        11     1.268     0.706 -83.81   0
       213    881.2695    265.0226 300.3899663 +22.7106268     1235.934     70.19766      1.358     2.71    -2.543288     19.79985     132.1853        16     0.963     0.930  37.50   0
       214    299.8923    262.6510 300.2097531 +22.5356866     1189.891      70.2334      1.455     3.16    -2.087554     19.79985     143.8636        20     1.137     1.051 -56.18   0
       215    377.8861    257.9414 300.2355352 +22.5577239     434.0478     70.28696      1.354     3.21    -2.065103     19.79985     54.49051        10     0.938     0.765 -46.86   0
       216    779.4455    256.5410 300.3609893 +22.6776845     395.0976     70.21553      1.711     4.55    -2.702458     19.79985     34.72971         7     0.917     0.643  69.55   0
       217    194.3046    249.9919 300.1810427 +22.5003843     528.8561     70.07246      1.384     3.46    -2.151854     19.79985     76.25533        10     1.115     0.663  63.16   0
       218    732.4755    246.4612 300.3496296 +22.6607150     983.8824      70.2334      1.435     3.34     -2.68431     19.79985      100.481        13     0.960     0.906 -57.49   0
       219    797.4189    246.2074 300.3699444 +22.6801003     344.0604     70.14403      1.198     2.95    -2.671865     19.79985     40.70985         5     0.711     0.476  75.91   0
       220    215.6817    243.0323 300.1899456 +22.5047993     355.0619     70.17979      1.683     5.91    -2.046091     19.79985     31.42922         8     1.258     0.780  73.97   0
       221   1003.7585    238.6298 300.4367251 +22.7397281     532.5069     70.21553      1.372     3.19    -2.424758     19.79985     68.34094        12     1.043     0.748 -67.36   0
       222    736.3093    238.1465 300.3535234 +22.6594750     448.4427      70.2334      1.449     4.42    -2.695834     19.79985     43.70371         7     1.020     0.545  15.88   0
       223    656.9564    237.4184 300.3290457 +22.6354873     699.7747     70.19766      1.400     2.83    -2.466434     19.79985      84.7747        13     0.961     0.842  69.92   0
       224    583.0920    229.2055 300.3087149 +22.6109913     610.9091     70.09035      1.497     3.77    -2.183427     19.79985     58.51106        13     1.077     0.836 -14.46   0
       225    852.3651    228.6671 300.3927614 +22.6915207     889.6058     70.17979      1.422     2.86    -2.530684     19.79985     94.57349        13     0.957     0.839 -40.08   0
       226    864.3661    227.7180 300.3968099 +22.6948428     444.3068     70.14403      1.373     2.85    -2.508703     19.79985     75.10125         9     0.910     0.739 -51.24   0
       227    910.6095    226.6196 300.4115807 +22.7083785     222.6211     70.16191      1.396     4.17    -2.451141     19.79985     24.55215         5     1.027     0.482   3.54   0
       228    980.9485    217.7897 300.4363779 +22.7269064     607.1325     70.17979      1.269     3.41    -2.386736     19.79985     106.0004        12     1.138     0.687 -82.68   0
       229      4.9284    215.0663 300.1335531 +22.4335500     435.6403     69.40688      1.723     4.40    -2.351415     19.79985     39.74702         6     1.028     0.536 -73.65  16
       230    215.0016    211.7303 300.1998955 +22.4956123      344.021     70.12614      1.522     4.22    -1.962792     19.79985     40.67616         7     0.771     0.658  13.14   0
       231     77.0788    206.3625 300.1587851 +22.4527001     1292.234     70.16191      1.285     2.50    -2.329635     19.79985     168.5623        17     0.983     0.945 -58.49   0
       232    900.3475    203.0933 300.4160193 +22.6985430     414.0913      70.2334      1.270     5.17    -2.327368     19.79985     51.69624         9     1.347     0.561  20.23   0
       233     26.8117    203.0016 300.1442644 +22.4366549      303.415     70.00081      1.440     4.18    -2.322375     19.79985     39.69688         8     0.986     0.752 -77.23   0
       234    234.4299    199.6329 300.2098607 +22.4979673     3241.509     70.19766      1.430     2.61    -1.945596     19.79985     416.2392        27     1.193     1.032 -83.72   0
       235     18.7899    193.9086 300.1447246 +22.4316396     721.6277     70.12614      1.346     2.94    -2.300594     19.79985     117.3224        15     1.015     0.927 -89.36   0
       236    878.4926    180.7535 300.4164586 +22.6855762     2062.059     70.19766      1.377     2.73    -2.210345     19.79985     243.3577        21     1.145     0.950 -73.63   0
       237    982.0014    179.5984 300.4491039 +22.7162426     1458.916     69.96495      1.285     2.57    -2.165092     19.79985     216.7033        17     0.954     0.936 -25.96   0
       238    180.7966    176.3696 300.2007427 +22.4752053     234.5228     70.14403      1.377     4.80    -1.940045     19.79985      34.4035         6     0.946     0.690 -81.71   0
       239    352.1448    168.0735 300.2567016 +22.5242063       422.37     70.17979      1.303     3.16    -2.025846     19.79985     48.74302         5     0.762     0.531 -53.39   0
       240    118.2532    165.1991 300.1849353 +22.4532406     470.8019     70.14403      1.492     4.50    -2.129652     19.79985     45.65049         8     1.142     0.695  48.23   0
       241    479.4693    163.7154 300.2977228 +22.5611241     909.5706     70.26911      1.436     2.58    -2.012311     19.79985     132.0399        15     1.035     0.887  46.96   0
       242     15.8891    163.4141 300.1537206 +22.4220210     182.3395     70.12614      1.345     5.24    -2.225573     19.79985     33.11315         5     0.993     0.780  86.00   0
       243    253.3803    143.5469 300.2339537 +22.4875518     3438.478     70.16191      1.428     2.83    -1.935112     19.79985      379.692        25     1.149     1.009 -79.70   0
       244    103.7904    142.7650 300.1877225 +22.4424648     412.5613     70.16191      1.438     3.55    -2.144515     19.79985      62.6778         9     0.994     0.851  79.66   0
       245    499.3549    128.7282 300.3152648 +22.5570358     3549.492     70.14403      1.537     2.87    -1.995415     19.79985      387.451        29     1.244     1.084  85.18   0
       246    384.9212    128.2051 300.2798335 +22.5225853      339.252     70.09035      1.192     3.06    -2.006844     19.79985     46.84305         6     0.734     0.582 -54.19   0
       247    751.8582    118.3690 300.3972446 +22.6297162     394.6944     70.19766      1.333     3.76    -1.917139     19.79985     46.27665         9     0.895     0.747  22.93   0
       248    844.2773    116.5340 300.4266369 +22.6568699     365.8361     70.26911      1.511     4.75    -2.057417     19.79985     37.86069         8     1.104     0.762  69.15   0
       249    192.6154    112.2544 300.2252213 +22.4603480     289.9412     70.17979      1.110     2.65    -1.914888     19.79985     36.91404         5     0.718     0.449 -70.53   0
       250    627.7311    108.6490 300.3617403 +22.5897370     3651.725     70.17979      1.520     2.89    -1.827431     19.79985     436.3982        30     1.216     1.135  86.06   0
       251    402.6541    107.7025 300.2920019 +22.5220135     826.3151     70.26911      1.480     3.59    -2.000525     19.79985     91.67355        13     1.045     0.854 -64.21   0
       252    668.6977    106.0848 300.3753287 +22.6012740     432.1047     70.34048      1.349     3.60    -1.813186     19.79985     49.13765        10     1.015     0.785 -63.79   0
       253    954.8082     99.6669 300.4665654 +22.6851193     384.8916     70.17979      1.457     4.95    -2.075786     19.79985     41.31775         8     0.965     0.718  77.63   0
       254    151.3353    100.4710 300.2162170 +22.4445865      328.739     70.21553      1.282     3.44     -1.93725     19.79985     48.84418         5     0.726     0.470  17.61   0
       255    671.8535     93.5283 300.3803858 +22.5986113     1623.354     70.17979      1.549     3.05    -1.720372     19.79985     191.1307        17     1.077     0.967  56.15   0
       256    686.4537     91.9088 300.3854581 +22.6025198     437.6947      70.2334      1.533     4.47    -1.717662     19.79985     40.14413         9     0.925     0.698  16.55   0
       257    758.3875     85.1832 300.4100468 +22.6221344     762.2755     70.12614      1.390     2.91    -1.763445     19.79985     85.87745        14     0.956     0.898  76.15   0
       258    696.6575     78.4911 300.3929895 +22.6017206     469.8838      70.2334      1.551     2.93    -1.649134     19.79985     49.55897         9     0.904     0.705 -38.48   0
       259    502.0894     77.5859 300.3327098 +22.5431654     575.3611     70.12614      1.597     3.67    -1.793602     19.79985     59.69078        12     1.200     0.780 -88.85   0
       260     74.8997     77.7868 300.1998306 +22.4151525     361.9874     70.09035      1.175     4.40    -1.993622     19.79985     51.68216         7     0.983     0.560 -17.20   0
       261    405.9197     75.9674 300.3033140 +22.5138785     582.8997     70.17979      1.521     2.63    -1.796727     19.79985     67.34512         8     0.825     0.627 -45.41   0
       262    788.2785     74.3817 300.4228641 +22.6279824     215.5876     70.17979      1.236     3.51    -1.812436     19.79985     32.56443         5     0.770     0.462  14.24   0
       263    745.0001     66.3476 300.4119873 +22.6127110      335.994     70.12614      1.375     2.85     -1.63159     19.79985     43.18605         6     0.850     0.536 -90.00   0
       264    177.2604     66.0438 300.2354418 +22.4424790     2110.435     70.17979      1.458     2.85      -1.8221     19.79985     216.1581        22     1.152     1.013  72.82   0
       265    293.2287     57.9746 300.2741059 +22.4749319     642.6836     70.17979      1.373     3.92    -1.782886     19.79985     66.08713        14     1.174     0.827 -87.47   0
       266    738.5347     57.9141 300.4127092 +22.6083506      530.632     70.26911      1.616     4.88    -1.565342     19.79985     60.18202        11     1.075     0.886  63.46   0
       267    776.4194     53.6434 300.4258972 +22.6184697     359.0209     70.19766      1.532     3.77    -1.706219     19.79985     48.31875         7     1.321     0.493  88.86   0
       268    699.8544     53.3225 300.4021505 +22.5954452     194.0856     70.21553      1.324     3.39    -1.516153     19.79985     38.60979         5     0.768     0.434 -15.94   0
       269    796.3305     49.4371 300.4334656 +22.6232236     1297.057     70.16191      1.336     2.71    -1.783221     19.79985     146.7339        19     1.059     0.958  85.82   0
       270    501.6994     48.0775 300.3421613 +22.5345719     336.2342     70.32265      1.697     4.52    -1.517059     19.79985     37.70674         5     0.869     0.668  56.00   0
       271    179.8599     44.7993 300.2431410 +22.4371599     490.3345     70.14403      1.338     2.65    -1.757115     19.79985     74.65687         8     0.861     0.607  87.02   0
       272    970.9132     42.1618 300.4902444 +22.6734055     487.5365     70.16191      1.418     3.45     -2.30702     19.79985     58.56934        10     0.960     0.782  48.51   0
       273    744.6977     42.0339 300.4197808 +22.6056322     618.7467     70.16191      1.494     2.97    -1.507925     19.79985     70.66871        11     0.893     0.832   8.32   0
       274    597.1113     27.0595 300.3786767 +22.5571203     533.6343     70.25126      1.290     2.72    -1.369004     19.79985      62.2289         7     0.838     0.540 -42.47   0
       275    206.3994     24.6779 300.2579153 +22.4393406     364.7394     70.07246      1.366     3.51    -1.670891     19.79985     42.71252         8     0.942     0.614  17.52   0
       276    760.2003     21.7197 300.4311998 +22.6044359     428.6764     70.05455      1.418     4.54    -1.498619     19.79985     65.30847        10     1.175     0.655  28.59   0
       277    568.9833     19.9116 300.3722389 +22.5466396     1087.274     70.10825      1.469     3.19    -1.317541     19.79985     125.9193        16     1.028     0.970  31.34   0
       278    291.9738     17.6256 300.2868036 +22.4629696     331.8506     70.14403      1.271     2.99     -1.60219     19.79985     51.34755         5     0.924     0.523  76.78   0
       279      6.2176     16.4404 300.1983989 +22.3769478     481.5594     70.19766      1.470     4.45    -1.569244     19.79985     49.52504         7     1.010     0.557  74.22  16
       280    134.9911   1018.2338 299.9128067 +22.7028164     1548.343     70.17979      8.868    14.21      11.2548     19.79985     52.46685        37     3.155     1.781  75.51  18
       281    152.0722   1017.5867 299.9183236 +22.7077635     1695.835     70.19766      9.812    13.99     11.11307     19.79985     44.67562        47     3.052     1.784 -36.54  19
       282     84.9038   1008.0581 299.9005638 +22.6848513     3143.848     70.25126     19.611    32.70     7.445509     19.79985     65.55779       259     5.619     5.281 -48.01  27
       283    113.3151   1003.3359 299.9109257 +22.6920363     1462.043     70.26911     18.233    34.29     9.005649     19.79985     43.88423       148     8.004     4.077 -41.46  19
       284    147.6295   1016.7193 299.9172260 +22.7061802     790.4503     70.17979      4.298     4.35     10.99592     19.79985     48.83115         5     1.197     0.450  -9.97  19
