#   1 NUMBER                 Running object number                                     
#   2 X_IMAGE                Object position along x                                    [pixel]
#   3 Y_IMAGE                Object position along y                                    [pixel]
#   4 ALPHA_J2000            Right ascension of barycenter (J2000)                      [deg]
#   5 DELTA_J2000            Declination of barycenter (J2000)                          [deg]
#   6 FLUX_APER              Flux vector within fixed circular aperture(s)              [count]
#   7 FLUXERR_APER           RMS error vector for aperture flux(es)                     [count]
#   8 FLUX_RADIUS            Fraction-of-light radii                                    [pixel]
#   9 FWHM_IMAGE             FWHM assuming a gaussian core                              [pixel]
#  10 BACKGROUND             Background at centroid position                            [count]
#  11 THRESHOLD              Detection threshold above background                       [count]
#  12 FLUX_MAX               Peak flux above background                                 [count]
#  13 ISOAREA_IMAGE          Isophotal area above Analysis threshold                    [pixel**2]
#  14 A_IMAGE                Profile RMS along major axis                               [pixel]
#  15 B_IMAGE                Profile RMS along minor axis                               [pixel]
#  16 THETA_IMAGE            Position angle (CCW/x)                                     [deg]
#  17 FLAGS                  Extraction flags                                          
         1    453.9741     14.4223 300.3409048 +22.5071780     1231.423     70.11537      1.648     3.51    -2.241247     19.78672     117.3395        18     1.128     1.008  82.73   0
         2    101.0290     12.5012 300.2317742 +22.4008043     722.6385     70.06175      1.444     3.47     -1.06862     19.78672     74.35995        15     0.987     0.964 -32.89   0
         3    928.3999      2.4444 300.4925852 +22.6458619     259.5136     60.33879      1.439     4.39    -2.017259     19.78672     32.51267         5     0.987     0.555 -44.04  24
         4    236.8429   1018.0804 299.9471498 +22.7299222     1023.621     70.11537      5.003     7.96     0.207199     19.78672     40.56256        14     1.676     1.057  67.25  17
         5    660.2684   1023.9212 300.0769898 +22.8587752     531.4345     53.18764      0.856     2.27    -5.580185     19.78672     124.4457         6     1.026     0.263  -3.37  24
         6    242.1305   1023.0125 299.9471871 +22.7329239     803.0947     58.09618      5.095     8.20   0.03872399     19.78672     38.16331        15     2.204     0.852   8.27  25
         7    173.5085   1023.4219 299.9257257 +22.7124200     383.7175      55.9429      2.380     3.90     8.063661     19.78672     27.68693         5     1.067     0.408 -16.36  25
         8    135.1903   1022.3340 299.9141734 +22.7005925      871.367      61.4294      8.613     9.57     9.658604     19.78672     37.27472        16     2.165     1.180  33.10  24
         9    108.9107   1014.2947 299.9086271 +22.6903919     1635.898     70.31165     15.975    23.46      8.53389     19.78672     47.81204        98     4.836     3.161  45.53  27
        10     70.4497   1003.8144 299.9000927 +22.6758307     1610.729      70.1511     12.898    19.73     2.843892     19.78672     41.10696        64     6.548     1.651 -64.34  27
        11    568.9717   1016.4488 300.0509974 +22.8292204     926.1927      70.1511      1.157     2.06     -5.47206     19.78672     150.3123        10     0.838     0.701  48.64   0
        12    462.8507   1013.1425 300.0190465 +22.7964032     695.1877     70.18681      1.255     2.78    -5.563892     19.78672     106.1568        10     0.911     0.695 -68.00   0
        13    100.8014    997.7869 299.9114840 +22.6832271     1507.299     69.97228     11.033    11.65     6.207232     19.78672     55.13048        29     2.837     1.332 -86.87   3
        14    393.4880   1011.0924 299.9981350 +22.7749816     3779.261     70.29383      1.171     1.98    -5.438481     19.78672     583.1794        23     0.973     0.919 -64.41   0
        15    120.3893   1010.9226 299.9132914 +22.6928761     1409.115     70.11537      8.687     9.99     8.086831     19.78672     42.19423        21     2.343     1.187  12.88  19
        16    704.0082   1000.9031 300.0981105 +22.8653062     175.4466     70.02598      1.134     2.60    -5.415044     19.78672     34.97694         5     0.637     0.565  89.47   0
        17    141.8209   1000.0549 299.9234896 +22.6962046     486.7592     70.13324      3.727     5.63     6.484071     19.78672      31.4672         5     1.502     0.594  69.48   0
        18     82.3535    985.7567 299.9096710 +22.6742373     1907.747     70.16896      9.104    18.75     2.621141     19.78672     46.82114        74     3.650     2.675  33.52   3
        19     88.5712    979.9225 299.9135023 +22.6744352     2092.081     70.13324     11.174    22.00      2.69251     19.78672     54.57492       101     4.369     3.077  20.37   3
        20    425.8047    997.9833 300.0124578 +22.7809318     386.1424      70.0975      1.435     2.94    -5.402851     19.78672     46.44624         7     0.839     0.643  31.11   0
        21     87.1045   1014.0206 299.9019422 +22.6837593     3130.947     70.04386     15.492    42.89     6.782392     19.78672     80.81974       514     7.742     6.594  35.59  27
        22    939.4402    989.3550 300.1752439 +22.9326503     1218.838     70.20466      1.094     2.02    -5.325409     19.78672       198.03        14     0.900     0.733  70.69   0
        23     69.7884   1022.6376 299.8937568 +22.6810220      892.036     59.92208      6.778     8.32     4.626883     19.78672     37.55252        14     1.624     1.190  10.22  25
        24    728.3489    978.9867 300.1128309 +22.8663276     394.6029     70.16896      1.500     4.50    -5.170241     19.78672     61.32999         9     1.507     0.579  56.39   0
        25     81.4352    997.1947 299.9056609 +22.6772369     2070.724     70.13324     12.966    16.18     3.765747     19.78672     48.33867        62     3.029     2.401 -79.67   3
        26     90.1258    993.9111 299.9094298 +22.6789086      2092.37     70.29383     16.356    19.04     4.659619     19.78672     52.31203        85     4.563     2.207 -28.49   3
        27    763.0713    972.5259 300.1257527 +22.8748965     608.3315     70.20466      1.082     2.29     -5.12175     19.78672     99.24949         9     0.791     0.670  13.41   0
        28    540.1786    972.9779 300.0561929 +22.8081127     296.2893     70.13324      1.413     4.35    -5.119258     19.78672     47.24882         6     1.117     0.483  65.37   0
        29    785.4315    966.3085 300.1347446 +22.8798241     6680.067     70.07963      1.106     1.88    -5.073488     19.78672     1106.265        31     1.022     0.961 -30.01   0
        30    831.1400    965.9791 300.1490961 +22.8934470     20.67257     70.07963      1.009     3.11    -5.213864     19.78672     52.49546         5     0.825     0.507  -2.43   0
        31    976.2210    965.4073 300.1945132 +22.9368138     221.6474     70.11537      1.128     3.73    -5.210544     19.78672     51.23562         5     0.900     0.444  48.25   0
        32     96.8162    958.2001 299.9231370 +22.6706918     357.2665     70.02598      1.141     2.05    0.3611287     19.78672      68.8849         6     0.708     0.534 -36.24   0
        33    490.4435    954.6401 300.0466855 +22.7879213      114.637      70.2225      0.976     3.13    -4.940319     19.78672     51.91193         5     0.727     0.441 -66.80   0
        34    793.9224    948.3193 300.1432489 +22.8772122      900.012     70.24034      1.151     2.04    -4.912842     19.78672     155.0023        12     0.954     0.703 -88.53   0
        35    977.0314    947.3290 300.2006535 +22.9318691      185.365     70.13324      0.997     2.05    -5.207439     19.78672     71.48145         6     0.711     0.628 -25.60   0
        36    646.1392    945.8263 300.0980244 +22.8321406     259.8939     70.13324      1.231     2.86    -4.841275     19.78672     44.24764         6     0.893     0.559  22.16   0
        37    832.2404    941.9703 300.1572578 +22.8868897     473.4758      70.1511      1.182     1.79    -5.100821     19.78672      95.7849         7     0.716     0.576 -86.96   0
        38    171.0556    942.1192 299.9514398 +22.6883946      211.451     70.16896      1.258     3.10    -2.015055     19.78672     34.31156         6     0.777     0.661   3.78   0
        39    880.2910    933.2811 300.1750647 +22.8988148     269.4091     70.24034      1.082     2.39    -5.346911     19.78672     59.11066         6     0.698     0.570  51.47   0
        40    731.7667    932.0771 300.1291720 +22.8538994     438.7977     70.13324      1.135     2.03    -4.624522     19.78672     82.59345         7     0.709     0.606 -69.63   0
        41    444.5233    928.6761 300.0408511 +22.7666890     2340.461      70.2225      1.177     2.12    -4.717474     19.78672     339.9561        19     1.007     0.898  42.25   0
        42    743.1769    929.2379 300.1336512 +22.8565096     340.6054      70.1511      0.970     1.89    -4.596909     19.78672     83.86197         7     0.766     0.539 -18.52   0
        43    169.8596    914.6194 299.9600215 +22.6801573     422.4153     70.07963      1.157     2.25    -3.771907     19.78672     71.38117         9     0.839     0.639 -72.04   0
        44    147.0222    911.4707 299.9539499 +22.6723934     935.9041     70.16896      1.224     2.14    -3.841483     19.78672     151.8134        13     0.886     0.823  -4.61   0
        45   1018.3513    900.1516 300.2289032 +22.9307238     1349.427     70.16896      1.192     2.03    -4.964229     19.78672     213.4953        16     0.940     0.863  -1.88  16
        46     21.8368    901.4019 299.9183397 +22.6318909      241.247      70.1511      1.313     3.41    -4.738376     19.78672     32.11874         5     0.741     0.455 -18.18   0
        47    972.6383    898.6340 300.2151398 +22.9165767     1290.369     70.16896      1.079     1.92    -5.040486     19.78672     200.4491        13     0.850     0.736  60.54   0
        48    756.5460    892.7139 300.1497084 +22.8500448     412.0046     70.18681      1.069     3.05    -4.586372     19.78672     55.98891         5     0.719     0.453  68.36   0
        49    178.8226    892.8817 299.9698835 +22.6766225     299.6122      70.0975      1.217     2.96    -3.921376     19.78672     42.70191         6     0.728     0.578  45.48   0
        50    624.4494    886.7394 300.1105086 +22.8086851     2877.051     70.18681      1.163     1.99    -4.668365     19.78672     433.5011        22     1.042     0.876  71.90   0
        51    114.1867    887.5970 299.9515194 +22.6556882     278.3136     69.97228      1.014     3.42    -4.263911     19.78672     35.17367         5     0.732     0.461 -17.18   0
        52    426.5527    883.4459 300.0499854 +22.7483270     380.6472      70.1511      1.329     2.91    -4.667051     19.78672     52.07053         7     0.918     0.489  83.38   0
        53    174.8129    880.7916 299.9725730 +22.6719539      800.689     70.02598      1.266     2.28    -3.977897     19.78672     137.9255        16     0.961     0.923 -69.63   0
        54    644.9972    879.3135 300.1193247 +22.8127230     504.9461     70.06175      1.320     3.56     -4.62332     19.78672     69.27398         9     0.969     0.646 -53.37   0
        55    194.0394    877.7640 299.9795337 +22.6768626      175.671     70.20466      1.005     2.69     -4.04118     19.78672     45.44675         5     0.794     0.465 -50.52   0
        56   1017.4922    866.3564 300.2396380 +22.9207657     665.6796     70.13324      1.074     2.28    -4.828645     19.78672     129.7392         9     0.868     0.690  46.73   0
        57    800.4352    866.3390 300.1719706 +22.8556480     2607.499      70.1511      1.194     2.05    -4.582946     19.78672     361.4373        23     1.012     0.945  18.94   0
        58    517.7202    859.0581 300.0862935 +22.7687080     406.0329     70.16896      1.551     3.51    -4.668956     19.78672     43.08955         7     0.770     0.648 -86.89   0
        59    164.0204    857.2093 299.9768950 +22.6619549      423.265     70.11537      1.093     2.72    -4.042279     19.78672     78.89597         9     0.826     0.664 -64.90   0
        60    313.5923    849.1959 300.0259991 +22.7045866     30736.27     69.97228      1.277     2.22    -4.425365     19.78672     4441.829        62     1.176     1.122  69.78   0
        61    579.5733    852.1304 300.1078024 +22.7852893     269.2789     70.13324      1.144     3.14    -4.677442     19.78672     45.94736         5     0.734     0.460 -71.45   0
        62    571.3748    848.1428 300.1065480 +22.7816848     1028.608     70.13324      1.312     2.42    -4.672732     19.78672     140.2161        15     0.984     0.846 -76.04   0
        63    241.7373    847.4920 300.0042130 +22.6825164     298.1671     70.24034      1.318     3.34    -4.189481     19.78672     46.73585         6     1.164     0.437 -87.44   0
        64    984.0212    847.0073 300.2354972 +22.9051732     421.1554     70.11537      1.037     1.77    -4.802056     19.78672     105.6487         7     0.739     0.527 -44.40   0
        65    600.1151    844.0505 300.1168279 +22.7891380     520.7766     70.11537      1.264     2.20     -4.68791     19.78672     73.60921         9     0.750     0.718  38.69   0
        66    611.6693    842.5089 300.1209273 +22.7921638      282.201     70.25818      1.081     2.83    -4.685972     19.78672     51.22877         5     0.709     0.450  23.49   0
        67    930.7980    839.4581 300.2213573 +22.8870428     195.2717      70.0975      1.067     2.29    -4.796845     19.78672     41.28828         5     0.696     0.457 -22.18   0
        68    716.7487    838.9614 300.1548081 +22.8226822     105.1516     70.13324      1.124     3.61    -4.481634     19.78672     43.46609         6     0.913     0.488 -49.25   0
        69    754.0979    828.5610 300.1698292 +22.8309056     537.3262     70.11537      1.470     4.04    -4.421121     19.78672     86.85789        12     1.382     0.780  62.33   0
        70    363.2631    826.3751 300.0488740 +22.7129618     18128.29     70.11537      1.257     2.25     -4.41573     19.78672     2307.761        49     1.142     1.091 -86.09   0
        71    377.6340    826.9432 300.0531591 +22.7174400     1121.907      70.1511      1.249     1.97    -4.479187     19.78672     191.6389        15     0.910     0.861 -17.04   0
        72    886.1646    821.9657 300.2131353 +22.8686343     1562.755     70.20466      1.167     1.93     -4.47172     19.78672     299.7918        16     0.928     0.816  79.37   0
        73    374.3690    820.8558 300.0541246 +22.7147145     345.2745      70.1511      1.152     1.88    -4.432185     19.78672     64.70724         5     0.682     0.444 -68.55   0
        74    644.2661    818.1955 300.1389912 +22.7949734     355.5914     70.13324      1.146     2.61    -4.624906     19.78672     83.75089        10     0.946     0.689  34.87   0
        75    480.3570    818.6042 300.0878324 +22.7458913     185.7875      70.1511      1.048     4.02    -4.665739     19.78672       42.446         6     0.877     0.526  50.12   0
        76    245.5455    818.1033 300.0149616 +22.6752379     513.7402      70.2225      1.446     2.97    -4.106079     19.78672     84.09764        10     1.016     0.724 -69.56   0
        77    491.5104    813.0914 300.0930975 +22.7476588      581.329     70.29383      1.281     2.96    -4.663117     19.78672     82.36607        10     1.016     0.677  82.68   0
        78     50.4645    814.0455 299.9556630 +22.6154713     343.9749      70.1511      1.715     4.56    -4.703872     19.78672     43.75533         8     1.011     0.730 -50.43   0
        79    892.6743    809.8264 300.2191157 +22.8671030     266.8277     70.13324      1.105     2.94    -4.437346     19.78672     50.47538         6     0.760     0.536  43.63   0
        80     78.8994    807.6132 299.9665887 +22.6221719     408.5841     70.04386      1.401     2.43    -4.692017     19.78672      51.0794         6     0.715     0.597 -54.87   0
        81    436.9685    807.6740 300.0778887 +22.7297310     309.5341      70.1511      1.160     3.27    -4.637808     19.78672     46.71813         5     0.777     0.403  21.15   0
        82    870.0221    804.2593 300.2138660 +22.8587105     222.6815     70.11537      1.165     3.81    -4.185702     19.78672     36.17036         5     0.828     0.503  61.15   0
        83    243.7743    802.6569 300.0194376 +22.6702790      315.396     70.13324      1.308     2.67    -4.055275     19.78672     43.96361         7     0.792     0.603 -27.30   0
        84    535.9162    790.9024 300.1141394 +22.7546253     386.6266     70.29383      1.370     3.06    -4.580161     19.78672     48.03827         6     0.730     0.578  37.37   0
        85    558.1589    788.4748 300.1218532 +22.7606053     828.0308     70.11537      1.365     2.46    -4.564361     19.78672     102.3331        12     0.903     0.775  57.63   0
        86    952.4275    787.2278 300.2451014 +22.8785382     2582.021      70.0975      1.151     2.16    -4.634525     19.78672     371.1173        18     0.908     0.896  50.31   0
        87    477.6425    788.1344 300.0969036 +22.7363391     315.1829     70.11537      1.844     3.63    -4.539431     19.78672     32.23767         6     0.744     0.632  25.87   0
        88    639.6615    783.4170 300.1488755 +22.7836151     231.3671      70.0975      1.313     4.28     -4.46835     19.78672     40.73488         6     0.963     0.676  74.38   0
        89    941.1140    778.6246 300.2443733 +22.8726756     1076.316     70.07963      1.258     2.15    -4.549356     19.78672     163.4857        14     0.884     0.814  88.22   0
        90    304.1176    772.8988 300.0478822 +22.6798714     501.5954     70.29383      1.251     2.57    -4.057277     19.78672     63.07897         7     0.831     0.533  44.50   0
        91    767.3962    770.1116 300.1929946 +22.8181246     1551.125     70.04386      1.319     2.19    -4.114335     19.78672     210.7572        18     0.999     0.925  52.70   0
        92    972.1035    768.7729 300.2572432 +22.8791410     936.4705     70.06175      1.184     2.14    -4.619882     19.78672     175.6301        12     0.892     0.753 -81.37   0
        93    152.9258    756.4843 300.0062246 +22.6297594     322.9021      70.2225      1.313     4.11    -4.060484     19.78672     58.80897         8     1.089     0.587  84.77   0
        94    849.7482    755.7626 300.2233283 +22.8387104     380.6181      70.1511      1.479     3.43    -4.087601     19.78672     52.25062         9     1.028     0.643  46.61   0
        95    885.7687    746.9885 300.2374118 +22.8469957     86123.84     70.13324      1.251     2.12    -4.139647     19.78672     13476.92       111     1.240     1.171  84.26   0
        96    648.4909    750.8219 300.1622314 +22.7769138     247.1071     70.06175      1.156     3.70    -4.135938     19.78672     42.76844         5     0.845     0.567 -42.84   0
        97    738.1389    747.2034 300.1913330 +22.8027735     302.3146     70.11537      1.167     2.22    -3.959498     19.78672     59.18236         6     0.715     0.549  49.07   0
        98    572.0914    735.8502 300.1433136 +22.7496923     980.4424      70.1511      1.336     2.81    -4.164556     19.78672     122.2654        14     0.993     0.853  82.14   0
        99    753.3347    733.1840 300.2006288 +22.8033093     5371.693     70.11537      1.295     2.35    -3.894585     19.78672     654.9566        27     1.044     1.018  68.56   0
       100    255.0004    728.5373 300.0470434 +22.6524052     2696.815      70.0975      1.328     2.40    -3.979334     19.78672     358.1716        24     1.091     0.966 -75.24   0
       101    337.0190    726.7028 300.0731436 +22.6765066     612.3785     70.06175      1.215     2.87    -3.978368     19.78672     79.20319        10     0.855     0.736 -87.28   0
       102    212.7112    724.5341 300.0351996 +22.6385582     318.3104     70.24034      1.274     5.02    -3.981711     19.78672     48.24292         7     1.371     0.520 -71.22   0
       103    545.2249    722.1972 300.1393917 +22.7377131      465.783     70.07963      1.370     3.94    -4.145684     19.78672     53.33906         9     0.943     0.642 -74.84   0
       104    536.7238    714.0875 300.1393837 +22.7328355     1994.961     70.25818      1.399     2.76    -4.122566     19.78672     222.9845        24     1.167     1.017  29.06   0
       105    527.1308    707.9682 300.1383884 +22.7282012     887.9477     70.11537      1.465     2.90    -4.098159     19.78672     97.34784        11     0.948     0.748 -78.00   0
       106    190.5981    704.2010 300.0349406 +22.6260891     339.4565     69.91855      1.179     3.26    -3.987824     19.78672      44.7514         9     0.874     0.729  75.88   0
       107    205.0390    702.5874 300.0399539 +22.6299633     354.2032     70.13324      1.238     3.78    -3.980034     19.78672     48.06383         6     0.871     0.657  86.83   0
       108    973.8903    698.5508 300.2806484 +22.8595156      303.278     70.13324      1.517     4.25    -4.275242     19.78672     39.33545         7     0.871     0.717  67.89   0
       109    230.3719    699.5370 300.0488206 +22.6366963     302.8881     70.13324      1.311     4.11    -3.967347     19.78672     38.84713         7     0.986     0.490   6.27   0
       110    551.1247    697.9653 300.1491111 +22.7325325     238.1343     70.11537      1.058     2.66    -4.113326     19.78672     44.11887         5     0.924     0.368 -29.89   0
       111    451.8642    697.5449 300.1183551 +22.7026215     1030.797     70.18681      1.437     3.16    -3.968525     19.78672     127.9505        17     1.129     0.904  -9.03   0
       112    105.9882    692.8865 300.0123286 +22.5974350     11601.76     70.07963      1.355     2.33    -3.992785     19.78672     1602.266        46     1.193     1.142  89.86   0
       113     26.9254    694.2155 299.9873367 +22.5740670     384.7342     70.13324      1.261     3.14    -4.152711     19.78672     53.87374         6     0.884     0.465  40.76   0
       114    536.8730    692.9076 300.1463200 +22.7268048     561.7487     70.25818      1.460     2.82    -4.092853     19.78672     61.04424         8     0.787     0.674 -56.33   0
       115    954.5778    678.8851 300.2810229 +22.8480783     521.0239     70.07963      1.090     2.34    -4.124657     19.78672     95.85111        11     0.925     0.676  40.92   0
       116     51.9469    676.9465 300.0007249 +22.5766347     977.1656     70.16896      1.871     5.45    -4.066629     19.78672     83.41096        18     1.607     0.735 -84.28   0
       117    118.3633    677.2929 300.0212453 +22.5966827     304.3752     70.11537      1.370     4.09    -3.976921     19.78672     29.00491         6     0.932     0.514 -49.27   0
       118    500.3018    673.6812 300.1411909 +22.7103143     354.6002     70.25818      1.286     2.80    -3.996556     19.78672     43.41894         5     0.722     0.455 -10.17   0
       119    894.8513    671.6096 300.2647663 +22.8280803     486.5756      70.1511      1.466     2.68    -4.109308     19.78672     61.05704         7     0.892     0.477  -7.67   0
       120    456.6513    665.7562 300.1301844 +22.6949408     262.6138     70.16896      1.353     4.07    -3.887884     19.78672     37.82823         7     0.943     0.544  31.31   0
       121    604.9378    664.0062 300.1769110 +22.7389373     325.4155     70.11537      1.363     4.12    -4.046192     19.78672     40.56998         7     0.908     0.533  49.73   0
       122    652.1163    662.5872 300.1920641 +22.7526849     288.9078     70.07963      1.021     1.88     -4.10537     19.78672     49.18026         5     0.673     0.450 -23.56   0
       123    622.3083    662.2166 300.1829020 +22.7436356     306.8054     70.06175      1.200     2.52    -4.060777     19.78672     51.33187         7     0.800     0.592 -67.42   0
       124    500.9823    661.3263 300.1454210 +22.7069745     650.8348     70.13324      1.677     4.16    -3.901107     19.78672     60.60574        11     1.075     0.746 -89.69   0
       125    466.5550    657.2042 300.1360476 +22.6954601     906.6492     70.13324      1.372     3.01    -3.838868     19.78672     136.6151        17     1.154     0.933  62.50   0
       126    934.6177    656.9784 300.2819243 +22.8358034      1802.63     70.11537      1.231     2.24    -4.121577     19.78672     282.1625        16     0.906     0.834  84.10   0
       127     28.7014    651.1434 300.0018963 +22.5622580     2865.144      70.2225      1.336     2.36    -4.046689     19.78672     397.9531        24     1.079     0.989 -71.98   0
       128    330.1169    644.0341 300.0978860 +22.6507301      5234.23      70.0975      1.408     2.67    -3.860959     19.78672     574.3829        34     1.197     1.115  69.12   0
       129    818.9406    642.8161 300.2504689 +22.7970499     1937.983      70.0975      0.764     1.93    -3.989399     19.78672     887.1673         8     0.774     0.403  32.40   0
       130    452.4875    640.9273 300.1369638 +22.6865693     5104.947     70.27601      1.438     2.65    -3.752686     19.78672     635.7118        33     1.178     1.104  70.97   0
       131    948.5739    632.0737 300.2943764 +22.8328365     7115.392     70.13324      1.256     2.22    -4.131691     19.78672     1001.733        34     1.109     1.011 -79.69   0
       132    864.0433    634.7513 300.2671502 +22.8082600      1217.67     70.16896      1.479     2.37    -4.144372     19.78672     153.9886        14     0.939     0.861 -57.60   0
       133    512.9908    630.4406 300.1592032 +22.7017178     6803.221     70.13324      1.454     2.76    -3.661537     19.78672     702.7902        39     1.219     1.182  77.15   0
       134    240.6754    626.1926 300.0758771 +22.6187626     842.6323     70.06175      1.420     2.70    -3.875179     19.78672     90.87704        14     1.000     0.816 -68.34   0
       135    682.1870    626.2360 300.2132523 +22.7512739      380.619     70.11537      1.287     3.37    -4.005068     19.78672     47.73329         7     0.843     0.670  51.20   0
       136    444.7517    618.9630 300.1416994 +22.6779472     2464.499      70.1511      1.452     2.81    -3.655799     19.78672     304.3369        26     1.294     1.034  64.31   0
       137    787.5345    618.5436 300.2485752 +22.7806634     488.8439     70.18681      1.309     2.63    -3.930684     19.78672     67.00539         8     0.867     0.631 -85.96   0
       138    423.0108    617.1823 300.1355139 +22.6709117     782.0026      70.0975      1.691     3.07     -3.70776     19.78672     71.70702        12     0.995     0.792 -16.16   0
       139    177.1973    616.6089 300.0592622 +22.5969557     451.5643     69.95438      1.643     4.46    -3.900436     19.78672     44.56898         7     1.163     0.611 -32.64   0
       140    864.1943    613.9396 300.2739655 +22.8023300      933.201      70.0975      1.531     3.01    -4.165858     19.78672     108.3115        15     1.046     0.900 -45.92   0
       141    744.8975    611.4347 300.2376014 +22.7658354     521.4337     70.13324      1.420     3.73    -3.930684     19.78672     66.95152        10     1.074     0.632  81.72   0
       142    964.8206    612.2390 300.3058935 +22.8320113     157.6788     70.16896      1.132     3.44    -4.125432     19.78672     30.79848         5     0.986     0.348  46.75   0
       143    561.2434    606.1733 300.1821148 +22.7092335       117517      70.1511      1.472     2.81    -3.565487     19.78672     11674.41       144     1.428     1.401 -33.01   0
       144    247.4768    606.3403 300.0844467 +22.6151124     1997.941     70.18681      1.406     2.62    -3.838107     19.78672     235.5695        23     1.145     1.012  52.64   0
       145    813.3567    602.2692 300.2619147 +22.7837350     259.0944      70.0975      1.267     3.47    -3.961194     19.78672     35.24384         5     0.753     0.462  77.86   0
       146    451.9036    586.7067 300.1544131 +22.6708402     1552.642     70.31165      1.480     3.03    -3.475118     19.78672     152.4827        20     1.171     1.025 -89.49   0
       147    769.0406    574.8299 300.2570266 +22.7625680     248.7916      70.1511      1.280     3.70    -3.851084     19.78672      36.7248         5     0.919     0.622 -30.31   0
       148    848.6345    572.4409 300.2826092 +22.7857490     1063.883     70.18681      1.464     2.84    -3.953724     19.78672     128.4469        15     1.015     0.858  52.62   0
       149    720.0194    570.3170 300.2432204 +22.7465711     1360.501     70.07963      1.370     2.81      -3.8086     19.78672     150.0104        18     1.009     0.970  62.41   0
       150     80.0214    571.0232 300.0438880 +22.5547076     223.9558     70.13324      1.229     3.76    -3.776888     19.78672     25.06058         5     0.644     0.630  -1.62   0
       151    507.3376    566.3771 300.1782742 +22.6816412     395.6101     70.11537      1.444     4.10     -3.26363     19.78672     43.64865        10     0.885     0.847  88.02   0
       152    977.2277    564.0649 300.3254276 +22.8218948     717.5918     70.11537      1.298     2.85    -3.910523     19.78672     97.96581        14     0.970     0.894  -3.80   0
       153    962.6809    563.2714 300.3211488 +22.8173064     501.3568     70.25818      1.507     3.33    -3.913623     19.78672     52.79067         8     0.943     0.575 -75.23   0
       154    849.0600    562.9583 300.2858249 +22.7831538     1253.304     70.11537      1.484     2.89    -3.914796     19.78672      127.258        16     1.070     0.904 -84.62   2
       155    602.5573    560.8463 300.2097153 +22.7086207     431.6114     70.16896      2.054     3.97    -3.549366     19.78672      36.8359         8     0.978     0.714  60.08   0
       156    887.1238    557.7289 300.2993911 +22.7930642     2379.843      70.2225      1.344     2.56    -3.905565     19.78672      310.864        24     1.086     1.001  36.35   0
       157    978.9627    548.0214 300.3311849 +22.8178066     435.0732      70.1511      1.317     3.51    -3.838753     19.78672     59.09168         8     0.982     0.690  76.92   0
       158    119.6212    548.7061 300.0634460 +22.5602007     502.5002     70.06175      1.282     3.26    -3.665913     19.78672     59.79366        10     0.924     0.785 -65.98   0
       159    660.6840    528.6009 300.2382995 +22.7168007     514.2113     70.02598      1.555     4.44    -3.541591     19.78672     51.81678         9     0.941     0.822 -53.84   0
       160    974.8997    520.5544 300.3388470 +22.8086992     296.6707      70.1511      1.245     4.00    -3.633086     19.78672     38.41008         7     0.864     0.618  79.20   0
       161    721.0615    520.0846 300.2598754 +22.7324632      500.045     70.25818      1.573     2.90      -3.4641     19.78672     61.10267         9     0.799     0.744  35.81   0
       162    878.6594    516.6028 300.3101220 +22.7787160     476.7546      70.0975      1.146     2.86     -3.70292     19.78672      72.1907        11     0.897     0.815  -8.88   0
       163    862.6310    512.9285 300.3063196 +22.7728557      373.885     70.13324      1.436     2.84    -3.669509     19.78672     44.61762         6     0.788     0.732 -60.42   0
       164    607.2284    511.1586 300.2273220 +22.6957610     1812.674      70.1511      1.496     3.01    -3.444331     19.78672     178.2283        24     1.235     1.036 -87.78   0
       165    967.5618    509.0986 300.3402824 +22.8032091     214.4357     70.13324      1.126     3.69    -3.559369     19.78672     40.18304         6     0.794     0.492  84.11   0
       166     83.4093    503.2302 300.0669762 +22.5362901     247.3939     70.13324      1.349     3.38    -3.650714     19.78672     27.90586         5     0.768     0.430  68.05   0
       167    976.7238    489.1091 300.3496373 +22.8002129     538.0145     70.27601      1.463     4.11    -3.365363     19.78672     66.38578        11     1.174     0.764  77.21   0
       168   1018.3716    489.9518 300.3623540 +22.8129364     712.3698      70.1511      1.179     2.41    -3.173175     19.78672     106.2614         9     0.802     0.694  22.58  16
       169    889.8051    489.2351 300.3224926 +22.7741969     329.5573     70.13324      1.530     4.32    -3.576635     19.78672     30.10395         5     0.840     0.632 -42.28   0
       170    718.0103    484.7559 300.2704079 +22.7214052     739.7188     70.13324      1.672     3.97    -3.099177     19.78672     69.70457        12     1.006     0.910 -36.94   0
       171    222.5378    483.5507 300.1166084 +22.5724137     437.4375     70.18681      1.687     4.22    -3.212149     19.78672     43.10352         7     0.885     0.651  75.05   0
       172    284.1954    479.0677 300.1372350 +22.5896335      2123.81     70.11537      1.509     3.14    -3.189738     19.78672     244.6047        26     1.228     1.112  68.87   0
       173   1016.9781    477.2311 300.3660539 +22.8088641     2584.201     70.13324      1.305     2.16    -3.065037     19.78672     364.5564        24     1.110     1.002 -61.14  16
       174    231.5525    474.0113 300.1225109 +22.5723835     4431.932      70.1511      1.503     2.69    -3.180588     19.78672     529.7017        34     1.269     1.127 -88.33   0
       175    372.2502    468.2286 300.1681431 +22.6129481     2830.282      70.1511      1.570     3.15    -3.188063     19.78672     275.8432        26     1.197     1.114 -79.05   0
       176    996.9124    468.3575 300.3626789 +22.8003016     1017.774     70.13324      1.248     2.34    -3.135962     19.78672     138.7082        12     0.864     0.794 -63.05   0
       177    616.3308    464.7007 300.2452558 +22.6851556     10796.08      70.2225      1.575     3.05    -3.300918     19.78672     1057.758        50     1.319     1.277  80.09   0
       178    634.5223    464.3340 300.2510400 +22.6905060     474.3672      70.2225      2.094     5.75    -3.214856     19.78672     30.74564         7     1.635     0.570 -61.18   0
       179    236.6523    451.8828 300.1312871 +22.5675671     225.6351     70.16896      1.428     4.18    -3.131328     19.78672       32.445         6     0.755     0.660 -36.96   0
       180    949.9567    446.8856 300.3550122 +22.7800609     377.3115      70.0975      1.415     4.23     -3.17873     19.78672      53.0534        10     0.946     0.869 -48.42   0
       181    171.3554    445.0705 300.1132037 +22.5460148     1185.582      70.0975      1.407     2.60    -3.079693     19.78672      134.385        17     1.006     0.921 -64.02   0
       182    556.9694    434.2410 300.2366711 +22.6586086     3832.059      70.1511      1.595     3.14    -3.132011     19.78672     317.6553        33     1.269     1.198  10.97   0
       183    970.4979    434.4046 300.3654742 +22.7826311     691.1334     70.04386      1.250     2.85    -3.044176     19.78672     87.27652        10     0.890     0.757 -56.17   0
       184    272.1901    433.7202 300.1482376 +22.5730225     281.8497      70.0975      1.497     4.42    -3.066888     19.78672     32.54572         6     0.942     0.591  64.28   0
       185    670.1795    424.8188 300.2749861 +22.6898540     280.1691     70.13324      1.237     3.94    -3.045427     19.78672      30.0964         6     0.759     0.586 -41.26   0
       186    761.0153    422.9237 300.3039006 +22.7165444     653.4926     70.13324      1.645     3.98    -2.882979     19.78672     55.02825        15     1.119     1.011 -76.51   0
       187    463.6308    420.5484 300.2120677 +22.6266817      3567.23     70.16896      1.570     3.06    -3.092883     19.78672     377.5562        30     1.251     1.122  83.24   0
       188    952.8909    414.7414 300.3663725 +22.7717054      350.454     70.20466      1.209     5.12     -2.93587     19.78672     43.33916         9     1.063     0.699 -69.44   0
       189    855.3674    414.7000 300.3359788 +22.7424657     740.4067     70.11537      1.446     3.10    -2.883289     19.78672     88.11087        15     1.090     0.871 -86.41   0
       190    828.5287    401.9346 300.3317606 +22.7307544       263.19     70.16896      1.275     3.16     -2.89008     19.78672     37.17056         6     0.778     0.499  89.51   0
       191    351.3418    399.8359 300.1838618 +22.5870513     1461.003     70.13324      1.635     3.11    -2.920033     19.78672     142.6721        23     1.242     1.039  85.01   0
       192     69.6855    396.9763 300.0972373 +22.5017036     580.5941      70.0975      1.338     3.44    -3.586375     19.78672     72.82298        12     0.992     0.800 -56.84   0
       193    320.5581    389.2415 300.1777291 +22.5747753      17024.6     70.24034      1.585     3.00    -2.825702     19.78672     1725.402        61     1.410     1.264  75.58   0
       194    855.1902    386.2021 300.3451826 +22.7342264     721.5991     69.95438      1.402     4.07    -2.877062     19.78672     77.11793        14     1.200     0.789  72.06   0
       195     17.0529    377.2713 300.0872893 +22.4802529     2849.811     70.11537      1.406     2.77    -3.945724     19.78672     303.9231        23     1.112     0.999 -72.99   0
       196    770.9473    375.6410 300.3223576 +22.7059422      341.833     70.13324      1.447     3.41    -2.925203     19.78672     36.44492         7     0.747     0.655  16.87   0
       197    194.7913    375.6484 300.1430417 +22.5331367     185.2009      70.1511      1.333     4.93     -2.91745     19.78672     27.07512         5     1.061     0.649  63.26   0
       198    730.8542    368.7792 300.3120941 +22.6919528     1121.137     70.13324      1.544     3.20    -2.935242     19.78672     110.9047        18     1.064     1.015  44.81   0
       199    945.5461    361.2881 300.3814485 +22.7541463     245.9065      70.1511      1.364     3.72    -2.884004     19.78672     39.86075         8     0.957     0.582  15.85   0
       200    392.6306    353.7473 300.2116773 +22.5862121     1337.024     70.16896      1.784     3.98    -2.869296     19.78672     109.2278        23     1.326     1.095 -85.12   0
       201    832.2264    346.6144 300.3508848 +22.7159717     445.5308      70.1511      1.638     4.42    -2.879915     19.78672     36.49139        10     0.903     0.840  36.12   0
       202    468.6231    332.9747 300.2420697 +22.6030433     719.3807      70.0975      1.622     2.98      -3.1061     19.78672     75.53723        13     0.998     0.870  64.18   0
       203    713.1504    324.6625 300.3209087 +22.6739752     1179.337     70.18681      1.592     3.53    -2.865452     19.78672     114.5871        20     1.226     1.034  49.59   0
       204    974.3337    318.8439 300.4042136 +22.7505749     1782.546     70.11537      1.390     2.73    -2.879193     19.78672     195.9703        18     1.040     0.949 -58.12   0
       205    421.8051    308.4134 300.2354780 +22.5819513     311.4147     70.00808      1.583     4.75    -2.977358     19.78672     35.15062         8     0.948     0.676 -14.28   0
       206     96.5887    303.1925 300.1360558 +22.4828813     770.0891     70.02598      1.610     3.12    -2.896935     19.78672     78.52517        12     0.905     0.896 -22.07   0
       207    127.0247    302.9528 300.1455909 +22.4919466     421.0012      70.1511      1.436     4.84    -2.778517     19.78672      44.1815        10     1.066     0.748  -5.83   0
       208    180.3213    294.5228 300.1648919 +22.5055214     395.3312     70.24034      1.828     3.37     -2.59682     19.78672     39.79411         6     0.901     0.689 -64.62   0
       209    975.4800    292.1592 300.4132378 +22.7432494     246.9452     70.11537      1.262     4.29    -2.856992     19.78672     25.36835         6     1.058     0.495  85.95   0
       210    784.8442    286.0714 300.3557809 +22.6843786     290.6534      70.0975      1.310     4.35     -2.66486     19.78672     37.12585         8     0.962     0.714  73.45   0
       211    882.9174    275.0929 300.3899159 +22.7106128     1324.264     70.27601      1.510     2.93    -2.616447     19.78672     133.2723        20     1.084     1.034  47.56   0
       212    301.8132    272.7056 300.2097481 +22.5357109     1255.759     70.06175      1.649     3.51    -2.505812     19.78672     134.3812        19     1.205     1.027  76.86   0
       213    379.7088    267.6605 300.2356147 +22.5576278     571.3192      70.2225      1.604     3.82    -2.574159     19.78672     51.65301        12     1.020     0.873  64.66   0
       214    781.3698    266.4536 300.3610686 +22.6777013     192.0262      70.1511      1.216     3.98    -2.658468     19.78672     43.37871         6     1.100     0.551 -62.37   0
       215    196.7368    259.7766 300.1812764 +22.5004776     481.7962     70.11537      1.667     3.29     -2.46303     19.78672     66.64612         7     0.981     0.644 -58.15   0
       216    734.2182    256.5898 300.3495789 +22.6607365     1101.949      70.0975      1.742     3.97    -2.679154     19.78672     94.62811        17     1.249     0.915 -28.21   0
       217    799.3154    255.7950 300.3701223 +22.6800169     431.4858     70.06175      1.644     3.93    -2.642381     19.78672     43.38158         6     1.060     0.417  77.81   0
       218    218.1680    253.4451 300.1899941 +22.5050907     114.9338     70.18681      1.101     3.48     -2.51571     19.78672     32.48828         5     0.789     0.444  20.06   0
       219   1005.2822    248.9247 300.4365732 +22.7397502     515.2075     70.24034      1.349     3.56    -2.745743     19.78672      65.3801         8     1.006     0.622  46.92   0
       220    738.3768    248.3192 300.3535600 +22.6596069     411.7087      70.0975      1.410     4.00    -2.660593     19.78672     46.82146         8     0.983     0.586 -14.83   0
       221    658.5217    247.5181 300.3289435 +22.6354424     700.0314     70.24034      1.569     3.84    -2.637952     19.78672     76.12852        13     1.055     0.873 -11.61   0
       222    854.1101    238.6562 300.3927664 +22.6915112     685.4911     70.18681      1.485     3.49    -2.615781     19.78672     77.97349        16     1.071     0.973  66.58   0
       223    585.1542    239.2179 300.3087903 +22.6110655     521.9916     70.16896      1.547     3.62    -2.526796     19.78672     51.80058        11     1.099     0.715  34.90   0
       224    866.3580    238.0108 300.3967942 +22.6949954     575.0988     70.13324      1.931     3.05    -2.610424     19.78672      51.2034         9     0.909     0.776  45.04   0
       225     50.1647    238.8572 300.1425218 +22.4504948     108.8482      70.1511      1.583     4.50    -2.842238     19.78672     27.68224         5     0.793     0.724  67.66   0
       226    982.8936    227.9349 300.4364048 +22.7270106     567.0848     70.24034      1.293     2.80     -2.61114     19.78672     83.01835        10     0.961     0.681  42.94   0
       227      6.6378    225.1591 300.1334484 +22.4335028     343.8447      70.2225      1.485     3.85    -3.086476     19.78672     42.14451         6     1.032     0.413  74.89  16
       228    217.0916    221.2798 300.2001019 +22.4955376     429.0242     70.24034      1.422     4.64    -2.459213     19.78672     47.69958         8     0.848     0.720 -39.26   0
       229     78.9535    216.3290 300.1587786 +22.4526713     1307.817     70.11537      1.551     3.29     -2.60337     19.78672     118.9584        20     1.131     1.011 -61.18   0
       230    901.9185    212.9165 300.4160283 +22.6984374     413.9401     70.25818      1.653     3.92    -2.557894     19.78672     52.49304        11     1.176     0.624 -74.56   0
       231    236.4083    209.6857 300.2098708 +22.4980051     3376.657     70.07963      1.624     3.01    -2.436993     19.78672     352.7336        30     1.290     1.142  81.12   0
       232     20.6072    203.9342 300.1446770 +22.4316069     812.2686      70.1511      1.592     2.93    -3.023846     19.78672     95.65793        15     1.044     0.885  75.84   0
       233    219.8126    200.9515 300.2075465 +22.4905202     361.3468      70.1511      1.391     4.53     -2.38338     19.78672      39.2312         7     1.071     0.544 -35.26   0
       234    880.1732    190.7569 300.4164422 +22.6855542     2037.384      70.1511      1.462     2.87    -2.541106     19.78672     211.8541        24     1.122     1.081  66.40   0
       235    983.7598    189.5365 300.4491410 +22.7162321      1610.13     70.11537      1.481     2.91    -2.332569     19.78672     170.7416        22     1.155     1.052  -5.36   0
       236    429.9740    186.4245 300.2776263 +22.5493801     318.6526      70.0975      1.332     3.54    -2.144784     19.78672     51.98013         6     0.840     0.627  42.00   0
       237    543.4697    184.2591 300.3136535 +22.5827855     180.4322      70.1511      1.554     3.89    -2.305931     19.78672     31.56752         5     1.035     0.418  -7.89   0
       238    353.3289    178.1923 300.2564531 +22.5240334     328.9276     70.11537      1.804     5.06    -2.097306     19.78672     35.77653         6     1.072     0.675   2.89   0
       239    358.3811    177.4059 300.2582799 +22.5253227     377.7514      70.0975      1.810     4.04     -2.08855     19.78672      36.7406         5     0.981     0.476 -43.60   0
       240    120.4221    175.2918 300.1849835 +22.4533398      362.657     70.06175      1.498     4.07     -2.18291     19.78672     39.77987         7     0.981     0.481 -82.61   0
       241    481.2025    173.4697 300.2977733 +22.5610198     964.7438     70.07963      1.547     3.59    -2.114153     19.78672     87.34301        18     1.185     0.982  68.17   0
       242    409.5763    173.7454 300.2753949 +22.5396234     200.3755      70.1511      1.594     5.28    -2.050642     19.78672     26.88348         5     1.069     0.736  10.28   0
       243    769.1246    162.7297 300.3909262 +22.6442296     194.6277     70.20466      1.306     4.22     -2.58865     19.78672     40.76308         8     1.140     0.748  38.78   0
       244    255.2820    153.5913 300.2339456 +22.4875665     3357.093     70.07963      1.534     2.89    -2.154244     19.78672     352.5666        27     1.206     1.079  70.99   0
       245    106.9435    152.5410 300.1881788 +22.4427678     415.8501     70.20466      1.602     4.72    -2.135558     19.78672     53.89865        10     1.151     0.918 -89.67   0
       246    501.1732    138.5927 300.3153086 +22.5569907     3567.194     70.13324      1.660     3.35    -2.074462     19.78672     289.8353        34     1.345     1.257 -81.87   0
       247    386.8630    138.7305 300.2796923 +22.5227593     301.2129     70.16896      1.327     3.05    -2.018641     19.78672     54.75172         7     0.999     0.523  73.65   0
       248    753.5594    128.5015 300.3971847 +22.6297301     603.2649     70.11537      1.856     3.56    -2.492568     19.78672     54.53178        10     1.076     0.740 -46.80   0
       249    194.0891    122.9892 300.2248523 +22.4604289     220.1431     70.07963      1.133     3.02    -2.114541     19.78672     37.51529         5     0.620     0.601  87.55   0
       250    629.4772    118.6694 300.3617213 +22.5897240     3560.271     70.24034      1.646     3.29    -2.244481     19.78672     338.5887        32     1.289     1.184  73.23   0
       251    404.6494    117.6217 300.2920760 +22.5220310     805.1689     70.13324      1.640     3.75    -2.009355     19.78672     77.58152        17     1.243     0.888  71.42   0
       252    741.3602    116.3646 300.3973221 +22.6225873     222.0109     70.18681      1.632     6.05    -2.454342     19.78672     40.32826         5     1.102     0.934 -71.99   0
       253    670.6753    116.1650 300.3753658 +22.6013503     567.8889      70.0975      1.601     4.11    -2.390819     19.78672     58.88506        12     0.987     0.904 -34.54   0
       254    686.5146    112.1942 300.3815883 +22.6049556     358.7592     70.06175      1.566     5.61     -2.39711     19.78672     32.55148         8     1.283     0.691   3.39   0
       255    153.4035    109.9372 300.2164416 +22.4444792     330.4266     70.13324      1.470     4.68    -2.066896     19.78672     38.83103         8     1.046     0.593 -66.87   0
       256    956.5583    109.3726 300.4666754 +22.6850392     345.7831      70.1511      1.432     4.25    -2.088806     19.78672     35.64791         7     0.994     0.518 -26.33   0
       257    724.6245    107.6152 300.3949469 +22.6150588     290.3371      70.1511      1.621     5.25    -2.421424     19.78672     27.50504         7     0.910     0.857 -29.13   0
       258    673.6070    103.4979 300.3803894 +22.5985892     1643.025     70.00808      1.682     3.32    -2.353124     19.78672     137.6374        25     1.213     1.115  82.08   0
       259    688.5544    101.8627 300.3855762 +22.6025982     604.8599     70.16896      2.161     5.13    -2.365978     19.78672     44.88209        11     1.318     0.991  43.73   0
       260    760.1190     95.0590 300.4100809 +22.6220847     976.9179     70.20466      1.816     3.54    -2.403545     19.78672     90.63937        16     1.125     0.952  24.98   0
       261    503.8849     87.7377 300.3326548 +22.5431971     721.4774     70.25818      1.712     3.62    -2.016469     19.78672     58.15646        14     1.047     0.971 -59.30   0
       262     77.0515     87.8348 300.1998870 +22.4152325     337.3505      70.1511      1.534     5.37    -2.072773     19.78672     33.86172         8     0.961     0.847  79.88   0
       263    407.6542     86.0809 300.3032450 +22.5138745     483.1484     70.16896      1.569     4.24    -2.050716     19.78672     45.29093         7     0.801     0.640 -77.23   0
       264    179.2393     76.0045 300.2354810 +22.4424891     2214.568      70.1511      1.583     3.24     -1.87704     19.78672     179.3257        26     1.256     1.089  80.64   0
       265    746.3811     76.3836 300.4118597 +22.6126018     332.6915     70.11537      1.422     4.79    -2.367963     19.78672     34.97152         8     0.996     0.653  20.16   0
       266    740.2292     68.7464 300.4124207 +22.6085639     561.1273     70.13324      1.526     4.03    -2.366996     19.78672     53.59974        10     0.948     0.799  49.24   0
       267    294.9380     68.2743 300.2739605 +22.4749665     689.0262     70.16896      1.580     3.55    -2.243491     19.78672     71.10371        12     1.088     0.806  21.13   0
       268    778.1088     62.9530 300.4261041 +22.6182464     380.6302     70.13324      1.394     4.10    -2.263552     19.78672     35.39228         8     0.831     0.681  47.57   0
       269    701.8676     63.0418 300.4023195 +22.5954316     388.1589     70.11537      1.406     3.98    -2.180234     19.78672     33.79194         6     0.924     0.490 -56.62   0
       270    798.0178     59.4752 300.4334372 +22.6232105     1425.521     70.13324      1.668     3.32    -2.189873     19.78672     135.7868        20     1.170     1.069  56.59   0
       271    504.3861     58.2335 300.3423831 +22.5348724     230.3267     70.11537      1.161     2.88    -1.939593     19.78672     32.66581         5     0.716     0.461  73.42   0
       272    181.7125     55.0275 300.2430549 +22.4372095     579.1833     70.11537      1.660     3.80    -1.685383     19.78672     56.07121        12     1.086     0.908 -64.52   0
       273    972.9442     52.2863 300.4903088 +22.6735320     378.0984     70.20466      1.221     2.54    -2.044911     19.78672     65.35303         8     0.791     0.688  52.32   0
       274    746.4229     52.1716 300.4197281 +22.6056558     531.1172     70.13324      1.638     4.93    -2.322839     19.78672     47.74508        11     1.189     0.651 -23.83   0
       275    599.1368     37.0977 300.3787389 +22.5571956     565.4034      70.2225      1.658     3.90     -2.14753     19.78672       44.775        10     1.017     0.700  -8.56   0
       276    761.8448     31.6748 300.4311830 +22.6043843     446.8582     70.11537      1.706     3.60    -2.206672     19.78672     47.36905         9     1.026     0.820  66.15   0
       277    570.7191     30.0477 300.3721771 +22.5466545     1163.408      70.1511      1.682     3.73    -1.704632     19.78672     92.90838        21     1.252     1.043 -71.15   0
       278    294.1259     27.2515 300.2870155 +22.4629442     414.7603      70.1511      1.477     4.37    -2.292415     19.78672      46.5635         7     1.028     0.529 -78.28   0
       279      7.8029     26.0977 300.1984024 +22.3767423     380.2757     70.04386      1.648     3.61    -1.185784     19.78672      42.1279         5     0.658     0.601 -88.04   2
       280    528.2374     24.1127 300.3608763 +22.5322187     673.1351     70.11537      1.543     2.98    -1.479432     19.78672     65.11394        12     0.950     0.831  58.14   0
       281    633.3634     20.4791 300.3947886 +22.5626758     850.4121     70.07963      1.607     3.49    -2.092752     19.78672     80.58043        14     1.070     0.856  70.60   0
       282    228.8072     19.5808 300.2691931 +22.4411565     163.5258      70.0975      1.143     3.68    -1.409988     19.78672     44.91218         6     0.983     0.484   6.37   0
       283    277.9116     17.1944 300.2852353 +22.4551949     288.7446     70.04386      1.303     4.26    -2.136699     19.78672     36.31123         6     1.129     0.458  26.87   0
       284    251.5393   1020.1458 299.9510456 +22.7349298     496.9351     69.23429      1.367     2.33   -0.8665395     19.78672     81.64034         7     0.878     0.476 -78.46  16
       285    173.5572   1020.3834 299.9267305 +22.7115644     748.5992     68.67103      5.714     6.34     7.688052     19.78672     33.55894         9     1.765     0.640  -6.75  16
