#   1 NUMBER                 Running object number                                     
#   2 X_IMAGE                Object position along x                                    [pixel]
#   3 Y_IMAGE                Object position along y                                    [pixel]
#   4 ALPHA_J2000            Right ascension of barycenter (J2000)                      [deg]
#   5 DELTA_J2000            Declination of barycenter (J2000)                          [deg]
#   6 FLUX_APER              Flux vector within fixed circular aperture(s)              [count]
#   7 FLUXERR_APER           RMS error vector for aperture flux(es)                     [count]
#   8 FLUX_RADIUS            Fraction-of-light radii                                    [pixel]
#   9 FWHM_IMAGE             FWHM assuming a gaussian core                              [pixel]
#  10 BACKGROUND             Background at centroid position                            [count]
#  11 THRESHOLD              Detection threshold above background                       [count]
#  12 FLUX_MAX               Peak flux above background                                 [count]
#  13 ISOAREA_IMAGE          Isophotal area above Analysis threshold                    [pixel**2]
#  14 A_IMAGE                Profile RMS along major axis                               [pixel]
#  15 B_IMAGE                Profile RMS along minor axis                               [pixel]
#  16 THETA_IMAGE            Position angle (CCW/x)                                     [deg]
#  17 FLAGS                  Extraction flags                                          
         1    595.9150      5.2487 300.3787768 +22.5569536     512.5305     69.74901      1.521     3.07    -2.336707      19.7438      61.6458        10     0.942     0.768  38.10  16
         2    205.2190      2.4765 300.2581274 +22.4390902     294.3991     60.41474      1.397     4.93    -2.563739      19.7438     38.52365         6     1.066     0.644  83.40  24
         3    657.3844    994.3333 300.0764591 +22.8592941     4088.298     69.96329      1.178     2.07    -5.226761      19.7438     620.6625        30     1.048     0.998  78.44   0
         4    644.5876   1023.7711 300.0628864 +22.8638940     1610.641     53.86549      0.816     1.85    -5.257061      19.7438     530.8759        10     0.886     0.459  -1.57  24
         5    205.5794   1020.6212 299.9273465 +22.7311734     2386.625     67.77158     13.643    32.89     11.29531      19.7438     66.53023       241     6.987     4.296  -9.99  27
         6    174.3004   1018.2282 299.9184057 +22.7210918     1521.548     69.89194      7.683    16.60     19.44153      19.7438     48.61241        43     4.152     1.845 -77.69  27
         7    171.4242   1014.5891 299.9186971 +22.7191854      1621.32     69.98112     10.278    20.15     19.54605      19.7438     45.52116        50     5.295     2.131  62.13  18
         8     74.9574   1021.7772 299.8863875 +22.6922615     1386.122     63.78928     16.552    24.58     15.76291      19.7438     48.33082       102     8.564     1.958   1.09  27
         9     83.6327    948.6750 299.9128860 +22.6739329     2291.038     69.98112     12.214    22.56     1.360172      19.7438     84.01875       120     5.154     2.741 -12.07   3
        10     62.8327   1012.8179 299.8855394 +22.6860528     2080.187     69.96329     11.700    29.54     9.012897      19.7438     47.81885       176     5.954     4.068 -10.65  19
        11     83.2520    994.2828 299.8979175 +22.6868803     3026.019     70.01676     22.512    72.96     12.39563      19.7438      75.6635      1350    13.326    11.084  65.56  27
        12    242.7702   1013.6550 299.9411742 +22.7403493     5391.389     69.99895     10.044    39.35     2.591693      19.7438     124.1634       639    10.335     5.256  56.90  26
        13    111.6840    991.2752 299.9077288 +22.6945610     688.6887     70.07019      5.762     5.27     15.92042      19.7438     35.28797         5     1.267     0.619 -21.00   1
        14    536.9784    988.9855 300.0407163 +22.8216223     287.7796     69.98112      0.886     2.02    -5.089331      19.7438     52.69815         5     0.613     0.553 -89.74   0
        15    248.4247    988.3262 299.9511804 +22.7347917     330.7096     70.01676      1.140     3.38  -0.06849641      19.7438     60.40685         5     0.722     0.462  71.47   0
        16    565.8306    985.1327 300.0509514 +22.8291781     828.3571     69.96329      1.087     1.80    -5.088677      19.7438     190.5701        10     0.785     0.662  53.57   0
        17    931.8163   1010.7603 300.1566180 +22.9463424     424.5166     69.99894      1.096     2.20    -5.049016      19.7438     85.09341         7     0.801     0.532 -37.30   0
        18    459.8282    981.6210 300.0191069 +22.7963511     607.0386     69.98112      1.055     3.12    -5.115122      19.7438     103.4832        10     1.030     0.712 -65.58   0
        19    742.9700    982.1597 300.1070800 +22.8814853      214.853     69.98112      1.102     3.05    -5.209772      19.7438     39.23335         5     0.804     0.483 -56.83   0
        20    115.1600    979.8254 299.9125370 +22.6923261     1316.915     70.01676     11.957    14.57     12.66257      19.7438     40.60768        34     3.214     1.837   5.04   3
        21    390.4767    979.7039 299.9981573 +22.7749797     3867.725     70.10578      1.107     2.01    -5.006345      19.7438       601.23        25     0.984     0.900  87.19   0
        22    225.9248   1020.7227 299.9336366 +22.7373140     3983.906     67.58727      6.863    19.72     5.892864      19.7438     99.42503       192     4.772     3.514  19.21  27
        23    936.5663    958.0964 300.1752508 +22.9326570     1277.888     69.98112      1.071     1.74    -5.062286      19.7438     252.2293        12     0.819     0.752  77.89   0
        24    586.7485    955.5604 300.0670930 +22.8269780     283.2547     69.98112      1.229     3.47    -5.079834      19.7438     35.79588         5     0.757     0.460  18.02   0
        25    725.8981    947.5438 300.1130346 +22.8664351     449.2355     70.07019      1.764     5.29    -5.116187      19.7438     55.32788         8     1.429     0.553  65.57   0
        26    149.0667    996.4088 299.9176709 +22.7072618     956.8884     69.98112      4.018     8.78     17.32058      19.7438     40.12219        13     1.969     1.093 -75.35   2
        27    760.2022    941.2454 300.1257718 +22.8749205     582.9527     69.96329      1.090     2.52    -5.057156      19.7438     114.6156        11     0.900     0.700 -31.90   0
        28    782.4575    934.9962 300.1347405 +22.8798045     6555.629     69.94547      1.080     1.71    -5.017438      19.7438      1262.64        28     0.973     0.883 -78.76   0
        29    973.4144    934.7167 300.1943536 +22.9369986     133.3723     69.94547      0.908     2.59    -5.182165      19.7438     47.44222         5     0.702     0.459 -70.28   0
        30    828.3832    934.7474 300.1491322 +22.8935099     223.3178     69.96329      0.875     1.77    -4.984549      19.7438     67.44913         5     0.674     0.439  65.99   0
        31     93.8317    926.7977 299.9231765 +22.6707308     609.4944     69.94546      1.539     2.89    -3.546078      19.7438     77.79118        10     1.051     0.586 -46.26   0
        32    790.9991    917.1163 300.1432235 +22.8772379     665.2164     69.87408      0.983     1.81     -4.92534      19.7438     181.6701        10     0.744     0.684  81.65   0
        33    974.2609    915.6152 300.2008372 +22.9317707     245.8154     69.94547      0.994     3.26    -5.122517      19.7438     61.46445         7     1.173     0.475 -35.41   0
        34    829.0820    910.2251 300.1573343 +22.8866843     331.2221     69.96329      1.079     2.40    -4.867413      19.7438     74.94098         8     0.810     0.607 -41.46   0
        35    937.8538    907.2113 300.1922212 +22.9184416     141.1981     69.98112      0.968     2.37    -4.952158      19.7438     43.07833         6     0.701     0.572 -48.81   0
        36    877.5040    901.6043 300.1752328 +22.8987340     223.7217     69.89194      0.889     2.42    -4.827421      19.7438      67.2885         6     0.821     0.441 -70.10   0
        37    728.8467    900.7126 300.1292008 +22.8538873     362.8182     69.96329      0.968     2.49    -4.839938      19.7438     72.45203         6     0.735     0.558 -81.73   0
        38    740.3131    898.0052 300.1336541 +22.8565506     405.6743     69.90978      1.204     3.21    -4.816418      19.7438     70.21817         7     0.895     0.615  78.71   0
        39    441.5223    897.3579 300.0408470 +22.7667022     2344.267     69.96329      1.077     2.04     -5.10021      19.7438     368.9227        15     0.862     0.816  86.05   0
        40    219.7776    886.0625 299.9755706 +22.6968888     416.3026     69.96329      1.710     3.74     -4.48787      19.7438     41.73222         6     0.924     0.434 -52.65   0
        41     79.7950    961.5620 299.9074982 +22.6764708     2203.739     69.99894     22.921    45.50     3.962578      19.7438     56.59483       370     9.723     5.909 -23.22   3
        42    166.7220    883.1177 299.9600410 +22.6801116     605.7338     70.08799      1.346     1.85    -3.342586      19.7438     138.3986        12     0.938     0.779 -21.21   0
        43    143.9596    880.3312 299.9538753 +22.6724769     956.8526     69.96329      1.337     2.38     -3.65357      19.7438      143.274        14     0.958     0.844 -69.46   0
        44   1015.4489    868.9678 300.2288690 +22.9307317     1299.546     70.01676      1.110     1.83    -5.344049      19.7438     220.0607        13     0.954     0.724 -61.64   0
        45     18.5737    869.6941 299.9183905 +22.6317671      381.835     69.92763      1.641     4.44    -4.581421      19.7438     41.13609         7     1.067     0.526  44.93   0
        46    969.7620    867.3611 300.2151439 +22.9165727      1278.96     70.05238      1.090     1.89    -5.040869      19.7438     232.9313        13     0.905     0.714  71.48   0
        47    175.7115    861.7398 299.9697926 +22.6766863     291.9303     70.05238      1.106     2.79    -4.569067      19.7438     46.92378         7     0.805     0.602 -61.59   0
        48    753.2855    861.3410 300.1496307 +22.8499242     489.3838     70.08799      1.239     2.29    -4.573716      19.7438     67.05497         8     0.825     0.588  -9.90   0
        49    621.4803    855.3753 300.1105220 +22.8086711     2848.931     69.96329      1.099     1.94    -4.665101      19.7438     429.7958        20     0.959     0.832 -10.01   0
        50    111.0697    855.9176 299.9516030 +22.6556044     290.3931     70.08799      1.282     4.48    -4.542588      19.7438     31.95745         8     0.869     0.656  47.77   0
        51    423.7163    852.5701 300.0498862 +22.7485179     420.3473     69.99895      1.370     2.72     -4.96942      19.7438     60.82998         7     0.865     0.546  61.08   0
        52    171.6077    849.2949 299.9725677 +22.6718881     785.4313     69.87409      1.145     2.28    -4.593233      19.7438     110.3594        12     0.891     0.753 -36.30   0
        53    642.0761    848.0009 300.1193353 +22.8127354      353.939     69.87408      1.105     2.66    -4.617601      19.7438      76.3792         8     0.819     0.619 -52.89   0
        54    190.5751    846.3185 299.9794305 +22.6767311     270.8462     69.96329      1.085     2.93    -4.663267      19.7438     57.84348         7     0.874     0.616 -20.30   0
        55    797.4460    835.0858 300.1719357 +22.8556369     2442.252     69.96329      1.070     1.82    -4.589424      19.7438     457.1442        16     0.854     0.801 -21.56   0
        56   1014.3266    835.1056 300.2395415 +22.9206749     726.2056     70.12357      0.936     1.72    -5.092121      19.7438      141.198         8     0.714     0.589  46.67   0
        57    205.9858    829.7829 299.9896012 +22.6766204     348.7924     69.92763      1.442     3.90    -4.729104      19.7438     49.51465         9     0.986     0.780  62.14   0
        58    514.3551    827.3709 300.0862899 +22.7684955     299.5536     70.01676      1.085     2.04    -4.694969      19.7438     60.27977         5     0.669     0.461  74.62   0
        59    160.9507    825.7356 299.9769231 +22.6619372     669.4396     70.01676      1.191     2.17    -4.643156      19.7438      89.6785         7     0.676     0.655 -13.13   0
        60    576.1010    820.7441 300.1076654 +22.7851230     245.5209     70.07019      1.091     3.01    -4.617493      19.7438     80.41767         8     0.993     0.633  45.46   0
        61    310.6101    817.8494 300.0260085 +22.7046125     30980.15     69.99894      1.212     2.02    -4.753385      19.7438     4861.115        66     1.160     1.104  87.92   0
        62    981.4158    816.0275 300.2354868 +22.9053320     571.5986     69.99894      1.165     3.75    -4.815502      19.7438      106.642        11     1.182     0.677  62.69   0
        63    568.3215    816.7034 300.1065587 +22.7816299     927.7151     70.08799      1.114     2.19    -4.601562      19.7438     139.1137        12     0.845     0.735 -86.32   0
        64    239.1227    815.8577 300.0044321 +22.6825794     325.8847     70.01676      1.269     4.34    -4.772618      19.7438     39.20133         7     0.979     0.574  14.97   0
        65    597.5404    812.8878 300.1168965 +22.7893023     479.4708     70.05238      1.187     3.21    -4.584206      19.7438     76.90708         9     0.957     0.681  16.36   0
        66    608.5264    811.0541 300.1209136 +22.7920724     334.4051     69.99894      1.226     2.40    -4.579957      19.7438       49.656         8     0.774     0.660  11.30   0
        67    713.7017    807.0785 300.1549606 +22.8224833     287.0992     70.10578      1.167     1.83    -4.568004      19.7438     64.34355         5     0.782     0.456  86.18   0
        68    508.6547    804.8145 300.0918564 +22.7603165     64.23957     69.98112      1.043     2.89    -4.521461      19.7438     36.43099         5     0.729     0.450  74.39   0
        69    751.3168    797.5272 300.1697865 +22.8310251     385.0672     70.10578      0.997     2.02    -4.574414      19.7438     74.26698         6     0.711     0.531  48.60   0
        70    360.2815    795.0677 300.0488681 +22.7129923     18231.98     70.08799      1.209     2.05    -4.636149      19.7438     2991.273        47     1.090     1.033  68.72   0
        71    374.4536    795.4360 300.0531560 +22.7173517     1165.543     69.99895      1.201     2.21    -4.585651      19.7438     164.0965        17     1.094     0.848  57.04   0
        72    883.3625    790.7100 300.2131543 +22.8686670      1680.96     69.96329      1.068     1.85    -4.606537      19.7438     322.6732        16     0.938     0.811  36.18   0
        73    641.0688    786.8345 300.1389276 +22.7948880     495.2571     69.98112      1.075     2.35     -4.55379      19.7438     98.76793         9     0.864     0.637  31.07   0
        74    477.4365    786.9370 300.0879591 +22.7458219      274.991     69.98112      1.101     2.62    -4.459493      19.7438     42.61629         5     0.739     0.558  -8.80   0
        75    242.7100    786.7318 300.0150246 +22.6753088     489.8021     70.12357      1.135     2.37    -4.792536      19.7438     87.35255        10     0.821     0.763  35.72   0
        76    488.3699    781.7469 300.0930500 +22.7476144     571.9782     69.99895      1.207     2.33    -4.459438      19.7438     76.07813         9     0.754     0.732 -53.22   0
        77    889.7401    778.4945 300.2191174 +22.8670731     157.7704     70.07019      0.911     2.00    -4.632557      19.7438     54.43242         5     0.667     0.462  23.48   0
        78    346.6514    777.6821 300.0502861 +22.7039169     160.2589     69.99895      1.108     4.29    -4.713402      19.7438     35.15363         6     0.902     0.691  11.22   0
        79     75.7745    776.3035 299.9665454 +22.6221946     234.1575     69.92763      1.073     3.44    -4.553474      19.7438     53.44949         7     0.912     0.549 -60.00   0
        80    642.4128    775.7484 300.1429534 +22.7921109      159.113     70.01676      0.897     2.28    -4.547857      19.7438     44.87539         5     0.699     0.449 -67.74   0
        81    240.4661    771.0111 300.0194419 +22.6701292     208.4104     69.92763      1.008     3.44    -4.817897      19.7438     49.20526         5     0.730     0.637  -2.35   0
        82    533.3171    759.9231 300.1141389 +22.7548421     312.3506     70.07019      1.156     3.32    -4.446534      19.7438     60.08893         7     0.860     0.655  87.81   0
        83    555.0911    757.1714 300.1218116 +22.7605856     708.2803     69.96329      1.138     2.09    -4.456734      19.7438      131.298        10     0.798     0.705 -88.95   0
        84    949.6129    756.0891 300.2450745 +22.8785915     2636.004     69.92763      1.091     1.81    -4.755157      19.7438     498.6799        21     0.923     0.881 -56.00   0
        85    937.8656    747.5635 300.2441857 +22.8726225     959.9119     69.98112      1.145     2.15    -4.765893      19.7438     165.6471        12     0.996     0.710 -54.63   0
        86    301.2679    741.5362 300.0479335 +22.6799322     442.5211     70.03458      1.132     3.00    -4.807928      19.7438     72.03002        10     0.967     0.675 -86.93   0
        87    764.3111    738.7036 300.1929749 +22.8180427     1381.733     70.15914      1.122     1.98    -4.602336      19.7438     230.1773        15     0.888     0.780 -62.52   0
        88    969.1978    737.4566 300.2572440 +22.8791132     948.0276     69.94546      1.032     1.79    -4.808747      19.7438     166.3091        12     0.771     0.741 -85.71   0
        89    149.9506    725.3506 300.0061653 +22.6298671     514.3353     70.01676      1.408     2.80    -4.686358      19.7438     65.27421         9     0.984     0.588  15.10   0
        90    882.8521    715.6888 300.2374047 +22.8469799     86336.88     69.99894      1.147     1.84    -4.669781      19.7438     16135.79       110     1.186     1.138  85.65   0
        91    735.2445    715.9374 300.1913258 +22.8027929     386.2263     69.99894      1.088     2.49    -4.601239      19.7438      72.5826         7     0.781     0.579  74.71   0
        92    569.1553    704.6747 300.1432676 +22.7497460     970.5636     69.96329      1.233     2.34    -4.229647      19.7438     154.9036        14     0.973     0.778  85.12   0
        93    750.3683    701.8907 300.2006067 +22.8032970     5554.375     69.92763      1.207     2.07    -4.603132      19.7438     835.9138        30     1.018     0.994  58.67   0
        94    251.9656    697.1566 300.0470415 +22.6524107     2913.251     70.03458      1.277     2.25    -4.563566      19.7438     443.2034        25     1.059     0.952  87.67   0
        95    333.9207    694.9904 300.0732275 +22.6763874     636.8616     69.94546      1.304     3.16    -4.485225      19.7438      114.383        14     1.141     0.806  28.25   0
        96    208.9928    692.8117 300.0350972 +22.6382658      329.994     69.85623      1.801     3.81    -4.573734      19.7438     32.36418         5     0.820     0.509 -57.54   0
        97    542.2230    690.3809 300.1395335 +22.7375663     472.2673     69.98112      1.190     2.47    -4.095265      19.7438     64.08414         9     0.852     0.650 -71.28   0
        98    533.8082    682.8748 300.1393558 +22.7328888     1851.139     69.96329      1.259     2.34    -4.082886      19.7438     297.7446        18     0.996     0.872 -46.97   0
        99    524.1592    676.7828 300.1383340 +22.7282466     820.8237     69.99894      1.307     3.39    -4.094984      19.7438     114.9315        16     1.191     0.817  62.66   0
       100    917.6404    673.7832 300.2618813 +22.8453778     155.2037     69.99894      1.032     2.28    -4.579985      19.7438     42.92154         5     0.718     0.436  69.48   0
       101    187.2963    673.0176 300.0347917 +22.6260787     388.5735     69.89194      1.380     3.10    -4.442351      19.7438     62.06703         8     0.912     0.723 -28.73   0
       102    201.6975    671.2618 300.0398384 +22.6298984       366.69     70.07019      1.154     2.51     -4.43503      19.7438     61.06915         8     0.834     0.626  89.54   0
       103    971.0496    667.6599 300.2805265 +22.8596278     274.0975     70.03458      1.168     2.62     -4.53596      19.7438     53.86798         7     0.819     0.567  30.00   0
       104    227.4256    667.9174 300.0489227 +22.6366624     183.2337     69.96329      1.168     3.76    -4.419024      19.7438     42.79967         6     0.819     0.494 -89.51   0
       105    448.7191    666.2546 300.1182822 +22.7025941     1050.356     70.01676      1.281     2.37    -4.265144      19.7438      159.743        15     0.955     0.830  66.48   0
       106    547.8561    666.6357 300.1490099 +22.7324442      252.094     69.99894      1.354     3.42    -3.934979      19.7438     33.85781         5     0.805     0.419  20.12   0
       107    102.9346    661.3994 300.0123571 +22.5974226     11635.84     69.98112      1.254     2.14    -4.331572      19.7438     1654.299        43     1.112     1.082 -65.45   0
       108     23.6124    662.6330 299.9873178 +22.5739595     317.8798     69.96329      1.012     3.73    -3.880197      19.7438     59.44128        10     1.126     0.666 -71.91   0
       109    533.6498    661.4514 300.1462742 +22.7266954     654.2956     70.01676      1.339     2.71    -3.949779      19.7438     69.41161        13     0.948     0.830 -44.08   0
       110    287.3968    653.2075 300.0723499 +22.6504444     44.10495     69.80264      1.022     3.42    -4.254667      19.7438     24.69974         5     0.746     0.454  72.15   0
       111    951.6423    647.5636 300.2810107 +22.8480405     686.3809     70.05238      1.170     2.98    -4.402928      19.7438      101.295        11     1.082     0.657  22.10   0
       112     48.9515    645.5383 300.0007462 +22.5766690     901.9786     70.03458      1.593     4.60    -3.883134      19.7438     89.83538        16     1.381     0.750 -86.99   0
       113    114.7923    645.9904 300.0210517 +22.5965660     99.38624     69.85623      1.146     3.82    -4.305596      19.7438     32.81239         5     0.825     0.506  31.38   0
       114    497.2378    642.3456 300.1411551 +22.7102917     267.4545     69.98112      1.211     3.35      -4.0042      19.7438     37.21823         5     0.748     0.442  16.99   0
       115    892.1865    640.1671 300.2648790 +22.8280964     411.6997     69.98112      1.260     2.66    -4.328598      19.7438     61.84327         7     0.821     0.587   9.18   0
       116    453.9363    634.6091 300.1301966 +22.6950823     407.5623     69.96329      1.381     3.53    -4.074881      19.7438     60.41781         9     1.049     0.727  76.59   0
       117    601.6528    633.1376 300.1766511 +22.7389689     321.7616     70.03458      1.611     4.15    -3.824339      19.7438     42.85363         6     0.963     0.601  -8.92   0
       118    619.3479    630.9928 300.1828581 +22.7436603     396.0799     69.96329      1.568     3.09    -3.847402      19.7438      38.2841         7     0.713     0.686  73.93   0
       119    498.1469    630.1862 300.1453921 +22.7070762     570.3999     70.01676      1.298     2.97    -3.918377      19.7438     75.05683        10     0.882     0.773  65.61   0
       120    463.6497    625.7981 300.1360840 +22.6954688     1052.451     69.96329      1.340     2.41     -3.99882      19.7438       148.87        14     1.013     0.761  48.84   0
       121    931.8134    625.5970 300.2819717 +22.8357899     1870.002     69.82051      1.139     1.92    -4.203127      19.7438     344.3513        16     0.862     0.827  27.04   0
       122    828.7917    622.6559 300.2508136 +22.8040660     71.61849     69.96329      1.236     3.41    -4.184306      19.7438     33.32687         5     1.158     0.290 -55.19   0
       123     25.6682    619.4764 300.0019890 +22.5622092      2933.22     70.07019      1.204     2.24    -3.367951      19.7438     402.5693        22     0.996     0.933  70.28   0
       124    971.1688    615.2042 300.2976232 +22.8445998     211.7137     69.96329      1.427     3.39    -4.263975      19.7438     26.88302         5     0.974     0.342 -44.53   0
       125    327.1322    612.6587 300.0978906 +22.6507409     5426.502     70.01676      1.308     2.29     -4.14148      19.7438     728.5029        31     1.100     1.050  50.87   0
       126    449.5202    609.6150 300.1369497 +22.6865877     5124.618     69.99895      1.245     2.24    -3.934791      19.7438      717.877        28     1.056     0.984  75.29   0
       127    861.1597    603.4461 300.2671485 +22.8082531     1144.719     70.03458      1.212     1.99    -4.019349      19.7438      172.829        14     0.936     0.835  62.28   0
       128    945.7000    600.7097 300.2943944 +22.8328048     7327.214     70.14137      1.159     1.98    -4.049291      19.7438     1163.585        29     0.976     0.954 -64.50   0
       129    510.1009    599.2040 300.1591864 +22.7017733     6597.415     69.87409      1.292     2.31    -3.671333      19.7438     907.2742        32     1.106     1.008  75.63   0
       130    679.8011    594.9490 300.2134041 +22.7514445     329.8593     69.94546      1.271     3.89    -3.662376      19.7438     55.15826         7     0.916     0.743 -69.50   0
       131    237.5535    594.6637 300.0758901 +22.6186993     864.9624     70.01676      1.244     2.49    -4.153333      19.7438     126.9734        11     0.868     0.769 -79.96   0
       132    441.8040    587.4168 300.1417662 +22.6779051     2604.334     69.90978      1.311     2.37    -3.791292      19.7438     348.1418        22     1.094     0.927  69.04   0
       133    784.4030    587.0105 300.2485713 +22.7805262      444.114     69.80264      1.248     2.29    -3.896913      19.7438     68.43042         7     0.699     0.653  78.31   0
       134    420.1778    585.8644 300.1355427 +22.6709722     680.1188     69.96329      1.270     2.54    -3.851462      19.7438     91.94263        11     0.825     0.813 -18.66   0
       135    174.1752    585.0858 300.0593054 +22.5969319     460.3844     69.94547      1.282     2.52    -4.204788      19.7438     77.21539         9     0.888     0.650  70.25   0
       136    861.3631    582.6373 300.2739778 +22.8023392     890.6982     70.05238      1.250     2.40    -3.879932      19.7438      130.267        13     0.921     0.784 -42.94   0
       137    558.3720    574.9064 300.1821107 +22.7092793     118141.1     69.89194      1.320     2.32    -3.475057      19.7438     14982.95       144     1.347     1.330 -34.11   0
       138    741.8009    579.5709 300.2377167 +22.7656190     322.6453     69.94546      1.182     3.01    -3.812471      19.7438     61.98684         9     0.860     0.744 -46.60   0
       139    244.4598    574.9617 300.0844420 +22.6151224     1997.082     69.99894      1.319     2.34    -4.112522      19.7438     248.8532        20     1.009     0.971 -34.23   0
       140    809.8878    570.5752 300.2618563 +22.7834469     378.2228     69.92763      1.429     3.30    -3.796282      19.7438     51.94626         6     1.074     0.437  34.07   0
       141    448.9536    555.3608 300.1544119 +22.6708533     1572.025     70.03458      1.443     2.64    -3.534453      19.7438     188.3939        23     1.364     0.943 -87.39   0
       142    766.1514    543.2973 300.2570957 +22.7625051     141.3362     70.01676      1.060     2.53    -3.559456      19.7438      50.0311         6     0.761     0.578  59.88   0
       143    845.9717    541.1348 300.2826731 +22.7858088     981.3983     69.98112      1.199     2.10    -3.613227      19.7438     176.3644        12     0.864     0.797  73.12   0
       144    717.0098    538.9537 300.2431981 +22.7465268     1494.562     69.99894      1.294     2.42     -3.46851      19.7438     210.9592        18     1.002     0.889  42.35   0
       145    504.3873    534.8958 300.1783142 +22.6816079     330.1284     69.90978      1.136     3.11    -3.261416      19.7438     47.81887         9     0.941     0.646 -37.08   0
       146    974.3078    532.8395 300.3253810 +22.8218842     724.0312     69.98112      1.120     1.94    -3.374407      19.7438      130.572        10     0.879     0.622  71.86   0
       147    846.2388    531.3391 300.2859406 +22.7830759      1309.26     69.98112      1.442     2.42    -3.608694      19.7438     172.8857        20     1.244     0.957  89.66   0
       148    959.9399    531.6940 300.3212728 +22.8172501      407.883     70.07019      1.190     2.39    -3.421546      19.7438     75.11927         9     0.871     0.654  51.19   0
       149    599.6620    529.1108 300.2098520 +22.7085187     423.2373     70.07019      1.572     2.43    -3.217388      19.7438     46.33492         5     0.836     0.468 -84.04   0
       150    385.4181    528.8354 300.1432681 +22.6441850     175.4334     69.98112      1.339     4.45     -3.62764      19.7438     26.08577         5     1.154     0.487 -85.83   0
       151    884.2412    526.2960 300.2994256 +22.7930165     2439.451     69.98112      1.224     2.22    -3.586964      19.7438     353.4672        21     1.043     0.892 -78.43   0
       152    438.1504    527.8944 300.1599787 +22.6597327     217.4793     70.03458      1.289     4.49    -3.309932      19.7438     37.25282         5     0.801     0.714  69.00   0
       153    976.0024    516.7399 300.3311429 +22.8177673     302.5818     69.96329      1.050     2.36    -3.363254      19.7438     68.71671         7     0.717     0.629   1.95   0
       154    116.6535    516.7644 300.0636393 +22.5600793     530.7653     69.99895      1.227     2.78    -3.954893      19.7438     68.97032        10     0.849     0.767 -84.98   0
       155    657.6453    496.7252 300.2384336 +22.7166074     437.6821     69.96329      1.352     3.80    -2.968753      19.7438     50.00681         9     0.896     0.766  60.36   0
       156    972.1044    489.2581 300.3388596 +22.8087050     351.4186     70.05238      1.262     2.35    -3.366461      19.7438     57.30254         7     0.691     0.660  17.64   0
       157    718.2302    489.0056 300.2598129 +22.7325529     396.7183     69.98112      1.219     3.02     -3.30614      19.7438     71.35574         8     0.853     0.600  43.74   0
       158    875.6608    485.3163 300.3100704 +22.7786758     578.5878     70.08799      1.250     2.79    -3.591584      19.7438     83.88512        10     0.884     0.740  40.13   0
       159    860.0411    481.8816 300.3063178 +22.7730088     418.9171     69.94546      1.294     2.84    -3.607525      19.7438     48.97309         6     0.740     0.560 -56.11   0
       160    840.4554    481.8189 300.3002334 +22.7671217     157.5541     69.96329      1.063     3.44    -3.577462      19.7438     36.23528         5     0.745     0.460 -71.00   0
       161    604.2602    479.7749 300.2273184 +22.6957366     1840.693     69.96329      1.273     2.28    -2.819113      19.7438     238.2084        21     1.030     0.946  84.17   0
       162    964.7762    478.4143 300.3400986 +22.8033944     268.5798     69.99894      1.189     3.10    -3.367224      19.7438     42.91069         5     0.731     0.448 -20.75   0
       163   1015.6133    458.5053 300.3624238 +22.8129040     682.8305     69.90978      1.177     2.29    -2.982043      19.7438     107.9602        13     0.905     0.772 -39.94   0
       164    973.7225    457.1761 300.3497905 +22.7999732     581.8089     69.98112      1.087     2.97    -3.210921      19.7438     106.8909        10     0.977     0.658  55.93   0
       165    715.0750    453.5321 300.2703579 +22.7214219     583.2422     70.05238      1.306     2.93    -3.252539      19.7438     69.76315        10     0.887     0.765  73.71   0
       166    510.9258    454.3872 300.2065138 +22.6604647     247.6548     69.99894      1.094     2.79    -2.779965      19.7438     48.32511         7     0.732     0.659   4.00   0
       167    218.9370    452.4086 300.1163382 +22.5723172     402.6201     69.92763      1.501     5.25    -3.628793      19.7438     53.18322        10     1.368     0.583  72.13   0
       168    281.1595    447.8002 300.1371792 +22.5896626     2123.706     69.99894      1.380     2.58    -3.465351      19.7438     254.1688        23     1.108     1.013 -12.87   0
       169   1014.1372    445.9040 300.3660584 +22.8088412     2413.351     70.07019      1.206     2.04    -2.838635      19.7438     427.4212        19     0.943     0.882 -61.50   0
       170    228.5099    442.5630 300.1225128 +22.5723653     4493.412     69.96329      1.377     2.40     -3.56159      19.7438     552.0158        30     1.161     1.051  74.88   0
       171    369.2384    436.8065 300.1681420 +22.6129286     2726.345     70.01676      1.362     2.53    -3.281367      19.7438     331.9726        22     1.091     0.968  71.48   0
       172    994.0812    437.0703 300.3626733 +22.8002954     1121.488     70.08799      1.290     2.22    -2.909616      19.7438     191.4216        18     1.026     0.985 -16.90   0
       173    613.4265    433.3153 300.2452694 +22.6851478     10691.42     69.96329      1.358     2.45    -2.798916      19.7438     1203.122        43     1.171     1.131 -87.61   0
       174    630.3774    433.9868 300.2503295 +22.6904221     370.5242     69.96329      1.821     3.20    -2.799397      19.7438      30.8093         6     0.805     0.722 -89.57   2
       175    233.4156    420.4143 300.1312337 +22.5674839     245.1001     69.92763      1.464     5.01    -3.461345      19.7438      26.3704         7     1.093     0.649  45.84   0
       176    946.9217    415.7425 300.3548962 +22.7800408     440.4135     70.03458      1.182     2.50    -3.283898      19.7438     63.66798         9     0.866     0.647 -68.37   0
       177    168.2120    413.6492 300.1131653 +22.5459813     1141.984     69.99894      1.444     2.66    -3.679933      19.7438     144.0232        19     1.117     0.999  83.17   0
       178    554.0300    402.8227 300.2366841 +22.6585878     3853.912     69.96329      1.422     2.75    -2.779601      19.7438     424.2503        31     1.209     1.049  73.67   0
       179    967.5433    403.0230 300.3654594 +22.7825636     616.0215     69.99894      1.131     2.44    -3.059954      19.7438     111.4335        10     0.836     0.762  88.12   0
       180    269.1777    402.2269 300.1482599 +22.5729945     371.8232     69.96329      1.372     3.94    -3.318747      19.7438     47.95025         7     0.975     0.553 -74.26   0
       181    126.4070    395.6907 300.1060085 +22.5282875     450.1625     69.89194      1.415     3.28    -3.528851      19.7438     50.53762         7     0.902     0.539 -25.23   0
       182    668.1184    393.1548 300.2753488 +22.6900112     285.0151     69.96329      1.186     2.41     -2.79123      19.7438     49.01724         6     0.739     0.541  52.85   0
       183    758.0795    391.5405 300.3038971 +22.7165085     720.9271     70.01676      1.392     4.44    -3.518354      19.7438     77.52119        11     1.120     0.672 -88.26   0
       184    460.7417    389.1175 300.2121021 +22.6266840     3434.842     70.05238      1.373     2.63      -2.8479      19.7438     407.2113        27     1.119     1.058  88.70   0
       185    949.8558    383.1237 300.3664085 +22.7715478     285.5019     70.01676      1.127     3.39    -3.279718      19.7438      64.0838        10     1.059     0.632 -82.67   0
       186    852.5207    383.4445 300.3359585 +22.7424810     817.3276     69.96329      1.324     2.50    -3.576767      19.7438     108.9032        13     0.889     0.872  25.03   0
       187    825.0483    370.9674 300.3314490 +22.7306659     358.2064     70.01676      1.231     2.40     -3.54466      19.7438     56.00468         5     0.632     0.559  88.97   0
       188    348.2616    368.3092 300.1838695 +22.5869827     1495.536     70.07019      1.440     2.85    -3.040982      19.7438     155.9421        17     1.110     0.914 -79.87   0
       189     66.9510    365.9092 300.0972105 +22.5019064     583.0439     69.98112      1.375     2.51    -3.520982      19.7438     89.31199        10     0.870     0.765  49.10   0
       190    317.6114    357.8882 300.1777222 +22.5748003     17197.56     69.92763      1.411     2.54    -2.951467      19.7438     2156.126        48     1.234     1.144  75.52   0
       191    852.1916    355.0711 300.3450727 +22.7342315     812.2161     69.96329      1.307     2.61    -3.533835      19.7438       115.15        13     0.930     0.833  87.99   0
       192     13.9382    345.8069 300.0872736 +22.4802340     2918.423     69.94546      1.340     2.29    -3.529626      19.7438     394.4041        23     1.064     0.985  70.13   0
       193    767.6938    344.1603 300.3222834 +22.7057810     287.5356     69.99894      1.356     4.78     -3.41824      19.7438     37.72578         8     0.973     0.665  29.14   0
       194    416.1705    343.4280 300.2130748 +22.6002060     279.3842     69.96329      1.173     3.10    -2.936599      19.7438     35.03149         5     0.734     0.448  21.24   0
       195    727.8833    337.3723 300.3120847 +22.6919024     1207.957     69.98112      1.361     2.51     -3.30203      19.7438     147.5549        16     1.052     0.817 -89.61   0
       196    942.8450    330.0940 300.3814478 +22.7542103     279.3873     69.99894      1.029     2.21    -3.266572      19.7438     58.38542         6     0.712     0.553 -49.40   0
       197    389.8411    322.1083 300.2118079 +22.5861923     1235.184     69.98112      1.566     2.90    -2.993919      19.7438     132.7222        20     1.174     0.959  79.78   0
       198    828.9631    314.6323 300.3509669 +22.7156551     348.9049     69.99894      1.424     4.97    -3.309333      19.7438     45.14037        10     1.084     0.889  68.87   0
       199    465.6679    301.5121 300.2420881 +22.6030144     709.2432     70.10578      1.500     2.53    -2.958921      19.7438     99.69016        13     0.938     0.837 -28.31   0
       200    710.5511    293.2574 300.3210121 +22.6740381     1351.646     70.03458      1.429     2.56    -3.018587      19.7438      146.419        19     1.128     0.975  69.34   0
       201    971.6157    287.4708 300.4042622 +22.7505779      1868.76     69.98112      1.208     2.23    -2.994525      19.7438     240.6551        18     0.982     0.888  64.66   0
       202    418.8369    277.1231 300.2354360 +22.5819734     401.8624     69.94546      1.445     3.03    -3.006672      19.7438     49.27094         5     0.775     0.502  43.18   0
       203    124.7291    271.7262 300.1457447 +22.4922262     323.6983     70.05238      1.368     3.77    -3.047678      19.7438     35.57971         5     0.877     0.466  45.07   0
       204     93.7585    271.5581 300.1361769 +22.4828875     819.2686     70.08799      1.585     3.65    -3.075582      19.7438      86.0956        15     1.254     0.780 -34.65   0
       205    987.0772    268.2247 300.4153339 +22.7496765     322.8298     69.99894      1.546     4.59    -3.002973      19.7438     37.86544         6     1.059     0.565  81.70   0
       206    177.8302    263.5238 300.1649092 +22.5058008     461.4596     69.98112      1.329     2.66    -3.007822      19.7438     48.77165         5     0.729     0.422  26.70   0
       207    781.8686    254.4935 300.3558187 +22.6842692     430.0343     70.10578      1.431     4.09    -2.906568      19.7438     41.54752         7     0.968     0.493   5.52   0
       208    880.1919    243.5747 300.3900089 +22.7105828     1342.332     69.98112      1.414     2.65    -3.203022      19.7438     148.7092        18     1.017     0.979   8.24   0
       209    298.7458    241.3021 300.2097130 +22.5356854     1335.302     70.07019      1.532     2.57    -2.961942      19.7438     151.7156        19     1.079     1.034  12.16   0
       210    376.6954    236.2455 300.2355976 +22.5576052     569.1628     69.99895      1.576     3.22    -2.949272      19.7438      61.3381        11     1.013     0.765 -82.07   0
       211    128.1930    236.6079 300.1582220 +22.4831902     160.4123     69.83837      1.143     3.64    -2.940599      19.7438     29.30777         5     0.988     0.386  84.73   0
       212    778.3958    235.0942 300.3610348 +22.6776552     262.9078     69.89194      1.317     3.86    -2.872059      19.7438     42.24617         7     0.899     0.566  10.36   0
       213    193.4837    228.5914 300.1811146 +22.5004723     393.7762     69.92763      1.322     3.21    -2.913979      19.7438     54.02858         9     0.873     0.781 -71.95   0
       214    731.3750    225.1129 300.3496247 +22.6607017     954.2267     69.92763      1.391     2.73    -2.836629      19.7438     117.6337        16     1.102     0.802  70.48   0
       215    796.0609    224.4981 300.3699796 +22.6799023      328.156     70.05238      1.288     4.59    -2.847385      19.7438     44.72545         9     0.912     0.740 -67.90   0
       216    215.0630    221.8269 300.1900179 +22.5050026     316.0166     69.98112      1.091     2.38    -2.888056      19.7438     45.43237         5     0.753     0.488  55.04   0
       217   1002.5375    217.4322 300.4366469 +22.7397057     648.8455     69.98112      1.471     2.58    -3.135627      19.7438     65.23565        10     0.911     0.698  62.18   0
       218    735.1433    216.6103 300.3535589 +22.6593879     391.8915     69.94546      1.155     2.97     -2.81925      19.7438     53.44844         9     0.865     0.692  68.21   0
       219    655.8253    215.8325 300.3291041 +22.6354012     727.6942     69.98112      1.504     3.35    -2.768769      19.7438     81.17013        13     1.045     0.884 -43.86   0
       220    851.1459    207.3185 300.3927249 +22.6914645      688.513     70.01676      1.195     2.63    -2.930482      19.7438     85.24754        11     0.911     0.715  67.08   0
       221    582.0569    207.6381 300.3087932 +22.6109437     575.8021     69.98112      1.516     3.38    -2.904175      19.7438     54.59506        10     0.978     0.668  64.70   0
       222    863.2604    206.3736 300.3968079 +22.6948211     374.3499     69.98112      1.240     3.27    -2.957117      19.7438     55.85891         6     0.712     0.635  84.51   0
       223   1023.5616    197.1979 300.4497735 +22.7401832      714.957     55.03387      1.023     2.31     -3.23558      19.7438     157.6983        10     0.966     0.614 -79.03  24
       224    979.7866    196.5468 300.4363309 +22.7268901      626.218     69.99894      1.256     2.34    -3.079307      19.7438      97.8504        12     0.936     0.733  57.03   0
       225      3.4201    193.2334 300.1335410 +22.4333191     173.9213     64.52811      1.109     3.46    -2.919863      19.7438     28.81612         5     0.770     0.450  71.13  16
       226    214.1723    190.0709 300.2000485 +22.4956223     419.4391     69.96329      1.306     2.38    -2.739761      19.7438     57.27627         8     0.781     0.654 -49.48   0
       227     75.9823    184.7973 300.1588174 +22.4526653     1291.943     69.89194      1.406     2.71    -2.830658      19.7438     161.1878        20     1.107     1.001  56.62   0
       228    899.2301    181.3323 300.4161498 +22.6983959     449.1421     69.96329      1.426     2.85    -2.766509      19.7438     49.16285         8     0.855     0.698  73.98   0
       229     25.7967    181.7492 300.1442178 +22.4367373      274.838     69.98112      1.326     3.02    -2.851792      19.7438     50.97369         5     0.838     0.446  46.48   0
       230    233.3570    178.0918 300.2099001 +22.4979369     3291.132     69.98112      1.413     2.50    -2.684832      19.7438      370.794        27     1.148     1.049  68.68   0
       231     17.7054    172.4339 300.1447279 +22.4316379     801.6569     69.96329      1.505     4.04    -2.811367      19.7438      78.9422        19     1.257     1.003  27.73   0
       232    216.5655    169.1061 300.2075965 +22.4903231     402.6153     69.94546      1.532     3.51    -2.642442      19.7438     67.06182         8     1.032     0.844  87.05   0
       233    877.3036    159.2988 300.4164654 +22.6854971     2024.248     70.15914      1.282     2.52    -2.602404      19.7438     233.0584        20     1.035     0.946 -59.42   0
       234    981.0549    158.0565 300.4492197 +22.7162047     1684.514     70.03458      1.288     2.05    -2.998358      19.7438     271.6078        19     0.996     0.871  53.90   0
       235    179.6227    155.7798 300.2004385 +22.4754210     182.4077     69.98112      1.192     3.82    -2.601779      19.7438     27.30463         5     1.035     0.405  -5.27   0
       236    427.1463    154.7102 300.2777575 +22.5493193     390.7208     70.01676      1.394     1.86    -2.571128      19.7438     53.14897         5     0.703     0.421 -17.49   0
       237    351.3449    146.2968 300.2569071 +22.5241831     272.7957     70.07019      1.370     3.39    -2.564291      19.7438     38.31188         5     0.745     0.447  74.35   0
       238    355.2379    145.1048 300.2585048 +22.5250078     200.6908     69.96329      1.259     4.34    -2.560204      19.7438     33.67883         5     0.754     0.712 -66.90   0
       239    117.3387    143.7386 300.1849906 +22.4532878     316.0525     70.01676      1.388     3.12    -2.680891      19.7438     37.29746         5     0.743     0.442 -73.60   0
       240    478.3604    142.0063 300.2978165 +22.5610199     963.7388     70.01676      1.289     2.91    -2.430691      19.7438     115.2298        15     0.983     0.937  27.31   0
       241    221.8811    137.4859 300.2195100 +22.4828415     173.8831     70.12357      1.471     3.35    -2.592794      19.7438     32.85891         5     1.190     0.273 -55.13   0
       242    252.3643    122.0228 300.2340041 +22.4875423     3374.307     69.99894      1.416     2.62    -2.571039      19.7438     393.3817        29     1.167     1.056  80.57   0
       243    103.0716    121.5094 300.1877706 +22.4426304     520.4155     70.14137      1.626     3.62    -2.660451      19.7438     54.34354         8     0.945     0.750  27.33   0
       244     14.5091    112.1598 300.1632932 +22.4133869     253.7447     69.98112      1.156     3.38    -2.779566      19.7438     42.40274         5     1.022     0.324 -66.88   0
       245    498.3176    107.2539 300.3153043 +22.5570194     3635.595     70.01676      1.425     2.69    -2.385082      19.7438     367.0037        25     1.100     1.063  52.54   0
       246    384.1931    107.0949 300.2798452 +22.5227730     329.7307     69.87409      1.462     3.29    -2.435313      19.7438      58.2944         8     0.973     0.620 -30.39   0
       247    750.8565     96.7176 300.3973649 +22.6296442     451.2961     70.05238      1.389     3.21    -2.623738      19.7438     57.87068         7     0.875     0.584  68.94   0
       248    843.0075     95.1494 300.4265915 +22.6567887     232.5116     69.98112      1.228     2.97    -2.549352      19.7438     33.35839         5     0.792     0.492 -57.32   0
       249    191.2476     91.1438 300.2250240 +22.4603553     356.0265     70.01676      1.393     4.11     -2.56157      19.7438     39.47348         6     0.781     0.618 -15.10   0
       250    626.6273     87.2701 300.3617337 +22.5897203     3649.012     69.98112      1.436     2.73    -2.424407      19.7438      396.438        30     1.150     1.112 -85.13   0
       251    550.1180     89.1064 300.3373162 +22.5673272     176.4886     70.12357      1.359     4.50    -2.392316      19.7438     41.46191         7     0.896     0.744  10.06   0
       252    401.6087     86.4355 300.2919659 +22.5220599     823.1131     69.98112      1.349     2.75    -2.402446      19.7438     98.61639        12     0.903     0.810  85.61   0
       253    667.8546     84.3920 300.3755072 +22.6012426      481.511     69.98112      1.297     3.22    -2.614555      19.7438     62.31022        10     1.089     0.592  -6.42   0
       254    150.2605     78.8486 300.2162743 +22.4445373     444.7804     70.03458      1.337     2.77     -2.55591      19.7438     62.78982         9     0.898     0.704 -71.93   0
       255    992.9354     77.6419 300.4790198 +22.6966403     67.75716     69.96329      0.878     4.41    -2.386059      19.7438     32.00677         6     0.846     0.653  33.29   0
       256    722.3580     76.2402 300.3951298 +22.6152244     213.0779     70.07019      1.303     4.00    -2.667506      19.7438     34.71395         6     0.892     0.514 -46.92   0
       257    670.9208     72.0619 300.3804625 +22.5986180     1555.796     70.05238      1.373     2.64    -2.640828      19.7438     198.7645        19     1.064     0.907  34.00   0
       258    685.4525     70.2809 300.3855666 +22.6024587     517.9499     69.99895      1.875     3.47    -2.659312      19.7438     47.69971         5     0.767     0.453  70.62   0
       259    757.4080     63.6301 300.4101411 +22.6220969     919.8984     69.98112      1.441     2.70    -2.702772      19.7438     98.71931        14     0.931     0.890  59.07   0
       260    695.4678     56.3944 300.3931913 +22.6014677     482.4026     69.94547      1.497     4.81    -2.686252      19.7438     44.61332        11     1.093     0.808  -2.58   0
       261    501.0702     56.2997 300.3326920 +22.5432082     601.5338     70.10578      1.469     3.21    -2.372322      19.7438     61.99865        12     0.954     0.847  62.26   0
       262     73.5519     56.1437 300.1998051 +22.4150201     343.3512     70.01676      1.350     4.08    -2.627875      19.7438     39.93597         7     0.891     0.591  11.54   0
       263    404.6902     54.3753 300.3033252 +22.5137762     499.7519     69.92763      1.463     2.81    -2.402446      19.7438     62.91562        11     0.923     0.801  33.36   0
       264    786.9197     52.7633 300.4228625 +22.6278108     345.1768     69.94546      1.632     3.51    -2.729117      19.7438     47.00574         7     0.936     0.622  10.46   0
       265    176.1586     44.5355 300.2354536 +22.4424528     2236.237     69.94546      1.471     2.67    -2.540189      19.7438     247.2067        26     1.219     1.041  34.35   0
       266    744.1697     44.5733 300.4121985 +22.6126554     332.5887     69.98112      1.334     4.02    -2.748277      19.7438      48.3687         7     0.902     0.580 -79.97   0
       267    307.4101     45.2282 300.2760338 +22.4819953     165.3356     69.98112      1.007     3.42    -2.481052      19.7438     29.66143         5     0.759     0.445  70.15   0
       268    737.4995     36.4706 300.4127486 +22.6083291     505.9217     70.12357      1.416     3.50    -2.769832      19.7438     60.15025        13     1.010     0.893  -6.52   0
       269    292.0969     36.6046 300.2740690 +22.4749295     694.8627     69.89194      1.486     2.59    -2.506684      19.7438     87.90292        11     0.942     0.708  68.61   0
       270    775.8021     31.3872 300.4263322 +22.6183374     436.8438     69.82051      1.533     4.58    -2.781807      19.7438     40.15524         8     1.091     0.618  89.57   0
       271    795.2982     28.0117 300.4335026 +22.6232048     1263.773     69.87408      1.353     2.50    -2.788992      19.7438      158.517        20     1.072     0.956  62.32   0
       272    178.6730     23.2931 300.2431250 +22.4371087     600.2196     70.10578      1.418     3.11    -2.535847      19.7438     70.05106        10     0.968     0.726 -65.55   0
       273    970.2737     21.0184 300.4903209 +22.6735747     332.9357     69.98112      1.223     4.09    -2.383071      19.7438     56.52713         7     0.920     0.639 -77.07   0
       274    743.7376     20.7016 300.4198072 +22.6056648     525.4377     70.07019      1.314     3.16    -2.805757      19.7438     72.32483        12     0.972     0.840  34.18   0
       275    501.5969     13.4173 300.3467655 +22.5310473     226.2755     69.89194      1.278     3.88    -2.391853      19.7438      26.6359         5     1.021     0.423 -15.83   0
       276      2.3078   1019.0552 299.8647128 +22.6696515     656.5751     59.62497      5.313     6.96    -16.41118      19.7438     29.57207         9     1.722     0.789  87.97  25
