#   1 NUMBER                 Running object number                                     
#   2 X_IMAGE                Object position along x                                    [pixel]
#   3 Y_IMAGE                Object position along y                                    [pixel]
#   4 ALPHA_J2000            Right ascension of barycenter (J2000)                      [deg]
#   5 DELTA_J2000            Declination of barycenter (J2000)                          [deg]
#   6 FLUX_APER              Flux vector within fixed circular aperture(s)              [count]
#   7 FLUXERR_APER           RMS error vector for aperture flux(es)                     [count]
#   8 FLUX_RADIUS            Fraction-of-light radii                                    [pixel]
#   9 FWHM_IMAGE             FWHM assuming a gaussian core                              [pixel]
#  10 BACKGROUND             Background at centroid position                            [count]
#  11 THRESHOLD              Detection threshold above background                       [count]
#  12 FLUX_MAX               Peak flux above background                                 [count]
#  13 ISOAREA_IMAGE          Isophotal area above Analysis threshold                    [pixel**2]
#  14 A_IMAGE                Profile RMS along major axis                               [pixel]
#  15 B_IMAGE                Profile RMS along minor axis                               [pixel]
#  16 THETA_IMAGE            Position angle (CCW/x)                                     [deg]
#  17 FLAGS                  Extraction flags                                          
         1    453.7846     15.7009 300.3408555 +22.5071368     1226.096     70.11145      1.638     2.96    -2.171911     19.80581     120.9923        22     1.200     1.094 -45.07   0
         2    101.0665     13.5700 300.2318885 +22.4007981     887.7067     70.20091      1.583     4.13    -2.663489     19.80581     70.86397        15     1.208     0.858  70.02   0
         3     85.0622    993.1617 299.9085520 +22.6769043     2315.358     70.20091     18.284    34.43     2.548432     19.80581     70.65517       251     6.357     5.177  35.19  19
         4    241.7471   1022.9428 299.9475306 +22.7325104      622.543     58.58236      5.107     7.71  -0.09871358     19.80581     55.46126        12     2.153     0.773  27.79  26
         5    237.0000   1018.4167 299.9475295 +22.7297876     560.7975     70.07563      2.377     3.82     0.122704     19.80581     28.00467         5     1.047     0.400  83.88  19
         6    139.8114   1022.4109 299.9160314 +22.7017331     569.2172     60.97617      3.578     5.00      7.73369     19.80581     24.24186         5     1.114     0.635 -62.09  24
         7    129.3174   1021.1850 299.9131709 +22.6982288     1078.341     66.18816      8.839    10.74     7.667457     19.80581     39.40474        19     1.835     1.751  11.04  25
         8    118.2773   1011.5369 299.9128840 +22.6921480     1625.439      70.2724     12.490    19.79     6.571181     19.80581     51.68455        57     4.755     2.289 -59.52  19
         9     69.0731   1021.9887 299.8941982 +22.6803563     1209.189      63.0808      8.536    12.64     2.779323     19.80581     44.50659        29     2.560     1.736  11.63  27
        10     86.7586   1014.5480 299.9021139 +22.6835397     3087.415     70.20091     18.349    45.31     5.317842     19.80581     67.49841       528     8.133     7.006  38.49  27
        11     68.1267   1007.1074 299.8987510 +22.6758098      1581.29     70.32597     13.234    20.70     1.408125     19.80581     45.03189        70     5.180     2.297 -51.00  19
        12    568.9873   1017.6835 300.0510170 +22.8292749      745.301     70.16514      1.208     2.53    -4.935485     19.80581     123.6049        11     0.849     0.773  82.42   0
        13     89.6436    981.8111 299.9136712 +22.6750296     2053.859     70.20091     12.216    19.95     1.896382     19.80581     51.63952        92     4.220     2.618 -19.16   3
        14    108.5203   1001.0887 299.9132561 +22.6862235     951.3956     70.34381      5.518     5.56     5.174085     19.80581      35.1333         8     1.012     0.862 -27.05   1
        15    425.9892    999.0070 300.0126088 +22.7809866      283.663     70.07563      1.525     2.55    -5.017472     19.80581     39.15622         5     0.622     0.584  89.91   0
        16    100.7684   1000.6027 299.9110067 +22.6837550     1473.347     70.16514      9.999    12.09      5.18611     19.80581     52.14664        35     2.331     1.747 -40.15   3
        17    462.6972   1014.1385 300.0190988 +22.7963465     511.4844     70.29026      1.217     2.50     -5.02728     19.80581     96.68813        10     0.827     0.798  77.74   0
        18    939.5992    990.6290 300.1752691 +22.9327288     1198.927     70.16514      1.114     2.05    -5.102351     19.80581       198.33        14     0.896     0.773  29.55   0
        19    106.0322   1013.5049 299.9084397 +22.6890323     1687.668     70.18303      9.512    12.71     6.875009     19.80581     42.63122        40     2.507     1.794 -56.09  19
        20    728.1896    979.5218 300.1130126 +22.8661145     517.2992     70.16514      1.880     6.13    -5.042196     19.80581     51.62915        10     1.436     0.736  43.36   0
        21    393.2617   1012.1899 299.9981365 +22.7749374      3755.05     70.12935      1.232     2.07    -4.988969     19.80581     552.4058        26     1.048     0.945 -74.98   0
        22    762.9871    973.8170 300.1257091 +22.8749198     608.6339     70.14725      1.274     2.55    -5.325012     19.80581     80.76638        10     0.869     0.721  68.31   0
        23    785.3936    967.5098 300.1347431 +22.8798334      6400.43     70.11145      1.151     2.03    -5.496585     19.80581      897.209        36     1.101     1.041 -40.68   0
        24    976.3383    966.9919 300.1944217 +22.9369648      244.886     70.14725      1.060     2.25    -5.166165     19.80581     59.85484         5     0.761     0.465 -26.83   0
        25    831.2271    967.5565 300.1490079 +22.8935981     288.9237     70.21879      1.226     3.02    -5.662727     19.80581     36.35786         5     0.725     0.452 -21.35   0
        26     96.3197    959.3613 299.9230549 +22.6706047     498.6113     70.16514      1.763     3.82    -0.429527     19.80581     54.20896         9     0.912     0.859  39.56   0
        27    490.9655    955.5008 300.0469901 +22.7880232     128.5042     70.18303      1.216     3.78    -5.097955     19.80581      38.5465         5     0.755     0.626 -84.42   0
        28     86.7767    950.9704 299.9228232 +22.6653338     121.7126     70.20091      1.171     4.00    -1.969548     19.80581     33.90701         6     0.914     0.500  54.19   0
        29    793.9686    949.6302 300.1432372 +22.8772766     690.4791     70.20091      1.121     2.32    -5.380622     19.80581     114.1507        10     0.800     0.724 -72.38   0
        30    646.1304    946.4631 300.0982257 +22.8320063     171.5293     70.23666      1.143     2.23    -4.948555     19.80581     45.63472         5     0.701     0.452  23.14   0
        31    832.0437    942.8617 300.1573044 +22.8867575     541.7256     70.20091      1.132     2.35    -5.373883     19.80581     75.18871         6     0.721     0.555 -41.52   0
        32    940.6464    939.7091 300.1921792 +22.9184296     139.3559     70.18303      1.020     3.22    -5.237477     19.80581     43.49388         7     0.917     0.534  31.04   0
        33    880.2469    934.2480 300.1751308 +22.8987458     328.6026     70.21879      1.100     2.53    -5.304389     19.80581     54.80785         8     0.740     0.689 -28.38   0
        34    731.5125    933.3607 300.1290802 +22.8538697     317.5389     70.18303      1.112     3.15    -5.046727     19.80581     60.71179         9     0.953     0.659 -28.39   0
        35    444.4424    929.8531 300.0408683 +22.7667026     2319.208     70.20091      1.275     2.25    -5.141088     19.80581     317.0086        22     1.057     0.942  41.85   0
        36    743.0394    929.9706 300.1337743 +22.8563558      377.376     70.18303      1.185     3.34    -5.067308     19.80581     59.69215         8     0.906     0.751  51.06   0
        37    222.5795    918.9636 299.9754336 +22.6969585     68.09142     70.21879      1.093     2.94     -4.61018     19.80581     34.37311         5     0.749     0.582   5.47   0
        38    169.4100    915.7648 299.9599540 +22.6800716     390.6797     70.20091      1.151     3.03      -3.8881     19.80581     53.10594         8     0.874     0.650 -66.58   0
        39    146.7668    912.6921 299.9539196 +22.6723895     931.8254     70.14725      1.253     2.48    -3.963697     19.80581     124.3377        15     1.034     0.843  -6.52   0
        40     21.5322    902.7841 299.9182507 +22.6319274     294.0801     70.20091      1.263     4.44    -5.534122     19.80581     34.96855         7     0.920     0.609  -7.79   0
        41   1018.3971    901.3577 300.2289097 +22.9307379     1207.095     70.21879      1.138     2.08    -5.289667     19.80581      197.042        14     0.845     0.829  51.92  16
        42    972.6478    899.8125 300.2151472 +22.9165755     1168.593     70.21879      1.158     1.98    -5.249041     19.80581     209.7141        12     0.792     0.769  11.67   0
        43    756.4993    894.0114 300.1496750 +22.8500772       307.58     70.11145      1.165     3.11    -4.943242     19.80581     53.75001         6     1.049     0.340  39.45   0
        44    624.3290    887.9308 300.1104962 +22.8086749     2720.909     70.25453      1.297     2.30     -4.84914     19.80581     354.0516        23     1.023     0.971  18.43   0
        45    426.7766    885.0776 300.0499508 +22.7485614     318.7158     70.20091      1.262     4.52    -5.142666     19.80581     41.38658         7     0.999     0.581  72.03   0
        46    174.7298    881.9777 299.9726057 +22.6719877     775.7894     70.21879      1.288     2.57    -4.435187     19.80581     120.1791        13     0.955     0.822  23.93   0
        47    645.0002    880.4665 300.1193617 +22.8127368     358.9486     70.14725      1.171     2.43    -4.826205     19.80581     56.50714         6     0.754     0.488 -10.45   0
        48    800.3616    867.4824 300.1719758 +22.8556232     2365.366     70.16514      1.210     2.19    -4.910276     19.80581     304.4147        21     1.066     0.897  20.58   0
        49   1017.1094    867.6461 300.2394838 +22.9206735     728.8672     70.18303      1.276     2.38    -5.313475     19.80581     99.08635        12     0.870     0.799  73.09   0
        50    517.1000    860.2547 300.0861315 +22.7685559      390.216     70.29026      1.523     3.82    -4.937169     19.80581     47.80426         8     1.018     0.654 -35.79   0
        51    163.7301    858.1998 299.9769279 +22.6618699     560.7422     70.12935      1.265     2.21    -4.664043     19.80581      86.5748         8     0.809     0.617  84.51   0
        52    313.4814    850.3980 300.0260082 +22.7046041     30914.08     70.11145      1.353     2.36    -4.909487     19.80581     3450.006        75     1.272     1.240  66.57   0
        53    571.5012    849.4340 300.1065837 +22.7817791     920.5244     70.18303      1.220     2.59    -4.737079     19.80581     109.0595        13     0.931     0.802  50.97   0
        54    984.1869    848.3585 300.2354964 +22.9052646     492.4229     70.21879      1.209     2.62    -5.064885     19.80581     80.83479        10     0.874     0.742   7.76   0
        55    241.2367    848.5434 300.0041552 +22.6823793     284.9358     70.20091      1.308     3.53    -4.737283     19.80581     38.50154         5     0.809     0.444 -19.52   0
        56    600.2009    845.3089 300.1168596 +22.7892083     523.7701     70.09354      1.367     2.82    -4.691984     19.80581     63.37731         9     0.879     0.664 -80.22   0
        57    611.1407    843.6248 300.1208132 +22.7920080     331.0127     70.20091      1.275     3.24    -4.678938     19.80581      53.1531         6     0.757     0.611  57.88   0
        58    716.5820    840.0073 300.1548221 +22.8226065     257.9325     70.16514      1.256     2.21    -4.688875     19.80581     49.90374         6     0.772     0.493 -88.98   0
        59    363.1814    827.6074 300.0488789 +22.7129917     18415.18     70.16514      1.370     2.43    -4.843355     19.80581     2118.914        61     1.259     1.198  65.56   0
        60    754.1182    829.9763 300.1697785 +22.8309886     387.2903     70.16514      1.225     2.74    -4.664821     19.80581     64.73442        10     0.882     0.721 -64.42   0
        61    377.4269    828.0740 300.0531570 +22.7174020     1105.846     70.20091      1.344     2.41    -4.890295     19.80581     149.4689        17     0.970     0.901 -51.33   0
        62    886.0521    823.1315 300.2131151 +22.8685953     1694.523     70.20091      1.291     2.13    -4.779748     19.80581     261.5319        22     1.104     0.940   5.59   0
        63    480.5923    819.9869 300.0878787 +22.7460499     282.4024     70.09354      1.583     3.91    -4.813981     19.80581     22.06864         5     0.889     0.491  89.65   0
        64    245.7956    819.4068 300.0150548 +22.6753965     630.6396     70.05772      1.450     3.00    -4.702442     19.80581     54.77433         9     0.823     0.757  14.48   0
        65    643.9693    819.1324 300.1390053 +22.7948319     585.2432     70.18303      1.498     2.78     -4.57711     19.80581     68.01743        10     0.857     0.770   8.10   0
        66    491.1810    814.3363 300.0930121 +22.7476073     596.7067     70.16514      1.394     3.45    -4.746264     19.80581     62.00316        11     0.958     0.829  15.71   0
        67     49.9795    815.4244 299.9555171 +22.6154456     450.8168     70.20091      1.631     3.71    -5.174309     19.80581     39.74797         6     0.799     0.494  -0.98   0
        68    892.3819    810.9062 300.2190670 +22.8669841     243.7934     70.12935      0.943     2.87    -4.677188     19.80581     52.00616         5     0.749     0.422 -67.09   0
        69    639.7051    810.6320 300.1404442 +22.7911137     125.9108     70.18303      1.575     4.24    -4.535741     19.80581     29.78506         5     1.243     0.411 -12.38   0
        70    437.1418    809.1890 300.0778757 +22.7299118     152.7082     70.16514      1.104     3.90    -4.891792     19.80581     30.04371         5     0.948     0.459  46.31   0
        71     77.9573    808.7664 299.9663723 +22.6219416     369.5117     70.25453      1.623     4.33    -4.899075     19.80581     38.31401         6     1.053     0.550 -22.87   0
        72    870.4500    805.7895 300.2138968 +22.8589383      236.369     70.21879      1.540     5.63    -4.634456     19.80581     34.18502         7     1.394     0.640   1.58   0
        73    243.5166    803.5089 300.0195200 +22.6701550     357.3387     70.34381      1.398     3.39    -4.675134     19.80581     43.54447         6     0.884     0.445  72.68   0
        74    566.2704    793.8765 300.1230375 +22.7642727     293.9308     70.30811      1.517     3.52    -4.526195     19.80581     31.52808         5     1.033     0.345  45.60   0
        75    536.2879    792.1367 300.1142725 +22.7547766     368.0492     70.30811      1.461     2.79    -4.578316     19.80581     50.43451         6     0.731     0.583  50.65   0
        76    952.4587    788.4103 300.2451159 +22.8785400     2665.395     70.16514      1.260     2.10    -4.570761     19.80581     323.2281        28     1.173     1.010 -88.61   0
        77    557.9998    789.7573 300.1218038 +22.7606093     910.2043     70.20091      1.506     2.91    -4.540587     19.80581     94.23852        13     0.935     0.878  55.85   0
        78    940.8630    779.8722 300.2442794 +22.8726119     1108.017     70.23666      1.290     2.00    -4.572277     19.80581       177.26        15     1.036     0.854  82.01   0
        79    304.2043    774.1375 300.0479416 +22.6799553     572.3702     70.18303      1.397     3.08     -4.67979     19.80581     74.55972        10     0.900     0.755  75.24   0
        80    767.5414    771.1863 300.1930928 +22.8181429     1530.654     70.18303      1.501     2.72    -4.529399     19.80581     159.1031        17     1.291     0.830 -10.26   0
        81    971.9754    769.9415 300.2572111 +22.8790885     826.9674     70.20091      1.219     2.30    -4.556145     19.80581     141.9276        12     0.865     0.780   6.45   0
        82    152.6929    758.3215 300.0060007 +22.6299297     422.3722     70.32597      1.226     3.61    -4.598244     19.80581     45.80134         7     0.908     0.527 -62.86   0
        83    849.7038    756.6782 300.2234134 +22.8386190     327.5715     70.32597      1.304     2.66    -4.526751     19.80581     45.53288         6     0.682     0.637 -77.98   0
        84    885.7461    748.1525 300.2374202 +22.8469790      84818.3     70.23666      1.325     2.24     -4.52184     19.80581     11560.35       118     1.326     1.278  71.60   0
        85    738.0049    748.5691 300.1912516 +22.8027927     435.2526     70.18303      1.439     4.22    -4.496134     19.80581      46.8259         9     1.060     0.621  11.59   0
        86    918.2328    740.8840 300.2499114 +22.8546326     193.8685     70.16514      1.128     3.50    -4.541608     19.80581     38.49891         6     0.743     0.575 -52.87   0
        87    572.0558    737.2080 300.1432773 +22.7497509     940.0964     70.20091      1.425     3.02      -4.5154     19.80581     109.5912        16     1.104     0.850 -89.56   0
        88    753.2031    734.4250 300.2005877 +22.8032914     5331.946     70.16514      1.378     2.47    -4.498318     19.80581     589.3229        35     1.180     1.104  -4.78   0
        89    254.8859    729.7222 300.0470613 +22.6524147     2775.342     70.32597      1.411     2.56    -4.606274     19.80581     332.7216        24     1.076     1.001  73.71   0
        90    336.8898    728.0285 300.0731053 +22.6765456     676.2556     70.18303      1.376     3.14    -4.621717     19.80581     72.70181        12     0.968     0.809 -88.07   0
        91    212.2839    725.5208 300.0351877 +22.6384199     344.0953     70.32597      1.362     3.46    -4.552011     19.80581     47.00629         5     0.759     0.455 -19.92   0
        92    544.8917    723.2224 300.1393729 +22.7375883      459.066     70.12935      1.327     3.41    -4.521778     19.80581     44.75523         8     0.792     0.700  35.90   0
        93    536.7333    715.2360 300.1394321 +22.7328491     1926.421     70.20091      1.480     2.81     -4.51163     19.80581     206.7929        22     1.091     1.023  -8.60   0
        94    527.1016    709.1332 300.1384200 +22.7282083     777.3084     70.29026      1.507     3.24    -4.516086     19.80581      77.5351        14     1.100     0.814  59.76   0
        95    190.4147    705.3857 300.0349417 +22.6260814     338.9757     70.12935      1.272     3.45    -4.544024     19.80581     48.34159         7     0.814     0.692  19.09   0
        96    204.7656    703.7524 300.0399325 +22.6299217     347.9517     70.23666      1.404     2.97    -4.534129     19.80581     58.67281         7     1.021     0.436  59.18   0
        97    550.9937    699.2869 300.1490584 +22.7325516     398.7637     70.11145      1.487     4.39    -4.445643     19.80581     37.51263         6     0.974     0.564  89.83   0
        98    451.8133    698.9296 300.1183138 +22.7026904     1058.333     70.20091      1.503     3.23    -4.609378     19.80581     118.7471        17     1.137     0.894  31.08   0
        99    230.7262    700.2875 300.0491273 +22.6367222     233.6577     70.34381      1.118     3.55    -4.521635     19.80581     47.72578         6     0.733     0.639  13.11   0
       100    105.8701    693.9611 300.0123918 +22.5974212     11465.32     70.16514      1.434     2.51    -4.560884     19.80581     1397.079        48     1.271     1.167  87.04   0
       101     26.5080    695.7095 299.9871761 +22.5740898     245.8699     70.36166      0.959     2.76    -4.289727     19.80581     50.41657         5     0.713     0.467 -70.54   0
       102    536.6552    694.0772 300.1462907 +22.7267550     587.5583     70.23666      1.580     3.68    -4.456244     19.80581     57.00168        12     0.978     0.878  14.45   0
       103    954.6684    680.2606 300.2809930 +22.8481472     633.9355     70.25453      1.555     3.42    -4.424928     19.80581      67.1188        11     0.914     0.870 -42.89   0
       104     51.7417    678.1348 300.0007279 +22.5766307     883.9635     70.23666      1.687     4.95    -4.260634     19.80581     69.70854        15     1.364     0.822 -66.73   0
       105    821.5837    678.2407 300.2401693 +22.8076686     235.8936     70.21879      1.317     3.53    -4.421848     19.80581     32.00753         5     0.774     0.464 -74.40   0
       106    500.1987    674.4495 300.1413304 +22.7101856     252.3091     70.18303      1.358     3.48    -4.539526     19.80581      35.0269         5     0.799     0.437  20.87   0
       107    894.8768    672.7615 300.2647931 +22.8280696     454.7429     70.18303      1.187     2.58    -4.314463     19.80581      60.1931         8     0.828     0.606 -49.76   0
       108    457.0117    666.9638 300.1303284 +22.6950801     376.2332     70.18303      1.473     3.90    -4.567482     19.80581     43.65737         7     0.886     0.525 -37.27   0
       109    622.3597    663.5291 300.1829040 +22.7436993     278.3954     70.16514      1.365     4.39    -4.299492     19.80581     37.79163         8     0.914     0.710 -54.56   0
       110    651.4961    663.5270 300.1919761 +22.7524379     262.7379     70.32597      1.607     5.05    -4.296278     19.80581     36.03677         6     0.968     0.745 -15.50   0
       111    501.0131    662.8940 300.1453422 +22.7071146     568.6296     70.12935      1.712     3.76    -4.476145     19.80581     57.96604        12     1.005     0.883  32.25   0
       112    934.6630    658.1129 300.2819602 +22.8357898      1843.22     70.30811      1.373     2.59    -4.226683     19.80581     218.5439        21     1.130     0.946 -44.88   0
       113    466.5804    658.3979 300.1360913 +22.6954937     1003.855     70.12935      1.556     3.00    -4.504639     19.80581     99.71895        16     1.019     0.941  54.91   0
       114     28.5049    652.3058 300.0019121 +22.5622495     2730.287     70.36166      1.349     2.37    -3.936955     19.80581     339.6937        27     1.186     1.032   3.99   0
       115    329.9437    645.1513 300.0979024 +22.6506920     5320.028     70.23666      1.510     2.81    -4.345904     19.80581     517.3672        38     1.304     1.190  76.16   0
       116    452.4184    642.2102 300.1369500 +22.6866003     5212.099     70.16514      1.595     2.93    -4.392917     19.80581     477.2942        42     1.304     1.275  42.85   0
       117    863.9048    635.9512 300.2671125 +22.8082142     1110.632     70.25453      1.419     2.93    -4.053098     19.80581     131.1022        23     1.257     1.023 -67.02   0
       118    948.5115    633.1911 300.2943832 +22.8327832     7136.886     70.12935      1.379     2.42    -4.072643     19.80581      835.725        39     1.196     1.123 -73.43   0
       119    512.8845    631.7080 300.1591786 +22.7017279      6589.15     70.36166      1.570     2.97    -4.276514     19.80581     607.5869        37     1.258     1.214  51.13   0
       120    240.6218    627.2894 300.0759437 +22.6187605     792.5659     70.12935      1.583     3.83    -4.237839     19.80581     73.11652        13     1.102     0.828  62.73   0
       121    682.5887    627.0782 300.2135121 +22.7513011      250.848     70.18303      1.255     3.98    -3.933239     19.80581     37.44012         5     0.920     0.492 -88.95   0
       122    444.6377    619.9496 300.1417685 +22.6778791     2493.404     70.20091      1.585     3.00    -4.239299     19.80581     231.9151        27     1.186     1.116  39.98   0
       123    787.2474    619.7242 300.2485030 +22.7805725     460.5172     70.20091      1.486     5.15    -3.909318     19.80581     42.76928         9     1.015     0.740  53.00   0
       124    423.0215    618.3146 300.1355760 +22.6709244     673.5387     70.14725      1.574     4.03    -4.225334     19.80581     58.87964        13     1.105     0.841 -46.23   0
       125    177.1083    617.8626 300.0592712 +22.5969923     546.4698     70.30811      1.504     3.33    -4.373052     19.80581     61.28614        10     0.913     0.765  67.50   0
       126    864.3134    615.1138 300.2740164 +22.8023529     853.1813     70.32597      1.454     3.16    -3.903459     19.80581     86.05175        16     1.097     0.896 -59.11   0
       127    561.1804    607.4034 300.1821124 +22.7092409     117207.9     70.16514      1.599     3.00    -4.033213     19.80581     9827.118       163     1.533     1.514 -87.96   0
       128    745.1037    611.9337 300.2379076 +22.7656996     459.7054     70.30811      1.342     3.26     -3.79352     19.80581     64.01459         9     0.931     0.754 -58.95   0
       129    247.2682    607.6007 300.0844115 +22.6151090     1985.655     70.16514      1.517     3.08    -4.129822     19.80581     203.9511        24     1.172     1.089  43.97   0
       130    812.8682    603.2719 300.2618357 +22.7835298     224.8234     70.25453      1.374     5.55    -3.786764     19.80581     30.07553         8     1.068     0.812 -53.14   0
       131    134.9791    594.1306 300.0538982 +22.5775406     707.2021     70.20091      0.457    -1.99    -4.238286     19.80581     484.5167         5     0.403     0.290 -37.86   0
       132    451.9419    587.7052 300.1545253 +22.6708189     1499.062      70.2724      1.681     3.21    -3.995521     19.80581     148.0639        22     1.179     1.146  87.59   0
       133    848.8333    573.7520 300.2826417 +22.7858341     1026.717     70.23666      1.488     3.17    -3.648542     19.80581     88.21405        15     1.036     0.896  49.23   0
       134    719.9293    571.4341 300.2432350 +22.7465236     1375.009     70.20091      1.464     2.77    -3.553879     19.80581     144.7437        19     1.095     0.960  77.23   0
       135    507.0027    567.4230 300.1782510 +22.6815161     448.9737     70.14725      1.687     4.58    -3.605412     19.80581     53.74716         8     0.937     0.792   8.88   0
       136    977.0833    565.3125 300.3253646 +22.8218483     612.8391     70.30811      1.361     2.97    -3.677418     19.80581     80.02017        11     0.973     0.775 -10.45   0
       137    849.2002    563.9958 300.2859281 +22.7831421     1231.628     70.02187      1.563     3.54    -3.591414     19.80581     122.3454        18     1.149     1.016  84.10   0
       138    962.7894    563.9211 300.3213601 +22.8171651     479.9256     70.18303      1.449     5.13    -3.667442     19.80581     43.81772        10     1.111     0.671 -25.41   0
       139    602.5996    562.3195 300.2096637 +22.7087237     369.7266     70.07563      1.782     3.76    -3.338408     19.80581     35.40382         6     0.852     0.520  45.68   0
       140    887.1311    558.7929 300.2994414 +22.7930171     2503.617     70.16514      1.474     2.77    -3.591156     19.80581      244.224        28     1.197     1.099  65.89   0
       141    119.4431    549.6799 300.0635225 +22.5601310      597.559     70.18303      1.587     3.51    -3.973998     19.80581     65.45984         9     1.118     0.541  61.96   0
       142    978.9785    549.0375 300.3312469 +22.8177407      436.295     70.21879      1.289     2.67    -3.591344     19.80581     57.89993         9     0.773     0.752 -13.45   0
       143    661.0132    529.6746 300.2384631 +22.7168688     463.9371     70.21879      1.643     4.10    -3.385097     19.80581     46.01834         9     0.980     0.720 -50.23   0
       144    975.4402    521.5701 300.3390731 +22.8087891     229.1279     70.20091      1.359     3.74    -3.488677     19.80581     39.49319         6     0.940     0.428  72.49   0
       145    721.5834    521.5195 300.2599773 +22.7326876     366.9444     70.21879      1.387     3.75     -3.41483     19.80581     58.95897        10     0.971     0.812 -63.25   0
       146    878.4955    517.6999 300.3101089 +22.7786254     613.5281     70.39732      1.345     3.97    -3.496764     19.80581     71.91663        11     1.038     0.769 -13.77   0
       147    862.8779    513.9243 300.3064686 +22.7728602     334.8253     70.30811      1.460     2.46    -3.486541     19.80581     53.19453         8     0.811     0.648 -45.21   0
       148    607.2139    512.3797 300.2273345 +22.6957716     1900.088     70.16514      1.673     3.16    -3.345837     19.80581     171.0649        23     1.197     1.059  42.38   0
       149    890.2911    491.1990 300.3223995 +22.7745478     487.0379     70.09354      2.046     6.25    -3.492106     19.80581     35.88122         9     1.333     0.908  83.08   0
       150   1018.3911    491.2038 300.3623378 +22.8129330     802.4893     70.03979      1.402     2.85    -3.266956     19.80581      91.6636        11     0.903     0.765  -8.43  16
       151    976.7374    489.9554 300.3497541 +22.8000943     683.6526     70.21879      1.674     3.26    -3.370682     19.80581       62.092        14     1.061     0.868  41.72   0
       152    717.9481    486.4333 300.2702493 +22.7215225      646.316     70.21879      1.687     4.93     -3.41483     19.80581     59.08182        14     1.174     0.976  57.58   0
       153    284.1459    480.4232 300.1372158 +22.5896952     2051.855     70.21879      1.586     3.25    -3.599968     19.80581     182.8209        25     1.200     1.142  76.10   0
       154   1016.9576    478.4065 300.3660502 +22.8088262     2482.476     70.21879      1.431     2.75    -3.196609     19.80581     272.6793        26     1.205     1.068 -19.82  16
       155    231.3916    475.1527 300.1225304 +22.5723541     4317.221     70.21879      1.593     3.04     -3.61721     19.80581     386.2843        35     1.327     1.172 -88.40   0
       156    372.0840    469.3216 300.1681667 +22.6128921     2701.365     70.30811      1.649     3.16    -3.577694     19.80581     239.8293        29     1.265     1.205   7.03   0
       157    997.1612    469.4217 300.3627967 +22.8003134     1020.528     70.23666      1.426     2.57    -3.214589     19.80581     131.1463        15     0.996     0.870 -77.08   0
       158    616.2546    465.8588 300.2452689 +22.6851262     10631.53     70.25453      1.677     3.29    -3.532039     19.80581       837.89        54     1.396     1.359  34.14   0
       159    633.7055    466.0395 300.2506433 +22.6904104     430.2746     70.21879      1.900     5.70    -3.503535     19.80581     42.68916        10     1.220     0.751 -37.50   0
       160    949.4387    447.8042 300.3549416 +22.7798036     344.1335     70.21879      1.591     3.45    -3.309421     19.80581      43.3168         8     1.008     0.653  52.72   0
       161    170.9556    446.3663 300.1131031 +22.5459611     1164.904     70.23666      1.614     3.50    -3.535601     19.80581     110.8371        20     1.170     1.079 -23.80   0
       162    556.8383    435.3572 300.2366849 +22.6585536     3794.358     70.29026      1.668     3.27    -3.003774     19.80581      338.451        35     1.338     1.239  78.97   0
       163    970.6470    435.4954 300.3655542 +22.7826209     693.2893     70.21879      1.328     3.10    -3.161461     19.80581     74.36127        10     0.930     0.737   7.30   0
       164    129.2198    428.0348 300.1060921 +22.5281783     332.6299     70.21879      1.393     4.81     -3.54006     19.80581     34.74537         7     1.061     0.617 -86.53   0
       165    761.2258    424.1979 300.3039550 +22.7166208     669.2841     70.14725      1.718     4.36    -3.487756     19.80581     58.31889        12     1.160     0.733  -5.73   0
       166    463.5779    421.7412 300.2120877 +22.6266787     3434.022     70.20091      1.683     3.09    -3.526988     19.80581     331.5727        33     1.300     1.230 -76.15   0
       167    952.5782    415.8012 300.3663199 +22.7715482     209.9366     70.12935      1.364     3.33    -3.177498     19.80581     37.16135         5     0.754     0.427  66.43   0
       168    855.4134    415.6616 300.3360768 +22.7423952     852.0772     70.16514      1.640     3.43    -3.457373     19.80581     79.67764        15     1.039     0.952  25.45   0
       169    351.1670    401.1690 300.1838062 +22.5870595     1465.932     70.21879      1.591     3.38    -3.530379     19.80581     125.1363        19     1.231     0.942  77.76   0
       170     69.5638    398.3716 300.0971981 +22.5017671     537.9423     70.21879      1.538     4.00    -3.551955     19.80581      59.8365        12     1.068     0.789  60.66   0
       171    320.4595    390.4574 300.1777375 +22.5747745     17189.49      70.2724      1.669     2.98    -3.446044     19.80581     1668.168        67     1.435     1.376 -88.29   0
       172    855.2737    387.4515 300.3451989 +22.7342483     714.2861     70.21879      1.502     4.64     -3.33419     19.80581     78.50533        17     1.391     0.895 -77.27   0
       173     16.8740    378.5024 300.0872893 +22.4802551     2885.313     70.32597      1.491     2.81    -3.525648     19.80581     330.9566        31     1.186     1.163 -81.76   0
       174    730.9098    369.8342 300.3121737 +22.6919192     1054.602     70.18303      1.626     3.69    -3.348643     19.80581     86.69032        20     1.230     1.052  82.78   0
       175    946.0566    363.0340 300.3814302 +22.7544304     285.5022     70.21879      1.340     3.14    -3.064768     19.80581     46.77798         5     0.962     0.364  32.37   0
       176    392.5950    354.7782 300.2117603 +22.5861695     1220.687     70.18303      1.752     4.79       -3.229     19.80581     90.33076        19     1.412     0.971 -89.28   0
       177    831.5720    347.8289 300.3506842 +22.7157620     321.1789     70.16514      1.427     4.63    -3.035813     19.80581     47.65118         5     1.057     0.577  18.02   0
       178    468.6000    334.2835 300.2420610 +22.6030772     534.9876     70.07563      1.647     4.37    -3.122168     19.80581     52.28423        13     1.072     0.870 -68.73   0
       179    713.1588    325.8604 300.3209284 +22.6739674     1331.383     70.18303      1.613     3.53    -3.186446     19.80581     104.7601        23     1.291     1.065  12.85   0
       180    974.3507    320.1316 300.4041883 +22.7505749      1680.58     70.20091      1.445     2.75    -2.997667     19.80581      185.632        21     1.095     0.963  73.21   0
       181     97.1166    304.1253 300.1363668 +22.4829998     805.5136     70.29026      1.768     4.69    -3.159413     19.80581     73.14996        16     1.414     0.936 -44.89   0
       182    127.4430    304.1820 300.1457694 +22.4921149     184.1012     70.21879      1.169     2.45    -3.153086     19.80581     39.93739         5     0.699     0.475  73.64   0
       183    990.2587    300.3012 300.4155895 +22.7496393     175.5783     70.29026      1.272     3.84    -2.980853     19.80581     34.83662         5     0.941     0.450  45.78   0
       184    180.4900    295.0808 300.1652071 +22.5054176     411.0215     70.30811      2.989     6.34    -3.095163     19.80581     27.76462         7     1.391     0.812  66.29   0
       185    784.7451    287.2740 300.3557605 +22.6843322     388.4738     70.21879      1.441     5.19     -2.88788     19.80581     41.28437        10     1.012     0.882 -73.23   0
       186    883.0977    276.1653 300.3900180 +22.7106045     1129.155     70.20091      1.445     3.10     -3.02845     19.80581     115.0076        17     1.078     0.926  82.87   0
       187    301.6086    273.8221 300.2097573 +22.5356447     1343.706     70.20091      1.811     3.52    -3.025948     19.80581     112.6435        22     1.218     1.115  58.59   0
       188    379.3953    268.9456 300.2355297 +22.5575710     525.2566     70.20091      1.646     3.97    -3.015004     19.80581     53.33284        11     1.137     0.845 -55.91   0
       189    781.8854    267.9249 300.3611528 +22.6779155     357.6607     70.30811      1.756     4.63    -2.880639     19.80581     31.90219         5     1.229     0.496 -21.03   0
       190    196.7470    261.3617 300.1812076 +22.5006178     352.6903     70.20091      1.219     4.29     -2.84606     19.80581      53.7247         7     0.983     0.535 -58.03   0
       191    734.0203    257.8029 300.3495280 +22.6606658     1164.141     70.14725      1.796     3.54    -2.920604     19.80581     84.30383        16     1.078     0.969  25.69   0
       192    799.1600    257.6609 300.3698680 +22.6801415     358.0274     70.20091      2.002     5.24    -2.849563     19.80581     33.43413         7     1.508     0.514  31.75   0
       193    218.0035    254.7175 300.1899711 +22.5050867     351.2701     70.12935      1.745     4.86    -2.792563     19.80581     28.77902         5     0.913     0.733  -2.11   0
       194   1005.6086    250.0356 300.4366996 +22.7397858     455.3127     70.20091      1.366     3.41    -2.973646     19.80581     63.90915         9     1.035     0.602  75.74   0
       195    658.6472    248.8685 300.3289541 +22.6355135      654.243     70.18303      1.586     4.23    -2.621106     19.80581     59.96822        11     1.061     0.745 -61.85   0
       196    738.2607    248.7727 300.3537810 +22.6593417     352.3802     70.20091      1.656     5.08    -2.909397     19.80581     46.13229         9     1.223     0.890 -74.55   0
       197    584.8306    240.1572 300.3087998 +22.6108890     572.1486     70.23666      1.711     4.95    -2.680414     19.80581     44.42488        10     1.053     0.805  63.39   0
       198    853.8568    239.9980 300.3926480 +22.6914507     776.4422     70.14725      1.554     2.89     -3.02671     19.80581     87.78575        12     0.962     0.837   0.38   0
       199    866.1415    238.8096 300.3968626 +22.6947889     510.0467     70.16514      1.830     5.31    -3.063018     19.80581      39.6962         9     1.088     0.731 -78.29   0
       200    982.7690    229.1170 300.4363691 +22.7269322     644.7932     70.20091      1.533     3.21    -2.973646     19.80581     61.05444        12     0.955     0.828 -87.36   0
       201    217.1412    222.2927 300.2002297 +22.4955217      408.291     70.25453      1.696     5.40    -2.551286     19.80581     40.66134        10     1.278     0.643 -81.13   0
       202     79.0217    217.4672 300.1588814 +22.4527073     1253.766     70.18303      1.560     2.93    -2.676993     19.80581     138.9295        20     1.149     1.034  36.44   0
       203     28.3708    215.3909 300.1438242 +22.4369159     410.5274     70.20091      2.058     5.59    -2.675583     19.80581     33.08845         8     1.825     0.483 -89.86   0
       204    901.7319    214.4537 300.4158638 +22.6984479     345.0595     70.21879      1.225     2.27    -2.956474     19.80581     45.25811         5     0.681     0.465 -21.03   0
       205    236.2603    210.7292 300.2099259 +22.4979365     3137.188     70.23666      1.637     3.11    -2.593153     19.80581     285.2155        32     1.326     1.172  73.33   0
       206     20.4996    205.3714 300.1446322 +22.4316797     767.6923     70.11145      1.418     3.88    -2.668534     19.80581     81.01038        14     1.065     0.939 -28.06   0
       207    219.7263    201.8188 300.2076792 +22.4904203     308.4802     70.20091      1.525     4.28     -2.54489     19.80581     30.58486         6     0.784     0.667 -13.46   0
       208    880.1711    191.9806 300.4164385 +22.6855303     1974.543     70.20091      1.556     3.24    -2.901441     19.80581     180.7722        23     1.149     1.078 -74.76   0
       209    983.7956    190.5408 300.4492129 +22.7161484     1592.339     70.16514      1.508     3.27    -2.760283     19.80581      146.446        21     1.116     1.076  30.78   0
       210    430.3585    187.1992 300.2779206 +22.5493776     233.9403     70.20091      1.334     3.43    -2.688946     19.80581     32.81298         5     0.772     0.440  72.43   0
       211    481.1329    174.8920 300.2977126 +22.5610625     1012.891     70.34381      1.772     3.33    -2.605094     19.80581       85.172        16     1.135     0.903   7.05   0
       212    120.0647    176.3003 300.1849932 +22.4532054      376.553     70.29026      1.336     3.67    -2.625059     19.80581     41.06062         6     0.892     0.470  36.32   0
       213    255.1424    154.7410 300.2339676 +22.4875263      3466.45      70.2724      1.619     2.98     -2.55713     19.80581     329.5231        33     1.309     1.175  84.41   0
       214    106.2974    154.1268 300.1879125 +22.4427123     587.2639     70.32597      2.168     4.36    -2.632433     19.80581     38.78582         7     0.902     0.600  10.90   0
       215    501.0070    139.8660 300.3152647 +22.5569582     3510.524     70.20091      1.669     3.24     -2.50261     19.80581     289.0316        33     1.338     1.258  67.10   0
       216    386.4845    139.8601 300.2796372 +22.5226307     308.9516     70.30811      1.590     4.56    -2.513091     19.80581     47.84426         7     1.341     0.786 -22.34   0
       217    753.3292    129.3028 300.3972561 +22.6295228     527.0143     70.32597      1.705     5.78    -2.384393     19.80581     47.57578        11     1.060     0.889 -19.15   0
       218    629.4753    119.8634 300.3617453 +22.5897070      3644.66     70.25453      1.704     3.23    -2.452536     19.80581     327.5027        32     1.303     1.241  23.70   0
       219    404.4671    119.0583 300.2919810 +22.5220469     742.1367     70.23666      1.622     4.43    -2.494232     19.80581     75.54652        19     1.244     1.156 -81.18   0
       220    670.4025    117.3746 300.3752973 +22.6012533     441.3287     70.14725      1.460     3.86    -2.360631     19.80581     53.39128         9     0.945     0.814 -28.33   0
       221    687.1886    113.7659 300.3816961 +22.6052449     354.9272     70.18303      1.786     5.07    -2.350791     19.80581      32.3218         6     1.320     0.551  37.10   0
       222    153.4391    111.6878 300.2163303 +22.4446695     424.2732     70.18303      1.541     2.84    -2.598382     19.80581     52.05178         8     0.795     0.764  42.17   0
       223    956.1429    110.4989 300.4665691 +22.6848531     228.2875     70.29026      1.336     4.51    -2.451975     19.80581     31.01801         6     0.992     0.583  67.29   0
       224    673.6967    104.7182 300.3804302 +22.5986029     1438.941     70.34381      1.628     3.12    -2.353213     19.80581     151.4991        24     1.169     1.142  73.26   0
       225    760.2009     96.4123 300.4100700 +22.6221272      788.781     70.02187      1.600     3.48    -2.319039     19.80581     75.60332        16     1.127     0.910  87.65   0
       226    504.0542     89.2053 300.3326521 +22.5433179     674.8665     70.20091      1.934     3.25    -2.526012     19.80581     51.47534        10     0.893     0.756 -89.02   0
       227    407.9411     87.6263 300.3032606 +22.5140602     367.7506     70.20091      1.326     4.15    -2.397733     19.80581     49.16931         8     0.833     0.694 -88.10   0
       228    178.9255     77.2898 300.2354103 +22.4424372     2099.302     70.36166      1.586     3.24    -2.609895     19.80581     176.9637        24     1.220     1.124  31.20   0
       229    746.9265     77.2779 300.4121431 +22.6126512     372.9008     70.30811      1.467     4.75    -2.189947     19.80581     41.37774         7     1.269     0.505  70.49   0
       230    739.9047     69.5260 300.4124708 +22.6083198     425.0931     70.34381      1.362     3.15    -2.137213     19.80581     56.42783         9     0.910     0.678  65.87   0
       231    295.0197     69.3565 300.2740704 +22.4749655     659.5264     70.23666      1.530     3.39    -2.636853     19.80581     73.78294        14     1.123     0.825   1.74   0
       232    778.4268     63.9572 300.4262788 +22.6182561     415.1173     70.21879      1.611     3.38    -2.149787     19.80581      48.0949         5     1.039     0.407  25.24   0
       233    701.2998     63.9638 300.4022503 +22.5951582     275.1704     70.18303      1.618     4.43    -2.143047     19.80581     24.47017         6     1.178     0.473  19.28   0
       234    798.0668     60.7866 300.4334269 +22.6232262     1223.806     70.20091      1.604     2.95    -2.160852     19.80581      129.111        19     1.100     1.007 -16.25   0
       235    181.5022     56.1921 300.2430554 +22.4371526     606.3249     70.07563      1.841     5.54    -2.642721     19.80581     51.62892        13     1.393     0.954 -18.67   0
       236    973.0175     53.8161 300.4902228 +22.6736039     332.2454     70.18303      1.292     2.52    -2.157938     19.80581     52.47167         8     0.787     0.713  -0.35   0
       237    746.3575     53.3700 300.4197225 +22.6056083     413.1374     70.23666      1.609     3.43    -2.037094     19.80581     51.38507        10     1.017     0.952 -65.97   0
       238      7.9192     52.9779 300.1901754 +22.3841757     2454.888     70.16514      0.469   -14.28    -2.923093     19.80581     984.9073         7     0.449     0.355   8.22   2
       239    598.9072     37.7353 300.3788746 +22.5569483     640.7467     70.30811      1.884     5.81    -2.617643     19.80581     45.48093        10     1.259     0.754  70.64   0
       240    762.1660     32.7844 300.4313256 +22.6044247     349.3786     70.18303      1.511     5.50    -1.941973     19.80581     40.51494         8     1.345     0.634 -76.59   0
       241    570.6218     31.2789 300.3721635 +22.5466192       969.39     70.18303      1.482     3.41    -2.627808     19.80581     94.00401        17     1.141     0.926  40.57   0
       242    293.4789     29.5941 300.2864901 +22.4630845     509.3503     70.12935      1.670     3.99    -2.711681     19.80581     46.24915         6     1.205     0.378 -60.55   0
       243      8.6185     28.1969 300.1984307 +22.3772731     436.0718     70.11145      1.815     5.48    -3.050766     19.80581     40.50126         9     1.215     0.696 -57.40   0
       244    527.9418     25.0505 300.3608992 +22.5320426     870.8555     70.25453      1.864     3.66     -2.62344     19.80581     68.25048        12     1.083     0.746   7.38   0
       245    633.3279     21.7646 300.3947722 +22.5626693     776.4755     70.20091      1.563     3.39     -2.38583     19.80581     81.42667        18     1.183     0.950  30.97   0
       246    177.8182   1019.6707 299.9287313 +22.7123673     570.8387     70.07563      4.603     5.10     5.784492     19.80581     25.30789         5     1.075     0.683 -63.44  16
