#   1 NUMBER                 Running object number                                     
#   2 X_IMAGE                Object position along x                                    [pixel]
#   3 Y_IMAGE                Object position along y                                    [pixel]
#   4 ALPHA_J2000            Right ascension of barycenter (J2000)                      [deg]
#   5 DELTA_J2000            Declination of barycenter (J2000)                          [deg]
#   6 FLUX_APER              Flux vector within fixed circular aperture(s)              [count]
#   7 FLUXERR_APER           RMS error vector for aperture flux(es)                     [count]
#   8 FLUX_RADIUS            Fraction-of-light radii                                    [pixel]
#   9 FWHM_IMAGE             FWHM assuming a gaussian core                              [pixel]
#  10 BACKGROUND             Background at centroid position                            [count]
#  11 THRESHOLD              Detection threshold above background                       [count]
#  12 FLUX_MAX               Peak flux above background                                 [count]
#  13 ISOAREA_IMAGE          Isophotal area above Analysis threshold                    [pixel**2]
#  14 A_IMAGE                Profile RMS along major axis                               [pixel]
#  15 B_IMAGE                Profile RMS along minor axis                               [pixel]
#  16 THETA_IMAGE            Position angle (CCW/x)                                     [deg]
#  17 FLAGS                  Extraction flags                                          
         1    740.4431     14.4372 300.4425391 +22.5804586     536.2195     70.23589      1.864     4.44    -2.124111     19.79552     43.26583        10     1.153     0.760  -3.06   0
         2    644.1031     14.2112 300.4126077 +22.5515312     1482.793     70.05712      1.915     4.42    -1.846875     19.79552     103.7311        26     1.363     1.228  12.58   0
         3    577.7592      3.4881 300.3954308 +22.5285706      717.946     64.89066      1.925     7.05    -1.459301     19.79552     52.82122        16     1.496     1.022 -55.20  24
         4    788.2280   1006.9963 300.1347716 +22.8798128     6570.188     70.12868      1.256     2.16    -5.651044     19.79552     1007.725        32     1.058     1.019 -84.46   0
         5     85.9186   1019.4071 299.9122829 +22.6724185     1316.398     70.09291      5.611    11.69   -0.6042649     19.79552     43.10498        26     2.885     1.318 -46.37  27
         6     87.9715   1022.7667 299.9118262 +22.6739977     1080.644     59.40239      7.574     9.54   -0.2651408     19.79552     44.76676        27     2.127     1.194 -10.01  27
         7     93.1618   1020.3159 299.9142364 +22.6748559     1812.968     68.77454      4.762    10.20  -0.01299674     19.79552     50.19461        24     2.534     1.145  42.22  19
         8    833.6030   1007.0193 300.1489008 +22.8934382     290.0064     70.09291      1.091     3.45    -5.661664     19.79552     53.33253         6     0.951     0.481  83.73   0
         9    979.1184   1006.5958 300.1943935 +22.9369828     127.1217     70.09291      1.037     2.02    -5.298069     19.79552      48.9762         5     0.689     0.445 -23.15   0
        10    730.9006   1018.7173 300.1130970 +22.8659666     558.9152      70.3251      2.108     4.15    -5.710901     19.79552     44.92042        11     0.945     0.909  13.28  16
        11    493.6336    995.7244 300.0467301 +22.7881319     357.6982     70.16444      1.396     4.08    -5.363703     19.79552     39.04242         7     0.953     0.679  -8.41   0
        12    796.9230    989.0407 300.1433292 +22.8772719     840.0687     70.14656      1.291     2.26    -5.574274     19.79552     125.2487        12     0.894     0.747 -76.68   0
        13    979.5639    988.2470 300.2005095 +22.9318508     227.8189     70.20016      0.947     2.08    -5.284089     19.79552     49.29822         5     0.670     0.467 -69.86   0
        14    648.4846    986.0461 300.0980759 +22.8318547     361.1695     70.14656      1.734     4.97    -5.455098     19.79552     32.23034         8     1.010     0.693  12.31   0
        15    834.8220    982.5189 300.1572613 +22.8867752     609.3254     70.12868      1.337     2.43    -5.503935     19.79552      65.9063         6     0.740     0.496  -6.26   0
        16    883.3548    973.8277 300.1752160 +22.8988459     419.0086     70.20016      1.268     3.20    -5.421049     19.79552     48.56367         7     0.867     0.579 -15.41   0
        17    734.8469    972.9921 300.1292202 +22.8540362     555.3409      70.1823      1.621     2.98    -5.512729     19.79552     56.42602         8     0.883     0.648 -84.17   0
        18    447.5822    969.2355 300.0410314 +22.7667078      2888.21     70.16444      1.539     6.60    -5.133434     19.79552     407.7321        23     1.202     1.018 -61.77   0
        19    573.0662    965.1844 300.0813942 +22.8032288     6786.318     70.14656      0.514     0.86    -5.075715     19.79552     4709.232         9     0.442     0.363 -83.81   0
        20    172.7736    955.2371 299.9601604 +22.6801400     408.7893      70.1823      1.313     2.73    -2.940926     19.79552      51.4992         8     0.783     0.685  49.80   0
        21    149.8096    952.5960 299.9538863 +22.6724828     805.7586      70.0034      1.228     2.55     -3.03233     19.79552     115.6441        13     1.018     0.715  73.39   0
        22   1021.1271    940.7140 300.2289512 +22.9306772     1257.311     66.45636      1.200     2.23    -5.121962     19.79552     195.5392        15     0.910     0.837   1.25  16
        23    681.0222    940.3753 300.1230809 +22.8285241     290.1221     70.12868      1.927     4.39    -5.370562     19.79552     30.29354         6     1.125     0.488 -51.53   0
        24    975.3226    939.3818 300.2151026 +22.9165543     1153.641     70.16444      1.267     2.39    -5.279595     19.79552     171.8628        17     0.997     0.932   6.48   0
        25    758.9879    933.2917 300.1496687 +22.8498936     359.2361     70.11079      1.300     2.61    -5.340225     19.79552     47.67738         7     0.726     0.631  -5.85   0
        26    627.1935    927.4293 300.1105375 +22.8086523     2726.546     70.16444      1.385     2.56    -4.988385     19.79552     285.0371        27     1.108     1.062 -55.66   0
        27    429.5069    924.6753 300.0499199 +22.7485052     282.4593      70.3251      1.179     3.26    -4.623127     19.79552     54.50705         5     0.741     0.426 -64.41   0
        28    177.7823    921.7576 299.9726179 +22.6720528     851.1012      70.1823      1.472     2.88    -4.141503     19.79552     97.73406        14     1.023     0.825  59.99   0
        29    647.6788    919.9741 300.1193426 +22.8126636     351.1371     70.16444      1.312     4.23    -5.078269     19.79552     52.18348         7     0.785     0.651 -63.20   0
        30    803.0494    907.0495 300.1719399 +22.8555876     2388.936     70.20016      1.363     2.43    -5.170569     19.79552     301.7351        23     1.051     1.024  -4.07   0
        31   1019.9765    907.0248 300.2395633 +22.9206616       694.84     69.55414      1.246     2.27    -4.974855     19.79552     102.5412         9     0.754     0.726 -55.82  16
        32    212.0304    901.5345 299.9898435 +22.6765479     275.0408     70.16444      1.475     4.18    -4.299321     19.79552     35.57173         6     1.008     0.496   3.60   0
        33    166.5885    898.0499 299.9768588 +22.6618965     573.6476     70.20016      1.477     3.95    -4.388947     19.79552     75.92991        12     1.161     0.808  41.06   0
        34    316.3620    890.0320 300.0260158 +22.7045924     30430.69      70.1823      1.435     2.59     -4.40059     19.79552     3628.998        68     1.296     1.249 -79.57   0
        35    582.3383    893.0687 300.1077631 +22.7853320     290.3401     70.21803      1.518     4.25    -4.712308     19.79552     33.15311         5     0.852     0.604   7.28   0
        36    574.1947    889.0209 300.1065464 +22.7817263     858.9122     70.14656      1.375     3.12    -4.694542     19.79552     107.6351        12     0.951     0.852  67.47   0
        37    245.4816    888.5072 300.0044801 +22.6828640     136.9402     70.30726      1.165     4.96    -4.380844     19.79552     26.78828         6     0.952     0.731  82.64   0
        38    986.8230    887.7248 300.2355097 +22.9051770     523.2072     70.20016      1.215     2.31    -4.871582     19.79552     78.79065         9     0.858     0.622 -71.16   0
        39    603.2205    884.8446 300.1169405 +22.7892420     615.6412     70.21803      1.553     2.93    -4.718787     19.79552     71.84365        10     0.985     0.666 -25.12   0
        40      2.4569    884.7862 299.9302031 +22.6087748     416.2018     60.44865      1.201     2.79    -4.610943     19.79552     63.96053         9     0.827     0.753  -9.77  24
        41    613.6064    882.9166 300.1208012 +22.7918068     453.0671     70.09291      1.428     2.45    -4.728278     19.79552     47.87885         6     0.779     0.485 -84.51   0
        42    366.0084    867.2373 300.0488724 +22.7129691     17926.82      70.1823      1.487     2.84    -4.406006     19.79552       1768.8        57     1.311     1.239  84.50   0
        43    756.9765    870.0778 300.1696250 +22.8311539     465.1179     70.16443      1.494     5.26    -4.765284     19.79552      49.3776        10     1.276     0.726  -5.28   0
        44    380.2367    867.7960 300.0531150 +22.7174023     1118.149     70.20016      1.511     3.39    -4.439456     19.79552     110.3256        22     1.208     1.080  68.09   0
        45    888.8984    862.7150 300.2131260 +22.8686233     1526.697      70.3251      1.310     2.56    -4.564475     19.79552     206.3274        17     1.016     0.873 -17.58   0
        46    646.7784    858.6223 300.1390373 +22.7947952     511.5597     70.16444      1.466     5.21    -4.637686     19.79552     52.77239        12     1.064     0.982  82.85   0
        47    248.5863    859.1712 300.0149948 +22.6753889     475.9141     70.16444      1.650     4.62    -4.458988     19.79552     53.06596         8     1.022     0.593  17.07   0
        48     52.8792    854.8141 299.9556149 +22.6153418     194.4419     70.16444      1.274     3.53    -4.638122     19.79552     34.08677         6     0.762     0.555  37.17   0
        49    494.0403    853.7602 300.0930828 +22.7475501     482.4396     70.23589      1.471     3.75    -4.633548     19.79552      56.2274         9     0.984     0.641  27.77   0
        50     81.7013    848.7610 299.9665356 +22.6222683      258.063     70.16444      1.213     3.92    -4.690735     19.79552     34.73749         6     0.933     0.575 -26.83   0
        51    246.0545    843.8287 300.0192020 +22.6702310     283.8876     70.16444      1.359     3.62    -4.366094     19.79552     36.53115         5     0.981     0.384 -58.56   0
        52    539.2998    832.0960 300.1142177 +22.7549246     364.9798     70.36075      1.680     5.17    -4.586278     19.79552     35.08919         9     1.095     0.691 -10.65   0
        53    560.9100    829.0609 300.1219309 +22.7605412     784.1451     70.25373      1.549     4.05    -4.568656     19.79552     69.41445        14     1.131     0.903 -70.71   0
        54    955.2430    827.9954 300.2451091 +22.8785586     2672.717      70.1823      1.366     2.48    -4.334852     19.79552     340.6189        24     1.089     1.014   5.26   0
        55    943.8039    819.4645 300.2443198 +22.8726787     986.0275     70.16444      1.398     3.15    -4.280147     19.79552     106.3098        16     1.090     0.883  28.69   0
        56    306.9969    814.2756 300.0477636 +22.6800637     303.9205     70.07502      1.285     3.96    -4.186248     19.79552     57.52179         8     0.999     0.589  -6.53   0
        57    769.9073    810.8353 300.1929377 +22.8180346     1584.149     70.11079      1.694     3.14     -4.46565     19.79552     128.5416        23     1.304     1.071   7.04   0
        58    974.7931    809.4621 300.2572370 +22.8791016     1004.449     70.12868      1.353     2.81    -4.106944     19.79552      120.185        15     1.074     0.811  82.33   0
        59    155.6152    798.0533 300.0059977 +22.6299445     342.2456     70.14656      1.414     2.80     -4.57536     19.79552      56.1072         8     0.843     0.683 -39.05   0
        60    853.0111    796.3087 300.2235580 +22.8387976     360.0064     70.11079      1.567     4.28    -4.227285     19.79552      28.1134         7     0.759     0.687 -11.93   0
        61    888.4633    787.6616 300.2374209 +22.8469500      84480.6     70.20016      1.495     2.77     -4.18884     19.79552     8019.734       113     1.357     1.342  49.83   0
        62    741.2333    788.1454 300.1913907 +22.8029199     516.1071      70.1823      1.575     4.80    -4.369965     19.79552     41.85323        13     1.039     0.987 -18.78   0
        63    574.7149    776.6632 300.1432807 +22.7496547     955.3303     70.27158      1.574     3.82    -4.201412     19.79552     86.55162        14     1.067     0.914  53.41   0
        64    756.0076    773.9867 300.2006005 +22.8032896     5442.883     70.05712      1.529     3.05    -4.304336     19.79552     461.4991        39     1.263     1.230 -73.59   0
        65    257.7981    769.5104 300.0470382 +22.6524551     2755.882     70.07502      1.633     3.17    -4.135358     19.79552     261.9773        31     1.279     1.220  45.76   0
        66    339.9557    767.6575 300.0731812 +22.6765957     557.7946     70.20016      1.461     3.87    -4.285546     19.79552     54.15566        12     1.043     0.890  31.74   0
        67    539.4990    754.9881 300.1393740 +22.7328671     1758.548     70.07502      1.620     3.28    -3.831958     19.79552     173.7321        25     1.207     1.132  32.13   0
        68    529.7423    748.9388 300.1383061 +22.7282034      777.093     70.23589      1.717     3.67     -3.78016     19.79552     63.04753        13     0.987     0.930 -65.79   0
        69    193.7438    745.3204 300.0350029 +22.6262830     234.1082     70.20016      1.340     3.47    -4.106654     19.79552     49.21442         5     0.775     0.449 -11.60   0
        70    454.8262    738.3987 300.1184266 +22.7026926     1058.783     70.11079      1.840     4.01       -4.051     19.79552     82.45645        22     1.316     1.107  80.59   0
        71    976.8251    739.1933 300.2807391 +22.8595353     260.4276     70.16444      1.233     2.95     -4.01848     19.79552     44.57814         5     0.812     0.650 -50.52   0
        72    554.0805    739.0075 300.1491116 +22.7326592      158.306     70.09291      1.127     2.97    -3.621387     19.79552     34.48152         5     0.648     0.569  -0.36   0
        73    108.7520    733.7021 300.0123785 +22.5974241     11424.16     70.20016      1.566     2.82    -4.251825     19.79552     1208.813        52     1.330     1.269  69.18   0
        74     29.7060    735.4362 299.9872661 +22.5741746     476.4337     70.16444      1.375     3.03    -4.392034     19.79552     52.72344         7     0.809     0.678 -61.94   0
        75    539.6422    733.9196 300.1462737 +22.7268662     598.4058     70.14656      1.686     4.26    -3.548912     19.79552     55.93204        12     1.120     0.891 -82.87   0
        76    574.7391    733.4005 300.1573656 +22.7372506     228.1947     70.12868      1.487     5.34    -3.713041     19.79552     28.13411         5     1.334     0.603 -27.33   0
        77    957.3329    719.3862 300.2811067 +22.8480027     467.5499     70.16444      1.417     3.17    -4.076881     19.79552     66.52858        13     0.963     0.917  73.02   0
        78     54.9330    717.7466 300.0008544 +22.5766841     827.3481      70.1823      1.932     5.74     -4.32694     19.79552      86.2077        17     1.630     0.745  84.64   0
        79    120.9252    718.7216 300.0210333 +22.5967870      220.593     70.27158      1.421     3.54     -4.19056     19.79552     41.98989         5     1.073     0.336 -43.15   0
        80    502.9468    714.1678 300.1412813 +22.7101863     212.4379      70.1823      1.436     4.24    -3.627252     19.79552     30.63506         6     1.130     0.454  70.39   0
        81    897.7723    712.2989 300.2648458 +22.8281064     434.9297     70.11079      1.502     4.38    -4.172774     19.79552     48.24012         7     0.858     0.635  17.80   0
        82    459.8041    706.7328 300.1302775 +22.6951041      445.468     70.14656      1.511     4.65    -3.807262     19.79552     46.45365         7     1.092     0.561 -25.70   0
        83    624.3205    703.8748 300.1824055 +22.7436577     300.3483     70.27158      1.719     4.73    -3.766398     19.79552     37.36148         5     1.151     0.552  19.41   0
        84    504.1306    702.5637 300.1454248 +22.7072127      505.514     70.14656      1.844     6.19    -3.565826     19.79552     43.33395        14     1.365     0.789  82.66   0
        85    937.2736    697.6937 300.2819107 +22.8357586     1866.689     70.30726      1.499     3.39    -4.124205     19.79552     170.6104        20     1.100     1.036 -60.35   0
        86    469.3573    697.8872 300.1361271 +22.6954342     1008.004     70.16444      1.723     4.16    -3.685361     19.79552     80.55289        18     1.164     1.066  28.21   0
        87     31.4779    691.9402 300.0019656 +22.5622423     2866.267     70.21803      1.508     2.82    -4.330173     19.79552     327.3448        25     1.191     1.069  82.03   0
        88    332.8393    684.8534 300.0979080 +22.6507146     5206.938     70.16444      1.687     3.46    -4.115202     19.79552     389.2074        36     1.354     1.222  69.96   0
        89    455.2556    681.8104 300.1369698 +22.6865898     5226.745     70.16444      1.723     3.52    -3.673159     19.79552     429.2136        39     1.355     1.296  87.51   0
        90    866.7839    675.5251 300.2671513 +22.8082547     1167.497     70.16444      1.542     3.63    -4.177458     19.79552     102.1752        17     1.067     1.005   5.71   0
        91    951.2910    672.7449 300.2943971 +22.8327975      7019.69     70.21803      1.547     3.06    -4.071269     19.79552     610.1663        36     1.249     1.183 -77.79   0
        92    515.7039    671.2983 300.1591964 +22.7017165     6648.086     70.34293      1.754     3.65    -3.391705     19.79552     489.9371        41     1.408     1.296  79.59   0
        93    243.5104    667.2706 300.0758584 +22.6188519     826.2697      70.3251      1.848     4.73    -4.072995     19.79552     70.71133        18     1.406     0.922  60.36   0
        94    684.9847    666.5161 300.2134468 +22.7511378     316.3505     70.12868      1.751     3.49    -3.904315     19.79552     42.62487         6     0.946     0.509  76.08   0
        95    447.5493    659.6302 300.1417871 +22.6779141     2518.203      70.1823      1.776     3.64    -3.614129     19.79552      211.419        31     1.348     1.255 -41.60   0
        96    790.1008    659.1772 300.2485749 +22.7805627     558.5792     70.11079      1.637     5.70    -4.051097     19.79552     49.95085        12     1.060     0.864   3.55   0
        97    425.8765    657.9147 300.1356035 +22.6709170     662.1754     70.27158      1.593     4.62    -3.736909     19.79552     66.07102        16     1.278     0.978  70.89   0
        98    180.2890    657.4440 300.0594079 +22.5970501     463.0876      70.1823      1.674     2.74    -4.061692     19.79552     44.24516         5     0.710     0.450  22.50   0
        99    867.0309    654.8193 300.2739636 +22.8023835     966.0414     70.16444      1.626     3.97    -4.153949     19.79552     77.92126        14     1.041     0.915 -83.66   0
       100    563.9965    647.0579 300.1821098 +22.7092532     116298.1     70.12868      1.788     3.72    -3.364218     19.79552     8735.294       162     1.627     1.606  38.18   0
       101    748.0427    652.0026 300.2378068 +22.7658880     334.8819      70.1823      1.505     4.37    -4.047134     19.79552     42.26901         8     1.024     0.809  70.46   0
       102    250.1820    647.1699 300.0844695 +22.6150914     1942.013     70.14656      1.721     3.59    -4.061382     19.79552      159.844        24     1.231     1.124  58.75   0
       103    454.5930    627.4210 300.1544538 +22.6707880      1520.05     70.14656      1.800     4.27    -3.469208     19.79552     104.9174        27     1.398     1.203 -80.16   0
       104    851.6403    613.3929 300.2826410 +22.7858730      998.066     70.20016      1.697     4.39    -4.061444     19.79552     84.08544        22     1.258     1.216  31.64   0
       105    722.7712    611.1058 300.2432365 +22.7465677     1474.907     70.09291      1.772     3.69    -3.905995     19.79552     100.7889        23     1.211     1.141  -0.40   0
       106    966.8041    608.0422 300.3202789 +22.8188660     331.9078      70.1823      1.482     3.86    -3.873175     19.79552     34.06122         5     1.068     0.401  74.50   2
       107    965.7677    604.2443 300.3211909 +22.8174644     483.9956     70.21803      1.751     4.17    -3.845037     19.79552     43.08012         5     0.998     0.584  13.16   2
       108    510.3450    607.3940 300.1783127 +22.6817727     385.0782     70.16444      1.713     5.07     -3.32394     19.79552     44.73302        10     1.381     0.837 -37.99   0
       109    979.9284    604.7766 300.3254331 +22.8218625     747.5281     70.20016      1.642     3.85    -3.850622     19.79552     71.63087        13     1.166     0.760 -80.43   0
       110    851.6908    603.7136 300.2858046 +22.7831087     1213.436      70.3251      1.780     3.76    -4.010654     19.79552     102.8663        20     1.279     1.031  33.25   0
       111    443.9113    600.9980 300.1597236 +22.6600016     183.4316     70.09291      1.512     6.30    -3.406667     19.79552     27.85379         7     1.325     0.843 -37.46   0
       112    889.8884    598.4783 300.2994118 +22.7930587     2462.903     70.30726      1.682     3.50    -3.925755     19.79552      176.569        29     1.279     1.183  58.73   0
       113    122.3105    589.9258 300.0633514 +22.5602816     510.4253      70.3251      1.514     5.45    -3.947177     19.79552     54.32175        10     0.987     0.850 -83.87   0
       114    981.8357    589.0680 300.3311362 +22.8179220     475.3493     70.16444      1.427     4.97    -3.731101     19.79552     49.31148         9     1.104     0.634 -12.43   0
       115    663.5617    569.5210 300.2383200 +22.7168702     383.5587     70.14656      1.381     4.64    -3.260439     19.79552     38.70773         7     1.191     0.514 -37.82   0
       116    724.9066    561.2878 300.2601010 +22.7329059     347.0682      70.3251      1.408     4.23     -3.47447     19.79552      39.9269         7     1.163     0.439 -56.83   0
       117    881.4405    557.3510 300.3101521 +22.7787143     559.9112      70.1823      1.677     6.34    -3.595442     19.79552     37.52777        15     1.190     0.949 -67.06   0
       118    609.9814    552.0656 300.2273136 +22.6957873     1851.978     70.14656      1.879     4.24     -3.01109     19.79552     135.9237        26     1.307     1.264 -72.82   0
       119    970.6802    550.1992 300.3402967 +22.8034127     299.7105     70.05712      1.470     5.20    -3.457147     19.79552     31.10044         6     1.201     0.637  50.94   0
       120   1021.2344    530.7415 300.3623873 +22.8129754     748.7548     65.98295      1.514     3.95    -3.275397     19.79552     68.94079        16     1.150     0.957 -22.19  24
       121    979.4725    529.5926 300.3497378 +22.8001283     580.6418     70.12868      1.690     5.74     -3.33818     19.79552     39.42125        13     1.049     0.911 -40.32   0
       122    720.3501    525.8720 300.2701961 +22.7213710     573.5918     70.16444      1.652     6.37    -3.256513     19.79552     44.15172        15     1.375     0.828  11.27   0
       123    224.8664    524.7462 300.1164067 +22.5723819     393.1866     70.20016      1.361     3.36    -3.737055     19.79552     39.25368         5     0.952     0.344 -44.59   0
       124    286.9149    520.1537 300.1371857 +22.5896897     2015.582     70.14656      1.843     3.92    -3.565044     19.79552     160.6421        29     1.360     1.284  61.12   0
       125   1019.7542    517.9656 300.3660791 +22.8088611     2426.594     69.96757      1.582     3.18    -3.218726     19.79552     211.5466        26     1.308     1.076   2.46  24
       126    234.0861    514.8967 300.1224736 +22.5723245     4252.183     70.34293      1.790     3.51    -3.665359     19.79552     376.3163        36     1.379     1.303  68.05   0
       127    374.9858    509.9199 300.1678961 +22.6131856     3474.621     70.14656      2.397     9.41    -3.097397     19.79552     767.1339        36     2.127     1.161  89.81   0
       128    999.6482    509.1373 300.3626790 +22.8002987     982.1199     70.20016      1.537     3.89    -3.208662     19.79552     86.16773        17     1.143     0.982 -65.88   0
       129    619.0330    505.5669 300.2452476 +22.6851546     10629.87     70.23589      1.897     4.06    -2.991678     19.79552     713.8469        54     1.507     1.465  42.07   0
       130    952.1947    488.1659 300.3546998 +22.7800508     468.6397     70.14656      1.744     5.68    -3.181259     19.79552     40.17432         9     1.182     0.769 -69.63   0
       131    173.6830    486.1347 300.1130513 +22.5459428     1245.412     70.27158      1.778     3.89    -3.584264     19.79552     102.8867        22     1.243     1.165   7.21   0
       132    559.5663    474.9776 300.2366793 +22.6585363     3737.694      70.1823      1.930     4.18    -2.972751     19.79552     265.9818        37     1.469     1.356  82.62   0
       133    973.1458    475.1813 300.3654527 +22.7825996       688.24     70.14656      1.441     3.49     -3.11421     19.79552     64.79636        11     0.888     0.850  27.79   0
       134    275.0588    475.2357 300.1480997 +22.5732456     337.9446      70.1823      1.424     4.14    -3.180109     19.79552     43.38077         7     1.010     0.647 -65.78   0
       135    132.8771    468.1207 300.1062277 +22.5285264     414.1986     70.27158      1.963     3.99    -3.515384     19.79552     30.18947         6     0.786     0.579 -50.78   0
       136    763.3774    464.2482 300.3036294 +22.7165773     605.0853      70.1823      1.880     5.94    -3.138012     19.79552      38.6783        11     1.193     0.832 -57.81   0
       137    466.3124    461.3624 300.2120856 +22.6266538     3387.472     70.14656      1.909     4.17     -2.85493     19.79552     236.6974        34     1.435     1.333  12.74   0
       138    857.8691    455.1289 300.3360353 +22.7422863      820.205     70.20016      1.815     6.17    -3.142824     19.79552     60.40314        18     1.386     1.183  37.83   0
       139    955.5958    455.4863 300.3663820 +22.7716810     317.0007     70.09291      1.477     5.32    -3.113853     19.79552     31.58468         9     1.030     0.777  80.82   0
       140    831.0860    443.6123 300.3314317 +22.7309493     273.2652     70.11079      1.327     3.52    -3.140764     19.79552     42.65218         5     0.858     0.418 -19.55   0
       141    353.9727    440.7676 300.1838361 +22.5870378     1443.852     70.16444      1.930     4.61    -2.729749     19.79552     99.26642        26     1.396     1.244  74.93   0
       142     72.6865    438.2878 300.0972255 +22.5019005     572.5712     70.30726      1.784     5.42    -3.399605     19.79552     44.44225        10     0.997     0.831  76.50   0
       143    323.2721    430.1208 300.1777495 +22.5747705     16644.65     70.28942      1.915     3.89    -2.733274     19.79552     1270.083        66     1.573     1.472  83.06   0
       144    857.8353    427.2380 300.3450889 +22.7342640     932.7111     70.23589      1.900     4.45     -3.10274     19.79552     67.08257        20     1.314     1.137  14.25   0
       145     19.6760    418.0911 300.0873255 +22.4801933      2903.17     70.30726      1.703     3.35    -3.245638     19.79552     266.5821        33     1.382     1.228  67.05   0
       146    197.9743    416.0775 300.1433651 +22.5331390     341.6518     70.16443      1.655     3.82    -2.920459     19.79552     31.48024         5     0.675     0.620   1.61   0
       147    733.5972    409.7040 300.3120781 +22.6919834     1048.235     70.07502      1.830     4.94    -3.077152     19.79552     81.09455        20     1.303     1.178  85.78   0
       148    948.9951    402.5654 300.3815218 +22.7544968     338.0469     70.16444      1.554     3.23     -3.04802     19.79552     40.57659         5     0.859     0.494  -3.50   0
       149    395.5305    394.5948 300.2117629 +22.5862558      1178.96     70.12868      2.053     4.32    -2.710407     19.79552     78.69751        21     1.396     1.136 -70.96   0
       150    471.6693    373.6466 300.2422536 +22.6030828     675.3237     70.14656      1.874     4.89     -2.80865     19.79552     56.28447        13     1.350     0.986  83.07   0
       151    715.8740    365.6305 300.3208775 +22.6740111     1212.932      70.1823      1.882     4.55     -3.01774     19.79552     87.00448        23     1.279     1.239 -20.98   0
       152    976.9896    359.7718 300.4041542 +22.7505877     1821.525     70.16444      1.678     3.74     -3.03637     19.79552     138.0575        21     1.173     1.108 -78.91   0
       153     99.6128    343.9989 300.1362205 +22.4829399     816.1694     69.98549      1.817     5.54    -2.798934     19.79552     52.10378        17     1.388     0.959 -68.88   0
       154    129.9547    344.0470 300.1456304 +22.4920605     333.1401      70.1823      1.607     4.97    -2.798934     19.79552     31.48964         6     0.985     0.709 -36.03   0
       155    788.1364    327.4757 300.3557824 +22.6847121     354.3674     70.21803      1.822     4.20    -2.889793     19.79552     30.59854         6     1.012     0.498   2.37   0
       156    885.6196    315.7239 300.3899780 +22.7105505     1310.166     70.16444      1.880     4.68     -2.72855     19.79552     76.93228        27     1.403     1.285  23.97   0
       157    304.3093    313.6320 300.2096960 +22.5356519     1369.131     70.11079      1.964     4.80    -2.221766     19.79552     88.32132        27     1.386     1.327  19.56   0
       158    383.0872    308.7764 300.2357697 +22.5578904     542.0067     70.11079      1.802     5.20    -2.527257     19.79552     47.10852         9     1.021     0.748 -53.76   0
       159    736.7662    297.3999 300.3495480 +22.6606742     900.4692     70.11079      1.914     5.74     -2.78897     19.79552     66.71552        22     1.415     1.184  72.93   0
       160    801.4538    297.5224 300.3696607 +22.6800975     276.8787     70.20016      1.147     3.65    -2.656504     19.79552     32.70832         6     0.964     0.397 -20.21   0
       161   1007.8462    289.8473 300.4364900 +22.7397340     419.9691      70.1823      1.426     3.14    -2.678669     19.79552     54.92902        10     0.942     0.724  21.32   0
       162    740.5526    289.1391 300.3534103 +22.6594358     401.1039     70.20016      2.215     5.44    -2.742513     19.79552     29.82683         9     1.121     0.745 -67.44   0
       163    661.6740    288.2296 300.3291394 +22.6355302     672.5531      70.1823      1.908     4.74    -2.687273     19.79552     52.83701        13     1.081     1.013  43.17   0
       164    587.6750    280.0635 300.3087524 +22.6109998     495.5212     70.20016      1.989     6.88      -2.5817     19.79552     39.29528        11     1.521     0.981   1.99   0
       165    856.7971    279.3669 300.3928031 +22.6914657     819.1111     70.14656      1.681     4.76    -2.543875     19.79552     64.14437        18     1.208     1.112  18.57   0
       166    869.1676    278.7785 300.3968496 +22.6950035     522.9666     70.16444      2.091     4.89    -2.544937     19.79552     42.91469         8     1.343     0.759   2.20   0
       167    985.2496    268.9148 300.4362415 +22.7269475     673.3039     70.14656      1.597     4.26    -2.629753     19.79552     59.73037        15     1.140     0.970 -67.53   0
       168    219.9406    262.8395 300.1999644 +22.4957626     375.6188     70.16444      1.521     4.36    -2.079309     19.79552     46.03579         7     1.067     0.508 -19.82   0
       169     81.7305    257.4156 300.1587837 +22.4527341     1307.793      70.1823      1.785     4.18    -2.399882     19.79552     104.9026        23     1.430     1.026 -65.17   0
       170    904.4437    253.8665 300.4159350 +22.6984135     391.6541     70.14656      1.612     6.01    -2.442585     19.79552     39.72132         9     1.456     0.698  -2.47   0
       171    238.9704    250.4655 300.2098968 +22.4979207     3208.598      70.1823      1.926     4.12    -2.034161     19.79552     225.8109        37     1.457     1.389 -79.44   0
       172     23.3196    245.2324 300.1445988 +22.4317089     668.6683     70.16444      1.736     3.46    -1.958239     19.79552     81.45623        15     1.156     0.923  -0.99   0
       173    882.8028    231.7002 300.4163871 +22.6855586     1849.204     70.03922      1.772     3.96    -2.341019     19.79552     138.3284        25     1.233     1.212  51.42   0
       174    986.4517    230.0157 300.4492479 +22.7161252     1577.709     70.16444      1.715     3.53    -2.585625     19.79552     140.3824        25     1.290     1.242  15.05   0
       175    359.4669    218.1397 300.2578548 +22.5247859     472.5417     70.20016      2.628     5.70    -1.914677     19.79552     25.02937         7     1.577     0.581  -9.05   0
       176    484.0320    214.6219 300.2977453 +22.5611302     1015.637     70.16444      2.067     5.13    -1.940708     19.79552     61.06114        19     1.302     1.130  77.97   0
       177    257.9236    194.2922 300.2340248 +22.4874831     3244.774     70.30726      1.877     3.78    -2.000621     19.79552     245.3031        34     1.438     1.290  77.32   0
       178    109.9908    193.6740 300.1882556 +22.4429251     368.0803     70.16444      1.594     3.72    -2.189888     19.79552     38.68687         5     1.224     0.325 -48.61   0
       179    503.8462    179.5032 300.3153114 +22.5569850     3443.179      70.1823      1.973     4.39    -1.989847     19.79552     230.6614        39     1.568     1.382  88.10   0
       180    390.0966    179.4757 300.2799321 +22.5228704     318.4693     70.30726      1.626     4.42    -2.109148     19.79552     47.72575         7     1.190     0.594 -81.06   0
       181    756.2274    169.5663 300.3971169 +22.6297757     515.3242      70.1823      2.132     5.17    -2.410414     19.79552     32.56023         7     1.162     0.650 -40.70   0
       182    849.1132    168.0524 300.4265504 +22.6571709     132.1089     70.20016      1.428     3.85    -2.087944     19.79552     27.21784         5     1.260     0.338 -26.08   0
       183    632.1431    159.4743 300.3617478 +22.5896899     3565.921     70.21803      1.973     4.37    -2.079295     19.79552     227.4283        38     1.476     1.440  83.86   0
       184    407.5737    158.7397 300.2920989 +22.5221566     816.8015     70.16444      2.017     4.83    -2.094119     19.79552     55.41688        17     1.226     1.038 -18.67   0
       185    673.1334    156.9599 300.3753277 +22.6012524     529.3286     70.12868      1.854     6.14      -2.2696     19.79552      37.6715        12     1.429     0.853  15.39   0
       186    689.6260    153.5455 300.3815722 +22.6052139     430.0716     70.20016      1.922     3.48    -2.293869     19.79552     25.35297         5     1.075     0.325 -69.51   0
       187    676.2288    144.4015 300.3803678 +22.5985715     1762.583     70.12868      2.063     4.64    -2.242286     19.79552     111.2022        30     1.587     1.274 -23.94   0
       188    762.6469    136.2042 300.4099455 +22.6221111     855.5737     70.14656      1.957     4.88    -2.299805     19.79552     67.40841        17     1.407     0.955  22.09   0
       189    701.3929    129.4978 300.3930419 +22.6018297     395.3487     70.03922      1.790     3.33    -2.230434     19.79552     45.06572         5     0.932     0.508 -46.43   0
       190    506.5318    128.7235 300.3326288 +22.5432045     593.9874     70.25374      1.837     5.34    -1.958824     19.79552     47.45326        13     1.393     0.896  -4.18   0
       191    410.2506    127.1464 300.3031852 +22.5138863     454.7469     70.20016      1.680     6.51    -2.098208     19.79552     30.70636        13     1.169     1.019  -9.89   0
       192     79.7130    127.6029 300.2002943 +22.4148803     344.2716     70.09291      1.976     4.22    -1.987418     19.79552     35.62072         6     1.210     0.452  89.55   0
       193    181.8250    116.8669 300.2355024 +22.4424315     2239.731     70.14656      1.839     3.79    -2.012772     19.79552     170.1251        28     1.324     1.216 -87.43   0
       194    743.0897    109.5306 300.4125098 +22.6085852      511.081      70.3251      1.920     4.25    -2.182617     19.79552     43.62504         8     1.152     0.751 -18.77   0
       195    298.0579    109.2632 300.2740985 +22.4751092     606.4292     70.21803      1.580     3.55    -2.015416     19.79552      69.3175        14     1.134     0.921   1.22   0
       196    800.6778    100.0985 300.4335121 +22.6231273     1217.068     70.28942      1.793     4.96    -2.135842     19.79552     105.3629        20     1.283     1.126 -39.94   0
       197    184.4123     96.0677 300.2430556 +22.4372370     670.4677     70.16444      1.735     5.53    -1.990109     19.79552     50.16263        14     1.166     1.053 -28.04   0
       198    749.7325     93.1135 300.4199066 +22.6058569     446.7854     70.27158      1.814     3.60    -2.123729     19.79552     46.98927         5     0.873     0.457 -40.04   0
       199    602.2129     78.2214 300.3787983 +22.5573738     418.8603     70.14656      1.801     3.38    -1.850432     19.79552     37.96591         5     0.954     0.347 -48.13   0
       200    764.1896     71.9017 300.4312934 +22.6040910     393.0168     70.05712      1.904     5.29    -2.123604     19.79552      33.2809         7     1.162     0.681 -77.89   0
       201    573.5029     70.9732 300.3722126 +22.5466870     1110.253     70.12868      1.976     4.63     -1.80632     19.79552     79.14186        22     1.426     1.161 -20.61   0
       202    296.2549     68.2958 300.2868307 +22.4628051     472.8727     70.23589      1.812     6.91    -2.036064     19.79552       40.112         9     1.491     0.896 -70.72   0
       203     11.6753     67.7479 300.1985851 +22.3772902      345.963      70.1823      1.549     2.30     -2.23079     19.79552      40.5414         5     0.702     0.451  76.45   0
       204    530.8423     64.7192 300.3609635 +22.5321044     800.8525     70.14656      1.882     5.05    -1.787658     19.79552     60.47331        18     1.377     1.023 -38.67   0
       205    636.0844     61.6161 300.3947318 +22.5627523     851.9861     70.12868      1.860     4.51    -1.917474     19.79552     64.57999        18     1.232     1.086 -50.21   0
       206    456.4196     55.1534 300.3409086 +22.5070491     1277.264     70.20016      1.966     5.21    -1.860764     19.79552     93.86388        25     1.452     1.218  78.04   0
       207    104.0525     53.3454 300.2319487 +22.4008692     680.7335     70.20016      1.503     3.86    -2.107563     19.79552     64.02418        15     1.156     0.983  87.38   0
       208    164.8959     35.0175 300.2567978 +22.4138571     695.6437     70.07502      1.670     4.53    -2.068333     19.79552     62.68113        15     1.213     1.014 -81.34   0
       209    100.9527   1018.8019 299.9171491 +22.6767640     1339.647     70.16444      6.844    11.58    0.2327341     19.79552     53.18855        18     2.217     1.684 -73.69  19
       210    765.8403   1013.2212 300.1257700 +22.8748784     515.5455     70.20016      1.195     2.39    -5.680056     19.79552     88.62074        10     0.866     0.686 -69.07   0
