#   1 NUMBER                 Running object number                                     
#   2 X_IMAGE                Object position along x                                    [pixel]
#   3 Y_IMAGE                Object position along y                                    [pixel]
#   4 ALPHA_J2000            Right ascension of barycenter (J2000)                      [deg]
#   5 DELTA_J2000            Declination of barycenter (J2000)                          [deg]
#   6 FLUX_APER              Flux vector within fixed circular aperture(s)              [count]
#   7 FLUXERR_APER           RMS error vector for aperture flux(es)                     [count]
#   8 FLUX_RADIUS            Fraction-of-light radii                                    [pixel]
#   9 FWHM_IMAGE             FWHM assuming a gaussian core                              [pixel]
#  10 BACKGROUND             Background at centroid position                            [count]
#  11 THRESHOLD              Detection threshold above background                       [count]
#  12 FLUX_MAX               Peak flux above background                                 [count]
#  13 ISOAREA_IMAGE          Isophotal area above Analysis threshold                    [pixel**2]
#  14 A_IMAGE                Profile RMS along major axis                               [pixel]
#  15 B_IMAGE                Profile RMS along minor axis                               [pixel]
#  16 THETA_IMAGE            Position angle (CCW/x)                                     [deg]
#  17 FLAGS                  Extraction flags                                          
         1    632.5197     16.1804 300.3947938 +22.5625318     822.3716     70.24605      1.716     4.26    -2.248676      19.8236     71.87335        14     1.109     0.916  64.46   0
         2    453.1367     10.2212 300.3408927 +22.5070807     1291.791     70.22815      1.630     3.42    -2.628201      19.8236     127.0872        20     1.152     1.058  60.45   0
         3    100.3771      8.2655 300.2318550 +22.4007862     920.1888     70.24605      1.437     3.09    -2.729356      19.8236     90.08118        13     0.982     0.874 -58.69   0
         4    539.2687   1015.7639 300.0408483 +22.8215126     354.3461     70.26395      1.084     1.71    -6.476088      19.8236     65.97539         5     0.669     0.431 -78.13   0
         5    659.7328   1021.5219 300.0764701 +22.8593236     3777.088     65.06006      1.112     1.97    -5.296381      19.8236     619.6196        22     0.924     0.875  41.21  24
         6    239.3179   1020.2120 299.9461188 +22.7327128     1187.271     69.12724      5.910    10.73     1.298394      19.8236     35.48601        16     2.276     1.409 -37.80  19
         7    239.2242   1016.7633 299.9472130 +22.7316966     990.6017     70.28185      3.016     4.20     1.107854      19.8236     32.18741         6     1.084     0.465   3.34  19
         8    244.6730   1023.6752 299.9466551 +22.7353137     692.6945     54.70738      3.144     5.55    0.8585526      19.8236     37.77627         9     1.312     0.662  -1.20  27
         9    228.7336   1022.8568 299.9419680 +22.7302911     895.2151     59.04104      5.186     8.89      2.63384      19.8236     42.09988        16     1.922     1.149   8.43  26
        10    151.7948   1023.2383 299.9179379 +22.7072865     995.1741     56.95964      3.823     5.05     10.22073      19.8236     39.07056         8     1.196     0.604 -50.88  26
        11    132.6694   1016.5465 299.9141762 +22.6996235     1209.995     70.28185      9.143    10.65     9.387948      19.8236     26.16429        14     2.649     1.194  42.92  19
        12    136.2351   1023.3779 299.9130588 +22.7026516     894.7015     56.29343      4.856     6.30     10.29363      19.8236     44.19392         8     1.196     0.933 -35.80  27
        13     70.1767   1020.8688 299.8933588 +22.6820843     1869.367     67.28352      9.622    19.21      4.05426      19.8236     57.88049        82     4.197     2.442  25.02  27
        14     88.1028   1012.3398 299.9017038 +22.6850279      3049.64      70.3355     19.114    59.07     6.883768      19.8236     76.21182       793    11.507     8.415  19.58  27
        15    392.7175   1006.8255 299.9981687 +22.7749486     3701.209     70.24605      1.113     1.90    -5.644073      19.8236     700.5356        23     0.938     0.863 -75.73   0
        16    118.9337   1006.1127 299.9133078 +22.6925078     1494.162     70.35338      9.676    10.29      7.73012      19.8236     41.10247        24     1.909     1.545  38.09   3
        17     80.7239    991.5365 299.9061873 +22.6768522     2155.548      70.3355     18.177    44.82     3.032995      19.8236     65.98466       337    11.638     4.791 -34.85  19
        18    568.1183   1012.1888 300.0509912 +22.8291481     921.4178     70.22815      1.146     1.80    -6.281456      19.8236     173.0697        11     0.807     0.710  32.11   0
        19    938.9113    985.3255 300.1752383 +22.9327045      1287.67     70.42484      1.097     1.65    -5.760556      19.8236     269.6097        13     0.847     0.723 -47.39   0
        20    589.0473    983.0876 300.0669837 +22.8270860     235.9715     70.24605      1.140     3.32    -5.757399      19.8236     43.29749         5     0.792     0.511 -54.95   0
        21    621.3314    980.0712 300.0780157 +22.8359109     204.2885     70.29974      1.113     2.53    -5.517056      19.8236     44.75031         5     0.746     0.417  69.30   0
        22     86.9126    977.1263 299.9128020 +22.6745840     2050.536     70.40698     11.348    20.05      1.95142      19.8236     51.49474        99     4.323     2.585 -33.39   3
        23    811.7704   1014.5079 300.1261088 +22.9029365     420.6904     70.22815      1.483     3.42    -6.102971      19.8236     44.46153         5     0.789     0.429 -22.79   0
        24    727.2435    973.6646 300.1130812 +22.8658576     402.3175     70.24605      0.952     2.41    -5.137109      19.8236     63.53453         6     0.699     0.596  61.54   0
        25    540.4651    969.6656 300.0562348 +22.8086546      375.195     70.31762      1.174     2.92    -5.774302      19.8236     48.89684         5     0.729     0.466  71.41   0
        26    762.6472    968.5447 300.1257761 +22.8750120     648.3362     70.29974      1.049     2.18    -5.379431      19.8236     87.58298        10     0.784     0.709 -32.25   0
        27    784.7844    962.2019 300.1347379 +22.8798342     6604.665     70.12063      1.084     1.78    -5.517673      19.8236     1351.173        27     0.924     0.874 -68.81   0
        28    975.8134    961.8211 300.1943986 +22.9370268      398.995     70.24605      1.235     2.19    -5.420049      19.8236     63.66914         6     0.717     0.534  31.06   0
        29     96.3003    953.9599 299.9232613 +22.6707683     413.9229     70.24605      1.267     2.03   -0.5461249      19.8236     76.59129         7     0.689     0.627 -27.23   0
        30    836.4046    949.8954 300.1548289 +22.8917896     281.4843     70.17441      1.106     2.85     -5.52541      19.8236     52.13863         6     0.803     0.572 -49.68   0
        31    462.0509   1008.8554 300.0190730 +22.7963492     686.4421     70.29974      1.284     2.05    -6.315944      19.8236      117.626         9     0.743     0.700  46.71   0
        32    793.2267    944.2330 300.1432198 +22.8772117     788.4931     70.28185      1.016     1.86    -5.440491      19.8236       156.12        11     0.831     0.697 -43.06   0
        33    976.2551    942.9000 300.2006984 +22.9317286     276.2537     70.35338      1.077     3.16     -5.29848      19.8236     60.64531         6     0.957     0.449  61.34   0
        34    831.4942    937.8374 300.1572256 +22.8868567     557.0411     70.24605      1.096     2.18    -5.414687      19.8236     74.04908         8     0.705     0.682 -25.54   0
        35    879.7528    929.0635 300.1751216 +22.8988147     347.4485     70.28185      1.186     2.89    -5.304095      19.8236     65.83782         8     0.852     0.704  -0.91   0
        36    731.0108    927.8063 300.1291885 +22.8538329     430.4929     70.13856      1.231     2.59    -5.306579      19.8236     59.36479         7     0.713     0.640 -11.34   0
        37    443.8243    924.5742 300.0408499 +22.7667152      2394.41     70.22815      1.097     1.87    -5.144855      19.8236     424.0797        20     0.964     0.858 -33.27   0
        38    742.5000    924.8883 300.1337172 +22.8564429     397.9511     70.42484      1.246     2.55    -5.326905      19.8236      58.7326         8     0.839     0.631  31.96   0
        39    168.6977    910.4534 299.9599160 +22.6800514     503.9317     70.35338      1.281     5.12    -4.049007      19.8236     75.63175        10     1.252     0.711 -41.79   0
        40     85.7867    912.5107 299.9334911 +22.6557355      145.458     70.21024      1.246     4.25     -4.66073      19.8236     28.49738         6     1.056     0.487  -6.83   0
        41    146.1901    907.3741 299.9539259 +22.6724085     1027.696     70.26395      1.141     2.16    -4.167401      19.8236     154.0237        11     0.851     0.677  75.33   0
        42     20.7620    897.0971 299.9183166 +22.6317848     36.88711     70.26395      1.008     3.70     -5.12275      19.8236      43.2642         6     0.855     0.617 -56.47   0
        43   1017.8352    896.0602 300.2289165 +22.9307515     1099.155     70.28185      1.033     1.63    -5.219638      19.8236     291.3507        10     0.731     0.689 -31.92   0
        44    972.1069    894.5707 300.2151423 +22.9166122     1242.722     70.19233      1.066     1.86    -5.199612      19.8236     242.6264        15     0.869     0.810   5.99   0
        45    178.1702    888.8185 299.9699022 +22.6766970     226.1137     70.26395      1.019     3.50    -4.252059      19.8236     39.61701         6     0.752     0.568 -50.80   0
        46    755.6812    888.4749 300.1496790 +22.8499501     360.3283     70.37125      0.915     1.98    -5.267915      19.8236      72.7563         5     0.671     0.429 -29.61   0
        47    623.7106    882.5096 300.1105245 +22.8086432     2785.437     70.42484      1.124     2.04     -4.97041      19.8236     434.3575        18     0.953     0.836   1.20   0
        48    425.9181    879.6854 300.0498944 +22.7484695     419.4126     70.40698      1.309     2.15    -5.148127      19.8236      72.7552         9     0.841     0.644 -73.64   0
        49    174.0307    876.6565 299.9725751 +22.6719686      738.164     70.28185      1.176     2.42     -4.32561      19.8236     116.5338        10     0.929     0.672 -75.66   0
        50    644.3051    875.0369 300.1193689 +22.8126792     253.7386     70.26395      0.968     2.29    -5.041371      19.8236     78.84885         6     0.802     0.471 -55.10   0
        51    799.7505    862.2459 300.1719468 +22.8556434     2520.991     70.28185      1.126     1.89    -5.131071      19.8236     446.8668        19     0.956     0.825 -87.02   0
        52   1016.8434    862.2633 300.2396106 +22.9207513      683.736     70.26395      1.140     1.85    -5.238499      19.8236     139.2425        12     0.827     0.769 -66.88   0
        53    208.0297    856.5229 299.9896930 +22.6764092     285.5443     70.24605      1.102     4.32    -4.436563      19.8236     40.21595         6     0.818     0.651 -20.55   0
        54    516.8246    854.8466 300.0862620 +22.7686327     341.6984     70.28185      1.207     2.80     -5.05157      19.8236     59.98389         9     0.968     0.678 -52.62   0
        55    163.1644    852.7519 299.9769799 +22.6618546     581.5986     70.28185      1.276     2.68     -4.41467      19.8236     98.08141        10     0.954     0.642  61.04   0
        56    312.8882    845.0637 300.0260152 +22.7046105     31002.22     70.37125      1.260     2.06    -4.796662      19.8236     5211.705        59     1.133     1.063  81.64   0
        57    578.3904    848.1207 300.1076115 +22.7851795     307.6149     70.22815      1.203     2.58    -4.895641      19.8236     55.47674         5     0.698     0.472  75.95   0
        58    570.7139    843.9083 300.1065933 +22.7816676     953.1445     70.42484      1.199     2.04    -4.886421      19.8236     163.0075        13     0.892     0.765  56.61   0
        59    983.4886    842.9174 300.2355073 +22.9051966     528.3128     70.37125      1.244     2.49    -5.169029      19.8236     87.42923        10     0.917     0.703 -79.28   0
        60    599.7826    839.8643 300.1169577 +22.7892302      481.218     70.24605      1.220     4.18    -4.775623      19.8236     62.80898         9     0.940     0.623 -65.48   0
        61    610.5881    838.4333 300.1207872 +22.7920620     341.7413     70.24606      1.230     2.60    -4.747879      19.8236     55.93012         8     0.859     0.638  85.53   0
        62    753.5662    824.9235 300.1697079 +22.8310800     514.4434     70.26395      1.197     2.94    -4.985314      19.8236     89.02014         9     0.994     0.684 -77.41   0
        63    362.5370    822.2890 300.0488649 +22.7129862     18480.09     70.35338      1.229     2.20    -4.794147      19.8236     2645.581        47     1.144     1.041  73.36   0
        64    376.8600    822.8135 300.0531482 +22.7174362     1275.869     70.22815      1.280     2.32    -4.800203      19.8236      180.019        14     0.925     0.799  36.31   0
        65    885.5558    817.9594 300.2131011 +22.8686668     1565.891      70.3355      1.108     1.99     -4.73229      19.8236      276.917        16     0.936     0.822 -55.57   0
        66    244.9469    814.1027 300.0149722 +22.6753359     364.9686     70.35338      1.260     2.66    -4.472505      19.8236     75.08083        10     0.868     0.752 -61.26   0
        67    643.4602    813.8104 300.1390354 +22.7948608     615.0189     70.22815      1.288     2.95    -4.789471      19.8236     90.67424        12     0.989     0.796 -53.05   0
        68    490.5942    809.1313 300.0929795 +22.7476493     433.6628     70.22815      1.182     2.69     -4.64003      19.8236     82.52106         9     0.813     0.768 -61.87   0
        69     49.7173    809.8725 299.9556968 +22.6154936     223.6016     70.38912      1.249     3.74    -4.950118      19.8236     56.60668         5     0.863     0.465  42.13   0
        70    891.6575    805.6796 300.2189997 +22.8669715     251.7357     70.29974      1.066     2.37     -4.63401      19.8236     58.67148         5     0.683     0.470  82.35   0
        71     77.2688    804.6367 299.9659569 +22.6222687     797.1301     70.24605      0.663     3.16    -4.827353      19.8236     519.8188         5     0.902     0.322 -57.61   0
        72    869.2240    800.1649 300.2138026 +22.8586614     146.4331     70.28185      1.152     3.47    -4.592467      19.8236     45.18818         6     0.882     0.482  58.61   0
        73    535.5053    787.0283 300.1141476 +22.7547867     300.3683     70.17441      1.197     2.77    -4.549369      19.8236     50.13685         8     0.798     0.674 -10.10   0
        74    557.5755    784.2783 300.1219112 +22.7606201     806.2079     70.24605      1.268     2.53    -4.532064      19.8236      108.617        13     0.933     0.801 -79.53   0
        75    477.5853    784.1372 300.0970658 +22.7365766      236.539     70.22815      1.336     3.55    -4.532586      19.8236     40.59035         5     1.065     0.488  86.02   0
        76    951.8317    783.1865 300.2450782 +22.8785562     2666.015     70.24605      1.140     1.86    -4.743457      19.8236     501.3574        19     0.911     0.843 -66.78   0
        77    940.2494    774.6946 300.2442308 +22.8726456      1004.78     70.31762      1.180     2.11     -4.64469      19.8236      171.708        14     0.893     0.827 -84.73   0
        78    303.3974    768.8830 300.0478561 +22.6799203     466.5721     70.17441      1.332     2.40    -4.442316      19.8236     81.56864         8     0.814     0.646  48.20   0
        79    766.5065    766.0149 300.1929105 +22.8180551     1464.979     70.19233      1.252     2.18    -4.682063      19.8236     219.0943        14     0.946     0.797  17.62   0
        80    971.4303    764.6740 300.2572132 +22.8791163     1062.248     70.28185      1.072     1.96     -4.75399      19.8236      172.551        12     0.817     0.711  50.74   0
        81    151.9370    752.7526 300.0060329 +22.6298227     218.0555     70.28185      1.154     2.90    -4.463271      19.8236     58.95089         8     0.860     0.644 -49.87   0
        82    849.1132    751.6407 300.2233261 +22.8387014     378.6072     70.24605      1.312     2.67    -4.595996      19.8236     49.51727         5     0.760     0.405 -23.57   0
        83    885.1376    742.8672 300.2374081 +22.8469842     86102.45     70.31762      1.239     2.05    -4.585347      19.8236     14610.22       104     1.203     1.135  76.60   0
        84    737.7647    743.1221 300.1914064 +22.8028646     378.8269     70.22815      1.014     1.87    -4.639584      19.8236     81.93652         8     0.720     0.640  50.55   0
        85    571.5235    731.9659 300.1432739 +22.7497970     974.4355     70.26395      1.333     2.28    -4.398054      19.8236     146.5851        16     1.040     0.836 -75.33   0
        86    752.6074    729.0159 300.2006194 +22.8032673     5525.989     70.19233      1.253     2.19    -4.604578      19.8236     832.5433        29     1.059     0.991  82.66   0
        87    254.2538    724.3828 300.0470576 +22.6524086      2856.83     70.24605      1.271     2.39    -4.411299      19.8236     353.2865        22     1.043     0.957  87.63   0
        88    336.1440    722.4406 300.0731473 +22.6764326     801.0631     70.24605      1.294     2.62    -4.381332      19.8236     92.98259        12     0.949     0.746  89.60   0
        89    544.6238    717.7195 300.1395365 +22.7376393     448.5156     70.22815      1.280     3.15    -4.303241      19.8236     57.70002        11     0.956     0.746 -80.48   0
        90    536.2007    709.9391 300.1394463 +22.7328800     1978.142     70.22815      1.346     2.58    -4.278162      19.8236     237.9257        20     1.048     0.978  84.71   0
        91    526.3827    703.5832 300.1384585 +22.7281109     888.1394     70.22815      1.467     2.87    -4.259457      19.8236      106.526        15     0.978     0.901  65.36   0
        92    919.9108    701.1233 300.2618287 +22.8454234     184.1503     70.40698      1.059     3.39    -4.215902      19.8236     49.82757         5     0.975     0.350 -55.35   0
        93    189.7048    700.2597 300.0348442 +22.6261143     357.3673      70.3355      1.138     2.86    -4.450006      19.8236     53.09328         8     0.833     0.664  10.51   0
        94    204.1813    698.2302 300.0400029 +22.6298785     439.0966     70.26395      1.553     4.21    -4.466118      19.8236     47.12563         8     1.088     0.727 -72.41   0
        95    973.3588    694.7130 300.2805775 +22.8596041     275.1552     70.24605      1.253     2.35    -4.122039      19.8236     54.80909         5     0.669     0.477 -84.10   0
        96    229.5937    695.2067 300.0488839 +22.6366404     411.0905     70.12063      1.340     3.43    -4.485487      19.8236     50.88592         9     0.896     0.680  17.72   0
        97    451.2252    693.4483 300.1183705 +22.7026532     976.4642     70.26395      1.309     2.50    -4.255343      19.8236     118.2706        16     0.947     0.945 -43.13   0
        98    105.2467    688.6585 300.0123784 +22.5974310     11498.16     70.31762      1.245     2.30    -4.474417      19.8236     1540.211        37     1.107     1.025  81.78   0
        99     26.1098    690.4374 299.9872225 +22.5741774     360.5161     70.24605      1.138     2.27    -4.133777      19.8236     63.71464         7     0.813     0.556  79.35   0
       100    535.8502    688.8915 300.1461840 +22.7267360     618.1014     70.28185      1.308     2.68    -4.194844      19.8236     82.31107         9     0.812     0.710 -17.11   0
       101    953.8117    674.7237 300.2809855 +22.8480043     491.3954     70.28185      1.167     2.55    -3.917944      19.8236     91.25871         9     0.790     0.766   4.13   0
       102     51.0701    672.8354 300.0006983 +22.5766278     991.6191     70.26395      1.727     5.99    -4.112076      19.8236      71.6666        17     1.477     0.807 -86.21   0
       103    820.9163    672.6708 300.2402312 +22.8075754     200.2791     70.38912      1.138     2.86    -4.428234      19.8236     45.86909         6     0.747     0.596 -59.38   0
       104    117.5610    673.1822 300.0212372 +22.5966920     159.4402     70.28185      1.240     3.47    -4.422427      19.8236     32.60671         5     0.769     0.452 -70.79   0
       105    500.0112    669.6136 300.1413019 +22.7104529     183.3888     70.17441      1.079     3.91    -4.121929      19.8236     38.60823         6     0.986     0.445  12.99   0
       106    894.5280    667.4073 300.2648843 +22.8281326      436.663     70.22815      1.228     2.95     -4.01747      19.8236     59.66404         9     0.934     0.677  34.22   0
       107    456.1772    661.4133 300.1303309 +22.6949490     438.2894     70.24605      1.602     4.58    -4.114352      19.8236     50.19021         9     0.943     0.713 -80.95   0
       108    651.7341    659.1031 300.1919467 +22.7529483     301.8357     70.37125      1.375     3.70    -4.204552      19.8236     42.34649         6     1.256     0.314 -75.18   0
       109    621.8040    658.2337 300.1829108 +22.7437220     235.6445     70.26395      1.228     4.62    -4.069459      19.8236     55.73459         8     1.178     0.514 -30.34   0
       110    500.6047    657.5339 300.1454155 +22.7071651     526.0972     70.26395      1.384     3.80    -4.084546      19.8236     62.92481        11     1.053     0.796 -33.89   0
       111    933.9678    652.8165 300.2819247 +22.8357648     1982.118     70.24605      1.231     2.19    -3.900733      19.8236     302.6937        19     0.946     0.900 -18.48   0
       112    466.0092    652.9245 300.1361507 +22.6954635      1034.97     70.24605      1.432     2.98    -4.072723      19.8236      104.105        14     1.029     0.837  89.42   0
       113     27.9949    646.8929 300.0019695 +22.5622630     2901.629     70.15649      1.303     2.34    -3.972702      19.8236     412.1638        25     1.126     0.951  83.65   0
       114    329.4048    639.8120 300.0979279 +22.6507124     5339.609     70.13856      1.388     2.55    -4.215394      19.8236     681.2587        33     1.202     1.066 -79.12   0
       115    451.7785    636.8755 300.1369428 +22.6865895     5167.612     70.24605      1.395     2.65    -4.018253      19.8236     629.5475        26     1.118     1.025  61.14   0
       116    863.4792    630.6808 300.2671524 +22.8082787     1157.154     70.38912      1.304     2.37     -3.99081      19.8236     149.4629        15     0.960     0.846   3.85   0
       117    947.9672    627.9050 300.2943915 +22.8328060     7141.818     70.24605      1.266     2.14    -3.867664      19.8236     1144.724        30     1.058     0.972 -88.15   0
       118    512.3051    626.4504 300.1591654 +22.7017563     6577.339      70.3355      1.392     2.62    -3.996925      19.8236      749.009        33     1.129     1.102 -13.54   0
       119    239.9036    622.1347 300.0758530 +22.6187817     723.6543     70.37125      1.427     2.63    -4.201425      19.8236     108.8352        12     0.898     0.857  14.08   0
       120    682.0454    621.6947 300.2135516 +22.7513011     315.4759     70.28185      1.370     4.12    -4.001704      19.8236     41.44622         6     0.925     0.525  88.63   0
       121    486.4377    619.2402 300.1534611 +22.6919276     209.7544      70.3355      1.260     3.39    -3.943615      19.8236     37.64784         5     0.809     0.412  66.65   0
       122    444.0432    614.5792 300.1417871 +22.6778718     2534.275     70.29974      1.434     2.70    -3.927294      19.8236     274.9641        28     1.154     1.093  54.25   0
       123    786.8965    614.3672 300.2485941 +22.7806359     535.3737     70.24605      1.460     2.98    -3.955664      19.8236     58.87855         9     0.847     0.748 -80.27   0
       124    422.2435    613.1503 300.1354704 +22.6709215      665.467     70.29974      1.373     3.04    -3.920385      19.8236     75.08258        11     0.897     0.809  44.36   0
       125    176.7398    612.6955 300.0592931 +22.5971160     381.7874      70.3355      1.353     3.14    -4.004255      19.8236     52.19913         7     0.943     0.634  69.83   0
       126    863.8096    609.8237 300.2740384 +22.8023882     791.4712     70.26395      1.345     3.12    -3.911423      19.8236     106.7883        12     0.959     0.836 -51.70   0
       127    744.6604    606.9843 300.2378372 +22.7658531     543.1299     70.22815      1.259     2.17    -3.885356      19.8236     67.25851         7     0.716     0.605  83.45   0
       128    560.6009    602.1448 300.1820996 +22.7092680     118686.4     70.19233      1.455     2.75    -3.902361      19.8236     13316.57       140     1.394     1.367  81.31   0
       129    246.8029    602.3347 300.0844357 +22.6151740     1991.605     70.28185      1.390     2.53    -4.098794      19.8236     244.3357        21     1.108     0.918  59.38   0
       130    812.0657    598.4866 300.2616003 +22.7836215     355.6364     70.35338      1.584     3.80    -3.866023      19.8236     28.80367         6     0.830     0.500  -0.55   0
       131    831.2552    595.9905 300.2683915 +22.7886572     106.7526     70.26395      1.140     4.31    -3.858516      19.8236     27.80182         5     1.037     0.509 -51.36   0
       132    451.2753    582.4953 300.1544693 +22.6708358      1589.46     70.40698      1.529     2.79    -3.746722      19.8236     165.1178        22     1.307     0.994  85.01   0
       133    862.9590    578.9225 300.2838216 +22.7932588     195.5022     70.24605      1.341     5.05    -3.794442      19.8236     32.23532         5     1.116     0.647 -86.94   0
       134    848.1279    568.4259 300.2826124 +22.7857988     943.2624     70.28185      1.323     2.95    -3.752696      19.8236     129.2372        15     1.028     0.847  68.21   0
       135    719.3076    566.1284 300.2432249 +22.7465217     1365.461     70.40698      1.359     2.88    -3.660218      19.8236     154.3991        18     1.038     0.963  67.27   0
       136    624.3030    562.8856 300.2146945 +22.7171041     360.9587     70.42484      1.520     4.27    -3.537141      19.8236     39.52619         7     1.062     0.488  26.13   0
       137    506.7632    562.1685 300.1783424 +22.6816473     489.3351     70.28185      1.509     3.55    -3.547805      19.8236     50.46352         7     0.842     0.633 -17.81   0
       138    976.1725    560.0059 300.3252653 +22.8217548       587.76     70.26395      1.180     2.37     -3.72308      19.8236     98.97389        10     0.825     0.709  81.35   0
       139    848.5342    558.8248 300.2858607 +22.7831632     1244.179     70.24605      1.472     3.56    -3.718676      19.8236     126.0076        20     1.239     0.957  65.96   0
       140    962.1940    559.1931 300.3211710 +22.8173325     542.5181     70.12063      1.215     2.49    -3.729706      19.8236     61.41178         6     0.726     0.552  36.38   0
       141    601.6244    556.6273 300.2096689 +22.7085069     149.8992     70.24605      1.199     4.75    -3.484935      19.8236       35.121         5     0.955     0.808  83.48   0
       142    886.4192    553.6498 300.2993507 +22.7930317     2400.434     70.26395      1.282     2.47    -3.710772      19.8236     312.4995        20     0.999     0.933  77.45   0
       143    760.4268    548.9338 300.2616236 +22.7539120     650.9934     70.24605      0.639     0.45    -3.642639      19.8236     352.6926         5     0.588     0.361  15.91   0
       144    978.1912    544.0390 300.3310860 +22.8177726     427.1288     70.28185      1.148     2.64    -3.703698      19.8236     68.34908         8     0.855     0.614 -83.11   0
       145    118.9409    544.4351 300.0635279 +22.5601932     487.0254     70.28185      1.264     2.54    -3.550442      19.8236     73.79285        11     0.945     0.707 -79.33   0
       146    139.0010    535.8533 300.0725495 +22.5637533     221.1064     70.22815      1.784     4.77    -3.594307      19.8236     31.98899         5     1.463     0.442  74.20   0
       147    660.1409    523.8575 300.2385409 +22.7166458     478.3983      70.3355      1.586     4.46    -3.395439      19.8236     41.71128         7     1.029     0.551 -66.49   0
       148    720.9355    516.2408 300.2599502 +22.7326854     479.7907     70.22815      1.506     4.07    -3.498492      19.8236     49.49875        11     0.987     0.820  30.07   0
       149    974.6996    516.2224 300.3390403 +22.8087347     192.6256     70.21024      1.114     3.36     -3.67048      19.8236     51.32829         7     0.809     0.625  75.16   0
       150    862.1343    508.6497 300.3064108 +22.7728279     286.7908     70.26395      1.197     3.71    -3.575111      19.8236     49.49028         9     0.900     0.772  79.27   0
       151    606.6257    507.1665 300.2273043 +22.6958081     1911.512     70.28185      1.509     3.01    -3.341107      19.8236      193.858        21     1.105     1.022 -75.67   0
       152    877.7247    512.5372 300.3100062 +22.7786169     521.5572     70.31762      1.182     2.73    -3.602036      19.8236     72.00256        11     0.914     0.745  70.59   0
       153   1017.7612    485.7167 300.3623849 +22.8128709       834.92     70.22815      1.362     3.02     -3.63489      19.8236     114.3689        14     0.972     0.897 -33.90  16
       154    889.8461    485.8951 300.3224443 +22.7745961     319.9598     70.28185      1.263     4.11    -3.563365      19.8236     41.43895         7     0.833     0.777 -58.19   0
       155    976.0833    484.4184 300.3498097 +22.8000114     545.8803     70.21024      1.326     2.76    -3.632517      19.8236     71.92174        10     0.878     0.724  51.19   0
       156    717.1779    481.2592 300.2701501 +22.7215136     761.2831     70.26395      1.561     2.84    -3.429901      19.8236     73.12527        12     0.958     0.787 -53.47   0
       157    221.2859    479.0008 300.1165964 +22.5721410     344.7791     70.17441      1.272     4.21    -3.630154      19.8236     40.95501         8     0.991     0.615 -87.76   0
       158    283.4968    475.0249 300.1372259 +22.5896662     2193.382     70.19233      1.489     2.91    -3.610491      19.8236     236.6973        23     1.156     1.025  73.97   0
       159   1016.3504    473.1044 300.3660442 +22.8088240       2350.3     70.31762      1.244     2.40    -3.627419      19.8236     327.5013        21     0.975     0.935  80.45   0
       160    230.7607    469.8699 300.1225085 +22.5723646     4381.555     70.22815      1.447     2.86    -3.623266      19.8236      512.085        28     1.150     1.071 -88.70   0
       161    996.4158    464.1037 300.3627527 +22.8002656     984.6484     70.17441      1.234     2.42    -3.625688      19.8236      131.226        14     0.884     0.854  77.67   0
       162    371.4682    464.0848 300.1681350 +22.6129177     2702.812     70.35338      1.489     2.98    -3.383413      19.8236     283.3608        24     1.154     1.064  51.26   0
       163    615.5980    460.5121 300.2452608 +22.6851037        10574     70.19233      1.553     3.19    -3.327134      19.8236      1134.58        43     1.283     1.199  79.04   0
       164    632.9318    460.1363 300.2507797 +22.6901926     397.0109     70.31762      1.843     5.51    -3.353447      19.8236     33.31964         9     1.597     0.537 -45.40   0
       165    948.8176    443.2092 300.3547013 +22.7800017     485.9557     70.21024      1.431     4.08    -3.621648      19.8236     53.05148        10     1.005     0.758 -51.75   0
       166    170.5450    441.0891 300.1131476 +22.5460403     1119.818     70.29974      1.392     2.84    -3.630305      19.8236      141.963        17     1.147     0.856  81.32   0
       167    556.2810    430.0142 300.2367064 +22.6585629     3857.748     70.24605      1.517     3.00    -2.967863      19.8236     382.1716        30     1.257     1.102  78.57   0
       168    969.9116    430.3035 300.3654723 +22.7826127     631.3591      70.4427      1.305     3.31    -3.619147      19.8236     79.44991        12     1.051     0.768  70.47   0
       169    271.2952    429.7078 300.1481585 +22.5730035     318.8263      70.4427      1.388     4.61    -3.471728      19.8236      34.0403         8     0.986     0.612  71.63   0
       170    128.6423    423.1401 300.1059604 +22.5283179     329.7101     70.24605      1.533     4.24    -3.574139      19.8236      41.9195         7     1.099     0.609  47.56   0
       171    669.9612    420.0363 300.2753407 +22.6897783     325.1685      70.3355      1.321     4.32     -3.43494      19.8236     43.22524         8     0.836     0.682  41.26   0
       172    760.3185    418.9326 300.3038429 +22.7165438     529.1895     70.37125      1.523     3.44    -3.519114      19.8236     53.92856        11     0.929     0.830  47.95   0
       173    462.9183    416.3373 300.2120968 +22.6266415     3500.043     70.37125      1.537     3.25    -2.888861      19.8236     344.8697        31     1.229     1.163 -75.74   0
       174    952.1408    410.4307 300.3663889 +22.7715783     350.5381     70.28185      1.352     3.04    -3.601227      19.8236     53.18391         7     0.842     0.606  73.52   0
       175    854.7167    410.5205 300.3359901 +22.7424153     851.3519     70.38912      1.490     3.01    -3.545419      19.8236     82.72551        13     0.941     0.870 -63.62   0
       176    350.5082    395.6909 300.1838394 +22.5870032     1415.286     70.42484      1.521     2.65    -2.970114      19.8236     186.1537        20     1.183     0.924  71.59   0
       177     68.8782    392.9347 300.0972088 +22.5017197     579.3214     70.35338      1.514     3.24    -3.570243      19.8236     79.45222        11     0.984     0.830  -4.82   0
       178    319.8485    385.1453 300.1777316 +22.5747808     17052.98     70.29974      1.526     3.00    -3.065798      19.8236     1710.166        49     1.313     1.211  86.04   0
       179    854.4608    382.5664 300.3449928 +22.7343071     768.9827     70.28185      1.445     2.75    -3.525871      19.8236     90.00932        12     0.951     0.783 -27.51   0
       180     16.1111    373.1783 300.0872392 +22.4802178     2963.058     70.19233      1.458     2.90    -3.677078      19.8236     287.6992        27     1.202     1.084  54.38   0
       181    769.6594    371.3885 300.3221999 +22.7056857     326.5424     70.22815      1.609     4.92    -3.526962      19.8236     33.57401         6     0.949     0.722  14.46   0
       182    730.1111    364.5260 300.3121092 +22.6918628     1146.396     70.42484      1.552     3.10    -3.541285      19.8236     117.8678        17     1.033     0.993 -59.03   0
       183    538.6898    360.1424 300.2539317 +22.6332273     179.5244     70.31762      1.323     4.00    -2.930376      19.8236     34.42561         5     1.105     0.462 -32.55   0
       184    944.8251    357.3573 300.3813511 +22.7541347     383.5365     70.29974      1.611     3.49    -3.470873      19.8236     41.45171         5     0.942     0.373  85.19   0
       185    392.0249    349.5283 300.2117471 +22.5862045     1260.685     70.28185      1.666     3.44    -2.906329      19.8236     103.3908        19     1.127     1.024  68.93   0
       186    831.1440    342.3900 300.3507779 +22.7157773     307.2795     70.26395      1.369     2.16    -3.502806      19.8236     52.76523         5     0.716     0.425  24.59   0
       187    468.0571    328.8665 300.2421107 +22.6030709     521.7478     70.29974      1.387     3.30    -2.916253      19.8236     65.15855        10     0.932     0.725 -85.07   0
       188    712.6290    320.4453 300.3209823 +22.6739611     1229.388     70.29974      1.553     3.62    -3.538022      19.8236     106.9637        20     1.145     1.086  84.37   0
       189    973.8669    314.6332 300.4042843 +22.7505537     1816.594     70.26395      1.389     2.63    -3.544659      19.8236     239.7743        19     1.083     0.917  75.41   0
       190    421.0666    304.3827 300.2354433 +22.5819526     261.3329     70.24605      1.336     4.46    -2.877947      19.8236     38.95726         6     0.897     0.631  38.51   0
       191     95.8293    298.9728 300.1360982 +22.4828528     826.4721     70.24605      1.640     3.77    -3.356104      19.8236     78.48476        16     1.252     0.839 -30.15   0
       192    126.5581    299.0663 300.1456139 +22.4920986     345.7571     70.24605      1.256     3.73    -3.325531      19.8236     44.23121         6     0.807     0.496  88.73   0
       193    989.2675    295.1658 300.4154095 +22.7495702     195.3257     70.26395      1.158     4.31    -3.599939      19.8236     32.73156         6     0.792     0.669 -22.30   0
       194    974.8433    287.9289 300.4132618 +22.7431700     266.9742     70.22815      1.450     4.52    -3.559064      19.8236      33.4617         6     1.004     0.693  -1.27   0
       195    784.2886    281.9167 300.3558187 +22.6843631     327.9494     70.37125      1.432     3.24    -3.493879      19.8236     53.45809         7     0.924     0.615  70.19   0
       196    882.2545    270.8240 300.3899507 +22.7105225     1117.985     70.28185      1.457     3.25    -3.319118      19.8236      128.185        19     1.167     0.920  33.65   0
       197    301.1443    268.5352 300.2097886 +22.5357023     1171.397     70.31762      1.607     3.12    -2.873087      19.8236     135.3245        21     1.262     0.974  88.60   0
       198    378.7529    263.4833 300.2355628 +22.5575234     504.2104     70.26395      1.541     4.32    -2.895963      19.8236     58.24933        10     0.956     0.822   7.15   0
       199    780.9612    262.4317 300.3611094 +22.6777673     363.6574     70.29974      1.513     4.16    -3.334652      19.8236     37.86924         6     1.015     0.486 -57.10   0
       200    695.0587    259.7361 300.3352253 +22.6512552      1791.53     70.29974      0.480     0.73    -3.292783      19.8236     1244.707         5     0.478     0.226 -81.07   0
       201    195.7549    255.7443 300.1811820 +22.5004241       329.36     70.29974      1.202     3.61    -3.149751      19.8236     46.05427         6     0.889     0.651  79.88   0
       202    733.4716    252.5380 300.3495273 +22.6606966     861.3511     70.29974      1.477     3.43    -3.261048      19.8236     93.84853        16     1.086     0.966 -61.37   0
       203     48.0298    253.1787 300.1361207 +22.4553739     215.8709     70.26395      1.240     3.89    -3.435382      19.8236     27.24545         5     0.830     0.523 -60.04   0
       204    798.1243    252.1397 300.3697989 +22.6799515     477.9893     70.31762      2.082     3.94    -3.255038      19.8236     35.31598         6     0.779     0.570  54.14   0
       205    217.4266    249.0220 300.1900998 +22.5049947     289.8334     70.24605      1.464     3.67    -3.116054      19.8236     38.85361         7     0.916     0.626  36.06   0
       206   1004.7610    244.4785 300.4367014 +22.7396381     572.5706     70.24605      1.376     3.76    -3.492753      19.8236     63.91079         9     1.025     0.737 -64.34   0
       207    737.4741    243.4399 300.3537282 +22.6592815     516.3975     70.24606      2.372     5.79    -3.183386      19.8236     40.53555        10     1.194     0.819  84.62   0
       208    658.2215    243.3558 300.3290719 +22.6355112     816.5377     70.31762      1.655     4.21    -3.117306      19.8236     74.36674        16     1.273     0.907  36.50   0
       209    853.2686    234.4724 300.3927199 +22.6913924     903.1927      70.3355      1.614     3.63    -3.097835      19.8236     78.16525        18     1.134     1.032 -88.80   0
       210    584.1740    234.8039 300.3087937 +22.6108647     618.0302     70.22815      1.867     4.77    -2.944253      19.8236     44.29099        12     1.057     1.000  49.53   0
       211    865.5793    233.5833 300.3968455 +22.6948242     507.0262     70.24606      1.640     3.82    -3.094672      19.8236     53.73018        11     1.024     0.830 -75.79   0
       212    982.1626    223.8255 300.4363598 +22.7269334     563.0355     70.28185      1.326     2.95    -3.309866      19.8236     71.44362        12     0.931     0.828 -60.52   0
       213    716.9026    223.8551 300.3536790 +22.6474908     3572.095     70.35338      0.549     0.98     -3.03865      19.8236     2131.546        10     0.500     0.466  38.64   0
       214    216.6948    217.4147 300.2001336 +22.4957034     476.8525     70.19233      1.261     2.10    -3.139033      19.8236     64.20277         5     0.677     0.455 -22.18   0
       215     78.3262    212.1625 300.1588460 +22.4526944     1310.239     70.21024      1.421     2.74    -3.184284      19.8236      138.876        21     1.167     0.969  63.12   0
       216    901.0995    208.8042 300.4159623 +22.6983399     403.6482     70.15649      1.348     3.34    -3.022856      19.8236     60.68738         8     1.001     0.603  79.24   0
       217     27.8112    208.7338 300.1442699 +22.4365566     302.9057     70.21024      1.371     4.73    -3.092169      19.8236     36.86303         8     1.122     0.670  45.03   0
       218    235.6500    205.4452 300.2099107 +22.4979522     3243.205     70.28185      1.534     2.92    -3.099322      19.8236     391.5026        27     1.275     1.030  84.28   0
       219     19.9269    200.0196 300.1446501 +22.4316911     692.7263     70.26395      1.337     3.06    -2.954584      19.8236     89.54857        12     0.963     0.816  88.45   0
       220    219.3393    196.3832 300.2077826 +22.4904597     438.8477     70.21024      1.747     4.14    -3.138455      19.8236     47.11667         7     0.877     0.695  22.31   0
       221    879.6065    186.6086 300.4164680 +22.6855227     2035.941     70.12063      1.508     2.88    -2.961527      19.8236     222.1649        24     1.155     1.106  -1.10   0
       222    983.0999    185.2899 300.4491625 +22.7161345     1600.775     70.42484      1.365     2.63    -3.314894      19.8236     186.8015        20     1.042     0.958 -64.92   0
       223    429.1387    182.3728 300.2775678 +22.5493385       245.96     70.26395      1.301     4.14    -2.873758      19.8236     35.60389         6     0.782     0.626 -40.10   0
       224    352.9950    174.0102 300.2565982 +22.5241115     403.4583     70.12063      1.511     3.84    -2.875877      19.8236     34.53053         5     0.669     0.632   0.06   0
       225    119.5836    171.4860 300.1848654 +22.4533966     539.8863     70.22815      1.827     3.21    -3.138777      19.8236     45.32193         6     0.852     0.492  87.34   0
       226    480.4157    169.1905 300.2978003 +22.5609218     976.7028     70.19233      1.735     4.12    -2.813371      19.8236     85.52068        21     1.265     1.106 -40.01   0
       227    223.7057    164.7866 300.2193952 +22.4826992     322.4859     70.19233      1.379     5.40    -3.132226      19.8236     34.89655         9     1.138     0.722  51.05   0
       228    254.5657    149.4102 300.2339781 +22.4875382     3353.096     70.24606      1.564     3.02    -3.130523      19.8236     356.9111        28     1.191     1.168  82.56   0
       229    105.6791    149.1130 300.1878067 +22.4428054     414.7565     70.40698      1.531     3.74    -3.026986      19.8236     54.10353         8     1.066     0.674 -20.85   0
       230     15.8139    139.5809 300.1629882 +22.4131156      210.037     70.22815      1.255     3.45      -2.3469      19.8236     25.19645         5     0.767     0.447  19.50   0
       231    500.5623    134.5191 300.3153222 +22.5570005     3539.099     70.22815      1.636     3.21    -2.717443      19.8236     364.0484        31     1.260     1.217 -89.48   0
       232    386.0545    134.6346 300.2796595 +22.5227145     509.7991     70.28185      1.634     4.38     -2.72507      19.8236     49.58531         7     1.004     0.698 -89.38   0
       233    753.1855    124.3238 300.3972887 +22.6297564     403.9469     70.28185      1.544     5.89    -2.756994      19.8236     42.12252        12     1.136     0.977 -66.89   0
       234    628.8458    114.4447 300.3617689 +22.5896709     3704.538     70.29974      1.652     3.34    -2.844819      19.8236     347.8486        33     1.331     1.198  73.30   0
       235    403.7859    113.5564 300.2920150 +22.5219755     849.5782     70.28185      1.543     4.08    -2.629655      19.8236     75.05221        17     1.205     0.998 -80.85   0
       236    670.0651    112.1222 300.3753581 +22.6013518     475.8216     70.35338      1.578     4.10    -2.870303      19.8236     50.51347         9     1.077     0.645   8.21   0
       237    685.5834    108.1946 300.3814655 +22.6048716      469.638     70.21024      2.033     5.07    -2.833966      19.8236      43.0305         8     1.325     0.586   3.30   0
       238    152.5495    106.1715 300.2163034 +22.4445360     403.8019     70.28185      1.614     3.13    -3.100271      19.8236     53.57489         8     0.820     0.691  14.56   0
       239    956.2096    104.8649 300.4668806 +22.6849576     313.3065     70.24605      1.275     2.62    -2.696643      19.8236     42.41018         6     0.740     0.550 -39.78   0
       240    673.0414     99.2156 300.3804732 +22.5985342     1513.974     70.28185      1.531     3.23    -2.846475      19.8236     159.0433        22     1.170     1.055  41.96   0
       241    688.2967     98.1061 300.3855842 +22.6027850     549.0417      70.4427      2.158     4.81    -2.806706      19.8236     34.29764         7     1.048     0.627 -69.60   0
       242    759.5628     90.9510 300.4101052 +22.6220738     738.1022     70.26395      1.374     2.92    -2.592837      19.8236     98.19588        13     0.974     0.843  -4.23   0
       243    697.7630     83.8701 300.3931518 +22.6015289     403.7119     70.24605      1.537     4.55    -2.607177      19.8236     37.65233         8     0.946     0.621 -81.60   0
       244    503.2771     83.6950 300.3326592 +22.5432136     555.5503     70.37125      1.449     4.13     -2.60781      19.8236     58.58149        12     1.141     0.785 -75.72   0
       245     75.2028     83.5169 300.1996243 +22.4148386     289.3733     70.19233      1.860     2.86     -2.55672      19.8236     37.30782         5     0.791     0.674  65.79   0
       246    406.9984     82.0422 300.3032398 +22.5138868     351.8778     70.26395      1.370     4.49    -2.548263      19.8236     48.06666         8     0.924     0.704 -79.58   0
       247    789.5659     80.2056 300.4229397 +22.6279703     286.2586     70.26395      1.565     3.41     -2.54824      19.8236     31.66324         5     0.795     0.424 -67.60   0
       248    702.7458     78.2094 300.3965405 +22.6013944     172.7707     70.26395      1.167     4.60    -2.518918      19.8236     32.26807         5     0.856     0.702  16.58   0
       249    178.4246     71.9378 300.2354510 +22.4424669     2147.341     70.26395      1.531     2.96    -2.992498      19.8236     227.6173        27     1.212     1.146  24.86   0
       250    746.2525     72.1400 300.4120621 +22.6126803     351.8401     70.31762      1.534     4.48    -2.412663      19.8236     37.93817         7     1.019     0.559  24.76   0
       251    739.4900     63.7657 300.4126724 +22.6082478     468.7181     70.24605      1.389     5.29    -2.303143      19.8236     48.20268        10     0.926     0.854  73.27   0
       252    294.4326     63.9610 300.2740988 +22.4749547     602.0247     70.29974      1.442     3.09    -2.809022      19.8236     84.21167        12     1.120     0.750 -32.63   0
       253    777.3459     58.8431 300.4260634 +22.6181696     410.2272     70.28185      1.535     4.93    -2.439939      19.8236     38.98327         9     0.954     0.721  16.12   0
       254    797.4028     55.2231 300.4334872 +22.6231350     1175.632     70.21024      1.419     2.98    -2.538789      19.8236     129.0234        18     1.185     0.938  16.37   0
       255    180.7972     51.1477 300.2429329 +22.4372094     572.9424     70.26395      1.572     3.90    -2.874515      19.8236     71.43208        11     1.106     0.764 -28.10   0
       256    972.2249     48.2695 300.4902380 +22.6734758     406.3024     70.26395      1.256     3.87    -2.632443      19.8236     50.03811         6     0.772     0.556  50.17   0
       257    745.8674     47.7258 300.4198630 +22.6055468     563.3958      70.3355      1.585     3.54      -2.1718      19.8236     61.32671        11     0.955     0.817  40.48   0
       258    598.4458     32.9670 300.3787394 +22.5571499     488.4317     70.29974      1.366     3.08    -2.654488      19.8236     63.44853         8     0.860     0.652  44.11   0
       259    207.8428     30.5253 300.2580278 +22.4393965     308.0913     70.24605      1.361     4.40    -2.736853      19.8236     36.08182         6     0.951     0.578 -68.99   0
       260     67.5943     30.9416 300.2143164 +22.3974659     4174.484     70.22815      0.656     1.08    -2.208097      19.8236     1903.269         9     0.542     0.439  -4.41   0
       261    761.4744     27.9406 300.4311437 +22.6045327     404.1129     70.29974      1.465     3.34    -2.132258      19.8236     44.65197         8     0.814     0.715  39.99   0
       262    570.1501     25.8745 300.3722314 +22.5466354     1162.988     70.26395      1.787     3.44    -2.705712      19.8236     102.0044        23     1.306     1.062  42.66   0
       263      7.6572     22.2536 300.1985197 +22.3769981     264.1248     70.31762      1.112     3.43   -0.9702263      19.8236     48.23094         5     0.743     0.458 -77.65   0
       264    527.3951     19.7514 300.3609095 +22.5320674     898.8184     70.24605      1.590     3.55    -2.735821      19.8236     82.86374        15     1.063     0.942 -10.88   0
       265    172.5682   1019.2017 299.9257064 +22.7123712     916.0167     70.22815      5.356     6.98     8.306775      19.8236     31.08016         8     1.473     0.928 -29.01  16
       266    228.3750     15.7674 300.2691965 +22.4413137     247.1621     70.26395      1.176     3.39     -2.61692      19.8236     35.45898         5     0.744     0.448 -71.91   0
       267    250.9386   1015.9283 299.9511256 +22.7349761     387.7308     70.29974      1.121     2.38    -0.232226      19.8236     65.77894         7     0.819     0.536  42.85   0
