#   1 NUMBER                 Running object number                                     
#   2 X_IMAGE                Object position along x                                    [pixel]
#   3 Y_IMAGE                Object position along y                                    [pixel]
#   4 ALPHA_J2000            Right ascension of barycenter (J2000)                      [deg]
#   5 DELTA_J2000            Declination of barycenter (J2000)                          [deg]
#   6 FLUX_APER              Flux vector within fixed circular aperture(s)              [count]
#   7 FLUXERR_APER           RMS error vector for aperture flux(es)                     [count]
#   8 FLUX_RADIUS            Fraction-of-light radii                                    [pixel]
#   9 FWHM_IMAGE             FWHM assuming a gaussian core                              [pixel]
#  10 BACKGROUND             Background at centroid position                            [count]
#  11 THRESHOLD              Detection threshold above background                       [count]
#  12 FLUX_MAX               Peak flux above background                                 [count]
#  13 ISOAREA_IMAGE          Isophotal area above Analysis threshold                    [pixel**2]
#  14 A_IMAGE                Profile RMS along major axis                               [pixel]
#  15 B_IMAGE                Profile RMS along minor axis                               [pixel]
#  16 THETA_IMAGE            Position angle (CCW/x)                                     [deg]
#  17 FLAGS                  Extraction flags                                          
         1    646.3809     20.1261 300.4125112 +22.5514884     1613.208     70.36623      2.132     4.67    -1.769804     19.85245     105.5205        31     1.480     1.447 -84.32   0
         2    580.5248      9.7430 300.3953787 +22.5287703     848.0873     70.40207      2.139     7.35    -2.233074     19.85245     57.15147        18     1.483     1.197  30.86  16
         3    370.0555      2.1862 300.3323531 +22.4635147     3617.475     59.27611      1.566     4.04    -2.045569     19.85245     338.1678        29     1.477     0.986  -3.30  24
         4    790.5574   1013.0399 300.1347212 +22.8798202     6384.628      70.4558      1.278     2.32    -4.402545     19.85245     870.5927        32     1.061     1.039 -14.82   0
         5    115.1766   1022.0856 299.9217296 +22.6795421     836.1636      62.6885      2.361     3.71    -1.862696     19.85245     26.74167         5     1.443     0.275 -79.23  24
         6    105.2575   1023.4030 299.9182204 +22.6769379     730.7919     56.19612      5.949     5.94    -1.833974     19.85245     31.57313        10     1.543     0.642  -9.79  25
         7     99.5582   1023.2372 299.9165046 +22.6751773     771.0223     57.17506      4.170     4.56    -1.833974     19.85245     33.30871         5     0.807     0.731  30.62  25
         8     90.7567   1023.5225 299.9136787 +22.6726132     747.9428     55.54147      4.070     5.59    -2.064928     19.85245     43.82721         8     1.751     0.503  -0.09  27
         9    981.6003   1012.7230 300.1943529 +22.9370638     227.9077     70.24066      1.042     3.36    -5.459875     19.85245     39.80903         5     0.717     0.479  78.77   0
        10    836.4310   1012.9860 300.1490282 +22.8935740     380.3993     70.36623      1.440     3.73    -4.872402     19.85245     44.17273         7     0.888     0.650  27.53   0
        11    102.4758   1004.9736 299.9233576 +22.6708233     549.1019     70.38416      1.591     2.36    -2.350975     19.85245     78.01732         6     0.740     0.598 -38.24   0
        12    799.0778    995.1063 300.1432153 +22.8772334      720.549     70.49158      1.267     2.81    -4.455917     19.85245     96.95107        11     0.917     0.781  77.92   0
        13    982.0739    993.8197 300.2006567 +22.9317812     277.2305     70.36623      1.265     3.01    -5.265019     19.85245     51.40714         8     0.940     0.574  62.06   0
        14    651.6123    992.8729 300.0980250 +22.8323236     390.7076     70.38416      1.552     4.41    -4.752633     19.85245     34.10336         5     1.139     0.485  87.50   0
        15    837.2596    988.4976 300.1572612 +22.8867975     537.7788     70.43789      1.580     4.06    -4.823571     19.85245     52.65652         8     1.006     0.656  39.81   0
        16    946.0211    985.1740 300.1922343 +22.9184825     231.9843      70.3483      1.242     3.82    -5.179323     19.85245     27.75916         5     0.831     0.503  61.77   0
        17    885.5733    979.7886 300.1751500 +22.8987983     354.9568     70.36623      1.259     2.45    -5.068608     19.85245     52.67577         7     0.749     0.623 -67.16   0
        18    736.8708    978.7572 300.1291655 +22.8538710     282.9506     70.33038      1.223     3.96    -4.473679     19.85245     53.46721         8     0.997     0.720 -42.21   0
        19    449.6821    975.4412 300.0408723 +22.7666859     2370.416     70.33038      1.452     2.76    -5.149735     19.85245     274.0081        26     1.198     1.048  15.59   0
        20    748.3900    975.7614 300.1337281 +22.8564695     266.6222     70.36623      1.209     3.63    -4.484048     19.85245      43.4006         7     0.909     0.545 -35.49   0
        21    493.0895    962.9703 300.0584339 +22.7761478     122.5594     70.33038      1.091     3.80    -5.029418     19.85245     35.92155         5     1.021     0.405 -29.69   0
        22    175.1529    961.5126 299.9600794 +22.6802165     319.0128      70.3483      1.370     3.46    -3.646873     19.85245     49.07415        10     0.900     0.840  42.53   0
        23    152.3232    958.4701 299.9539787 +22.6724841     955.5873     70.47369      1.359     2.69    -3.700923     19.85245     109.5801        14     0.926     0.887  16.85   0
        24   1023.3514    946.9275 300.2287946 +22.9307069     1050.544     56.53175      1.098     2.60    -4.739756     19.85245      181.529        11     0.995     0.635 -61.86  24
        25    977.8127    945.2935 300.2151296 +22.9165762     1231.131      70.2945      1.254     2.17    -4.766898     19.85245     193.2737        15     0.972     0.838  63.86   0
        26    761.6478    939.6061 300.1496287 +22.8500776     489.5724      70.3483      1.539     3.37    -4.562634     19.85245       46.624         7     0.814     0.671 -73.30   0
        27    629.5947    933.5228 300.1104956 +22.8086926     2890.034     70.27656      1.488     2.91    -4.613811     19.85245     311.1266        26     1.119     1.099 -30.91   0
        28    432.2394    930.7238 300.0500062 +22.7486281     116.6065     70.33038      1.167     3.63    -4.681569     19.85245     45.34061         5     0.928     0.419  84.44   0
        29    179.9775    927.6453 299.9726030 +22.6719631     849.0889     70.40207      1.428     3.30    -4.595674     19.85245     94.26665        14     1.079     0.879 -87.15   0
        30    650.0214    925.9382 300.1193228 +22.8126496     482.8374     70.33038      1.372     3.69    -4.557178     19.85245     61.18386         9     1.042     0.678  -8.33   0
        31    198.8000    925.0131 299.9793070 +22.6768647     389.4941     70.18678      1.666     3.13    -4.658204     19.85245     32.74384         5     0.798     0.488 -32.69   0
        32   1022.4047    913.1379 300.2395003 +22.9207238     638.3657     61.28462      1.246     2.64     -4.55034     19.85245     86.83855        12     0.918     0.808  -3.22  24
        33    805.4661    913.0428 300.1719242 +22.8556075      2426.46      70.3483      1.400     2.64    -4.675196     19.85245     275.1511        23     1.139     0.997  -9.54   0
        34    522.3276    905.3825 300.0862767 +22.7684163     362.5384     70.36623      1.541     4.34    -4.636317     19.85245     41.16212         8     0.968     0.649   0.12   0
        35    169.3881    903.9323 299.9770321 +22.6619868     593.9572     70.36623      1.301     3.06     -4.63157     19.85245      75.7297        12     0.954     0.838 -66.97   0
        36    318.7410    896.0937 300.0259912 +22.7046108     30545.03     70.41998      1.500     2.84    -4.705426     19.85245     3371.599        70     1.308     1.287  71.27   0
        37    584.5080    898.9492 300.1077182 +22.7852410     291.7573     70.41998      1.328     3.75    -4.627833     19.85245     29.59357         6     0.808     0.500  88.72   0
        38    576.5955    894.6346 300.1066603 +22.7816280     849.6309     70.36623      1.498     3.29    -4.631338     19.85245     98.68702        15     1.050     0.951  36.06   0
        39    989.1816    893.7577 300.2354514 +22.9051948     476.6532     70.38416      1.228     3.54    -4.584922     19.85245     64.45194         8     0.869     0.633  39.97   0
        40      5.0075    891.0230 299.9301915 +22.6088885     478.2665     69.79034      1.380     3.48    -4.531471     19.85245      57.8422        11     1.035     0.686  89.51  16
        41    605.1285    890.7155 300.1168155 +22.7890702     434.8207     70.47369      1.534     4.37    -4.634842     19.85245     54.65961        10     1.046     0.831  -4.60   0
        42    616.2301    889.6407 300.1206204 +22.7920947     340.6323     70.38416      1.525     3.82     -4.63243     19.85245     54.06095         8     1.005     0.617 -12.72   0
        43    368.4468    873.2765 300.0488692 +22.7130000     17816.11     70.36623      1.552     2.95    -4.607378     19.85245     1811.672        56     1.306     1.262  57.94   0
        44    759.1598    875.7130 300.1696526 +22.8310003     464.0475      70.3483      1.465     4.49    -4.717453     19.85245     43.64865         8     0.837     0.684  37.91   0
        45    382.6800    873.7452 300.0531419 +22.7174091     1142.056     70.40207      1.527     3.40    -4.606675     19.85245     122.7976        18     1.179     0.918  31.65   0
        46    891.4204    868.7748 300.2131131 +22.8686959     1404.071     70.36623      1.318     2.78    -4.604879     19.85245      173.104        17     1.019     0.941  28.23   0
        47    378.6422    867.5131 300.0539147 +22.7144098      443.436     70.36623      1.857     4.49    -4.596042     19.85245     39.68175         8     1.152     0.497   3.10   0
        48    251.0056    865.2780 300.0149693 +22.6754311     496.4878     70.27656      1.435     3.82    -4.734185     19.85245      58.9151        12     1.069     0.834  59.66   0
        49    649.5360    864.5075 300.1391675 +22.7948835     489.7289     70.47369      1.581     3.49    -4.657621     19.85245     52.28241        10     0.967     0.758 -44.74   0
        50    496.4863    860.0718 300.0929851 +22.7476641     426.6181     70.49158      1.422     4.42    -4.651001     19.85245     50.47435        11     1.083     0.753 -67.45   0
        51     55.3317    860.5282 299.9557378 +22.6152775     365.7521     70.41998      1.409     5.41    -4.491265     19.85245     48.13998         9     1.183     0.700 -81.77   0
        52    897.7274    856.4095 300.2191031 +22.8670391     318.0284     70.36623      1.283     3.40    -4.571215     19.85245     30.19592         5     0.734     0.455 -18.95   0
        53     84.0569    854.5067 299.9666162 +22.6221845     320.3707     70.41998      1.485     3.72    -4.506691     19.85245     28.41892         6     0.797     0.500  -1.35   0
        54    248.3272    849.3541 300.0193190 +22.6700626     282.5061     70.36623      1.348     4.93    -4.566976     19.85245     42.99757         7     1.162     0.748  81.24   0
        55    541.8657    837.6093 300.1144130 +22.7548467      398.521     70.33038      1.659     3.51    -4.592588     19.85245     47.07342         6     1.017     0.438  62.12   0
        56    563.2284    835.2323 300.1218335 +22.7605782     721.0997     70.36623      1.603     4.44    -4.604719     19.85245     59.71921        17     1.208     1.034   7.53   0
        57    957.7275    833.9310 300.2451186 +22.8785859     2596.325     70.43789      1.362     2.79    -4.540205     19.85245     297.5522        24     1.123     1.013   0.63   0
        58    946.1874    825.4167 300.2442923 +22.8726802     890.9054     70.31245      1.300     2.76    -4.510401     19.85245     103.3082        14     0.927     0.842  79.00   0
        59    309.1913    820.0511 300.0477693 +22.6799448     547.6664     70.36623      1.519     3.96    -4.358677     19.85245     63.90012        13     1.148     0.880 -51.80   0
        60    772.5184    816.8740 300.1929618 +22.8181257     1497.816     70.47369      1.725     3.66    -4.580798     19.85245     134.8724        21     1.246     1.047   5.41   0
        61    977.3686    815.4403 300.2572584 +22.8791689     960.2393     70.40207      1.345     3.07    -4.549247     19.85245     110.2266        14     1.003     0.858 -24.77   0
        62    854.9512    803.1498 300.2231063 +22.8389194     286.3419     70.40207      1.396     4.57    -4.411975     19.85245       41.546         6     1.005     0.591 -63.30   0
        63    158.2380    803.7949 300.0061544 +22.6299416     342.8197     70.38416      1.245     2.91    -4.510968     19.85245     50.22596         5     0.852     0.422 -44.04   0
        64    890.8914    793.6371 300.2374002 +22.8469706     84123.05     70.33038      1.509     2.99    -4.380032     19.85245     7490.251       116     1.378     1.356  83.59   0
        65    743.5990    793.8105 300.1914597 +22.8028298     580.2086     70.18678      3.294     4.82    -4.581541     19.85245     38.63635        10     1.142     0.827 -48.36   0
        66    923.5875    786.0489 300.2500586 +22.8545999      279.328     70.40207      1.370     5.12    -4.354152     19.85245     31.93436         8     1.160     0.640  18.67   0
        67    577.1851    782.7910 300.1432398 +22.7497253     1040.123     70.27656      1.699     4.21    -4.412968     19.85245     85.39404        20     1.338     0.971   7.06   0
        68    758.3785    779.8658 300.2005995 +22.8032627     5401.689      70.3483      1.592     3.30    -4.450877     19.85245       455.02        38     1.292     1.227   9.61   0
        69    260.1820    775.4411 300.0470513 +22.6524368     2803.061     70.38416      1.603     3.23    -4.065348     19.85245     271.4176        28     1.223     1.178  22.09   0
        70    342.4960    773.5134 300.0732627 +22.6766046     640.0256     70.54523      1.446     3.43    -4.300914     19.85245      66.4991        12     0.941     0.851  82.48   0
        71    550.5934    768.9188 300.1394783 +22.7377641     500.5324      70.2945      1.671     5.13    -4.365255     19.85245     53.60916        11     1.358     0.631 -11.03   0
        72    541.8282    760.9537 300.1393422 +22.7328482     1902.107     70.40207      1.674     3.71    -4.347467     19.85245     168.4338        26     1.366     1.149  -6.87   0
        73    531.9461    754.8376 300.1382571 +22.7281275     830.8292     70.36623      1.675     5.59    -4.294161     19.85245     78.31866        16     1.303     0.971 -24.13   0
        74    925.3723    751.9813 300.2616986 +22.8453547     287.6596     70.36623      1.547     4.45    -4.192865     19.85245     31.11805         5     1.370     0.411  78.77   0
        75    195.3149    751.0289 300.0348373 +22.6259556     331.1713     70.36623      1.371     3.65    -4.207763     19.85245     39.93809         5     1.014     0.510  49.94   0
        76    210.0619    750.0079 300.0397510 +22.6300924     238.0177     70.31245      1.217     4.10    -4.135942     19.85245     35.47223         7     0.915     0.524 -45.34   0
        77    235.5284    746.7347 300.0487283 +22.6368030     220.5668     70.40207      1.577     5.13    -4.065348     19.85245     30.46249         5     1.049     0.708   8.09   0
        78    457.2383    744.4138 300.1184078 +22.7027112     1091.238     70.38416      1.814     5.11    -4.142935     19.85245     92.91368        23     1.472     1.166 -71.46   0
        79    978.5148    744.9850 300.2805393 +22.8592838     280.1111     70.33038      1.421     4.24    -4.244473     19.85245     34.37906         5     0.756     0.679  -3.77   0
        80    556.4439    745.1350 300.1490358 +22.7326974     275.4095      70.3483      1.509     4.95    -4.216073     19.85245     34.24938         6     0.943     0.736  -9.04   0
        81    111.0806    739.6981 300.0123585 +22.5974050     11051.75     70.49158      1.534     2.92    -4.149959     19.85245     1215.077        47     1.327     1.203  73.96   0
        82     32.2767    741.5532 299.9872864 +22.5742613     448.1767     70.36623      1.477     2.62    -3.976483     19.85245      58.8439         7     0.834     0.601 -74.10   0
        83    541.8000    739.6838 300.1462525 +22.7267382     712.7231     70.24066      2.015     5.40    -4.265675     19.85245     59.07288        15     1.236     1.061 -46.11   0
        84    959.7654    725.6334 300.2809897 +22.8481044     514.0676     70.43789      1.452     4.85    -4.100677     19.85245     59.13074         9     0.857     0.812  83.11   0
        85     57.4649    723.6237 300.0009378 +22.5766910     689.5784      70.3483      1.628     4.29    -4.007899     19.85245     61.48751        15     1.370     0.750 -77.77   0
        86    825.9869    723.6475 300.2399471 +22.8074101     234.4492     70.38416      1.476     3.85    -4.228032     19.85245     28.41399         5     0.889     0.477  -1.15   0
        87    298.1895    719.9324 300.0769191 +22.6479366     260.6074     70.36623      1.878     4.37    -4.057367     19.85245      27.2395         5     1.035     0.524 -55.02   0
        88    899.8337    718.2240 300.2647207 +22.8280032     419.8144     70.38416      1.641     4.92    -4.002899     19.85245      42.8142         7     0.853     0.802 -86.33   0
        89    609.0205    711.5803 300.1763120 +22.7388498     303.4053     70.36623      1.870     5.01    -3.614511     19.85245     25.93632         5     1.440     0.493  -0.49   0
        90    506.2831    708.1954 300.1454443 +22.7070446     545.2618      70.2945      1.704     4.50    -3.772362     19.85245     43.29774        11     1.065     0.741  45.72   0
        91    939.8636    703.5422 300.2819720 +22.8357928     1873.702     70.41998      1.576     3.49    -3.931147     19.85245     157.2871        24     1.194     1.123 -44.43   0
        92    471.6275    704.0121 300.1360243 +22.6954422     912.5772     70.36623      1.660     5.21    -3.713576     19.85245     78.89433        18     1.265     1.092   1.09   0
        93     33.7964    697.9646 300.0019340 +22.5622269     2924.203     70.36623      1.579     3.04    -3.979135     19.85245     299.4385        28     1.191     1.169  73.89   0
        94    335.1911    690.8342 300.0978840 +22.6507030      5288.03     70.36623      1.768     3.53    -4.016404     19.85245     484.2738        40     1.379     1.344 -69.18   0
        95    457.5856    687.7277 300.1369527 +22.6865560      4941.02     70.36623      1.759     3.80    -3.624483     19.85245      363.014        36     1.358     1.306  13.29   0
        96    223.0073    685.2551 300.0648327 +22.6154169     339.6505     70.36623      3.317     4.63    -4.064459     19.85245     30.40006         5     0.912     0.668  25.05   0
        97    869.0463    681.4366 300.2670920 +22.8082074     1065.399     70.40207      1.612     3.98    -3.771801     19.85245     91.14518        17     1.158     0.998 -66.26   0
        98    953.6597    678.6168 300.2943790 +22.8327724     6876.088     70.33038      1.559     3.34    -3.791675     19.85245     557.9597        34     1.225     1.181 -33.81   0
        99    518.0818    677.2554 300.1591772 +22.7017097     6734.138     70.40207      1.838     4.20    -3.434547     19.85245     478.7112        43     1.412     1.395 -41.02   0
       100    245.6627    672.8790 300.0758969 +22.6186719     722.1873      70.4558      1.623     4.25    -4.058526     19.85245     68.92059        15     1.189     0.950 -88.02   0
       101    449.8058    665.5612 300.1417413 +22.6778621     2497.839     70.40207      1.799     3.85    -3.479602     19.85245     211.4934        31     1.374     1.299   5.32   0
       102    792.6117    664.8359 300.2486781 +22.7805159     364.1864     70.36623      1.718     4.66    -3.981131     19.85245     34.61027         8     1.015     0.607 -21.12   0
       103    428.6266    663.9438 300.1356803 +22.6710408     672.7901     70.36623      1.723     4.00    -3.559625     19.85245       66.356        13     1.168     0.808  59.39   0
       104    182.5150    663.7687 300.0592391 +22.5970963     440.2446     70.36623      1.711     5.46    -3.936745     19.85245     48.04302        10     1.165     0.722   2.60   0
       105    869.4839    660.9195 300.2739007 +22.8024477      1015.31     70.50948      1.876     4.19    -3.734581     19.85245      76.4119        18     1.205     1.061  -7.81   0
       106    566.3713    652.9688 300.1821000 +22.7092333     116426.4     70.36623      1.844     4.13    -3.259898     19.85245     7781.646       159     1.640     1.603 -23.23   0
       107    749.3768    657.9650 300.2374464 +22.7655745     399.8683     70.38416      1.475     4.33    -3.760287     19.85245     41.67582         6     1.236     0.474 -31.18   0
       108    252.6971    653.1894 300.0844851 +22.6151384     1817.773     70.25861      1.633     3.31    -3.897112     19.85245     167.8653        23     1.192     1.102 -68.63   0
       109    302.4240    635.8198 300.1055872 +22.6250879     180.0784     70.36623      1.159     3.50    -3.797344     19.85245     34.29053         5     0.847     0.419 -69.10   0
       110    456.9249    633.5656 300.1543591 +22.6708202     1429.859     70.36623      1.929     4.69    -3.279284     19.85245     96.11707        26     1.437     1.258  -4.14   0
       111    853.7117    619.2311 300.2825419 +22.7857474     980.0903      70.3483      1.729     4.45    -3.802495     19.85245     75.30639        20     1.240     1.105  32.47   0
       112    725.1169    617.0235 300.2432038 +22.7465445      1354.19     70.33038      1.894     4.78    -3.550945     19.85245     99.64616        23     1.378     1.176  10.90   0
       113    512.4881    613.1392 300.1782844 +22.6816349     359.7638     70.43789      1.646     4.23    -2.950787     19.85245     32.64939         6     1.373     0.371 -75.33   0
       114    982.3312    610.9791 300.3253110 +22.8219435     720.5408     70.36623      1.536     3.40    -3.222864     19.85245      73.0838        12     0.933     0.904  40.19   0
       115    854.0789    609.1544 300.2859326 +22.7829640     1432.694     70.36623      2.010     5.93    -3.807366     19.85245     90.45004        26     1.679     1.174  68.70   0
       116    967.8250    609.7407 300.3211915 +22.8172388     563.1453     70.36623      2.031     6.04    -3.347951     19.85245     48.09035        12     1.152     0.945   0.68   0
       117    892.1312    604.4336 300.2993247 +22.7930191     2407.198     70.36623      1.715     3.80    -3.726707     19.85245     175.5883        29     1.326     1.196  40.89   0
       118    124.8947    595.4536 300.0635507 +22.5602061     533.0881     70.43789      1.661     3.44    -3.541627     19.85245     57.55669        12     0.987     0.876 -24.57   0
       119    984.0055    594.8429 300.3310792 +22.8178106     357.6277     70.38416      1.315     4.40    -3.095104     19.85245     43.77933         8     0.879     0.627  37.58   0
       120    665.6794    575.9500 300.2380501 +22.7169244     365.7132     70.38416      1.712     4.53    -3.222036     19.85245     38.13514         6     0.954     0.613 -32.37   0
       121    726.8381    567.6627 300.2597867 +22.7328902     492.4981     70.36623      2.002     4.48    -3.295268     19.85245     33.59879         5     1.139     0.500 -56.03   0
       122    980.1719    567.0189 300.3389294 +22.8086689     181.4861     70.36623      1.424     5.04    -2.937375     19.85245     28.93506         7     0.965     0.745  -2.94   0
       123    883.8842    563.1660 300.3101704 +22.7786946     584.6125     70.33038      1.791     5.99    -3.476874     19.85245     42.66223        11     1.185     0.852 -75.11   0
       124    867.8221    560.4211 300.3060575 +22.7730902     490.4014     70.36623      1.896     2.56    -3.571362     19.85245     37.92801         5     0.721     0.441 -22.84   0
       125    612.5084    557.8737 300.2273744 +22.6957851     1822.743     70.52736      1.904     4.44    -2.723504     19.85245      110.475        28     1.411     1.263 -75.26   0
       126   1023.2480    536.5765 300.3622551 +22.8128356      558.967     57.04256      1.328     3.70    -2.581426     19.85245     78.54784        10     0.959     0.738  84.33  24
       127    981.6345    535.4731 300.3496394 +22.8000451     534.2274      70.3483      1.667     4.74    -2.746796     19.85245     43.18032        14     1.085     0.970  72.03   0
       128    722.8200    531.6162 300.2702518 +22.7213357     465.3182      70.3483      1.598     5.25    -3.040136     19.85245     45.24084        10     1.041     0.746 -89.54   0
       129    289.3629    526.0446 300.1372101 +22.5896811     2102.918     70.40207      1.857     3.78    -3.277302     19.85245     167.0055        26     1.293     1.218 -75.79   0
       130   1022.1834    523.8543 300.3660582 +22.8088613     2285.625     62.36578      1.582     3.37    -2.487618     19.85245     190.3408        24     1.208     1.095 -73.59  24
       131    236.5338    520.7837 300.1225016 +22.5723136      4260.88      70.3483      1.845     3.87    -3.295338     19.85245     342.3002        39     1.424     1.387  56.53   0
       132    377.2833    514.8965 300.1681651 +22.6128714     2677.757     70.52736      1.941     4.17    -2.691081     19.85245     205.7594        35     1.450     1.440 -76.60   0
       133   1002.1508    514.9267 300.3627136 +22.8002919     1047.309     70.36623      1.595     3.87    -2.549633     19.85245     83.43305        20     1.184     1.118  71.87   0
       134    621.4248    511.3840 300.2452592 +22.6851148     10650.26     70.38416      1.999     4.62    -2.618515     19.85245     637.1727        65     1.654     1.582  32.10   0
       135    954.5770    494.0250 300.3546752 +22.7800271     410.5043     70.33038      1.843     4.51    -2.843313     19.85245      41.4083         7     0.956     0.605  29.20   0
       136    176.3142    492.0345 300.1131331 +22.5459896     1255.772     70.33038      1.912     3.74    -3.333172     19.85245     106.9057        22     1.277     1.166 -44.45   0
       137    562.0468    480.9259 300.2366767 +22.6585597     3528.042     70.36623      1.969     4.69    -2.576943     19.85245     215.5284        37     1.471     1.403  79.81   0
       138    975.7350    480.7306 300.3655911 +22.7825494     776.2809     70.41998      1.865     6.17    -2.625333     19.85245      56.3773        13     1.139     0.940 -81.34   0
       139    278.0141    480.5661 300.1484608 +22.5732285     395.0754      70.3483      1.894     4.77    -3.274789     19.85245     28.32695         7     0.996     0.648 -57.24   0
       140    135.1512    473.5160 300.1063633 +22.5283205     305.6886      70.3483      1.983     3.97    -3.271612     19.85245     36.01499         6     1.095     0.626 -85.69   0
       141    766.1933    470.3870 300.3036573 +22.7167602     687.5878     70.25861      1.902     6.88    -2.548103     19.85245     44.61247        14     1.394     0.951 -49.32   0
       142    468.6571    467.3324 300.2120376 +22.6266408     3409.962     70.40207      1.937     4.25    -2.385111     19.85245      247.178        41     1.538     1.443 -85.39   0
       143    860.6603    461.1559 300.3360861 +22.7424317     883.8495     70.38416      1.980     5.80    -2.969252     19.85245     50.07528        18     1.288     1.201  52.48   0
       144    957.9898    461.4647 300.3663195 +22.7716954     388.4945     70.33038      1.685     3.56    -2.817823     19.85245     42.94118         7     1.049     0.558 -61.41   0
       145    356.3963    446.6241 300.1838540 +22.5870138     1359.973     70.33038      1.927     3.84    -2.407164     19.85245     125.7681        28     1.562     1.263 -39.34   0
       146     74.9900    444.6976 300.0970415 +22.5019934     616.5092     70.25861      1.678     3.84    -3.157835     19.85245     59.15873        11     1.071     0.723 -86.94   0
       147    325.6201    436.0800 300.1777114 +22.5747527     16765.89     70.36623      1.962     4.30    -2.521871     19.85245     1086.361        61     1.594     1.505  75.70   0
       148    860.1994    433.2346 300.3450141 +22.7342727     619.6938     70.33038      1.856     5.01    -2.634002     19.85245     49.57426        12     1.246     1.044 -81.62   0
       149     22.0633    424.2456 300.0872517 +22.4802371     2571.146     70.40207      1.653     3.26    -3.155986     19.85245     246.9849        31     1.277     1.234  67.43   0
       150    232.0221    425.6060 300.1520230 +22.5436573     801.1766      70.3483      0.628     0.84    -3.196539     19.85245     419.7142         6     0.489     0.406  85.17   0
       151    735.8851    415.2995 300.3121154 +22.6918516     1111.948     70.52736      1.970     6.35    -2.403331     19.85245     74.16464        20     1.268     1.225  41.00   0
       152    397.6598    400.4407 300.2116868 +22.5861415     1166.471     70.36623      2.179     6.18    -2.361006     19.85245     61.32996        28     1.476     1.381  13.82   0
       153    474.2815    380.5450 300.2419800 +22.6034171     742.1332     70.40207      2.092     4.95    -2.295915     19.85245     45.73907        13     1.242     0.789 -60.21   2
       154    718.2830    371.4468 300.3208781 +22.6739789     1160.298      70.3483      1.922     5.28    -2.426368     19.85245     77.12035        24     1.340     1.276 -59.10   0
       155    979.4661    365.5217 300.4041828 +22.7505621     1764.417     70.47369      1.816     4.27    -2.541293     19.85245     117.4275        27     1.355     1.226 -76.81   0
       156    102.0454    350.1202 300.1361613 +22.4829898     743.9508      70.3483      1.723     4.31    -3.053082     19.85245     64.46827        13     1.243     0.746 -68.69   0
       157    132.9603    349.8030 300.1458662 +22.4921782      344.857     70.38416      1.592     5.34    -3.052782     19.85245     35.00748         8     1.062     0.757 -50.73   0
       158    888.0507    321.6961 300.3899216 +22.7105735      1208.45     70.43789      1.930     4.43    -2.663229     19.85245     92.68085        20     1.245     1.123 -27.98   0
       159    306.9064    319.3508 300.2098050 +22.5356400     1122.036     70.40207      1.998     6.19    -2.270234     19.85245     72.49385        22     1.333     1.241   6.34   0
       160    384.6536    315.4771 300.2352347 +22.5578528     499.3203     70.40207      1.914     3.64     -2.24736     19.85245     38.00292         6     0.975     0.391 -20.35   0
       161    786.5648    314.2741 300.3607118 +22.6780246     240.8772     70.33038      1.403     3.45    -2.422747     19.85245     28.10702         5     0.758     0.454 -70.80   0
       162    202.1532    306.6614 300.1813698 +22.5005666     427.6845     70.40207      1.749     4.59    -2.217282     19.85245      32.3594         7     1.051     0.570 -69.21   0
       163    739.1171    303.4686 300.3494419 +22.6606979     947.6588     70.47369      1.945     5.71    -2.309126     19.85245     64.58738        19     1.338     1.106  14.55   0
       164    804.2101    302.8698 300.3699116 +22.6800369     352.2003      70.3483      1.627     4.30    -2.429723     19.85245     29.12577         5     1.429     0.369  82.78   0
       165    663.8500    294.4331 300.3289385 +22.6355387     854.2754     70.40207      2.160     6.41    -2.262897     19.85245     52.10975        21     1.588     1.194 -69.57   0
       166   1010.1915    295.3170 300.4365613 +22.7395896     428.2645     70.31245      1.551     6.71     -2.90265     19.85245     38.29453        13     1.414     0.894  39.02   0
       167    859.0968    285.6381 300.3926073 +22.6915349     826.8831      70.3483      1.878     7.19    -2.419912     19.85245      49.9658        19     1.271     1.138  75.07   0
       168    589.7068    286.8578 300.3083182 +22.6111333     485.1469     70.41998      1.949     5.02     -2.17241     19.85245     42.53024         7     1.088     0.662  53.50   2
       169    871.0022    285.2974 300.3964277 +22.6950047     479.6129     70.27656      1.582     3.38    -2.431444     19.85245     49.13342         7     0.921     0.597  50.83   0
       170    987.4857    274.8351 300.4361320 +22.7268996      634.912      70.3483      2.121     6.10    -2.839508     19.85245     40.06038        11     1.239     0.843 -25.14   0
       171    222.6884    268.5031 300.2001387 +22.4957787     308.8527     70.54523      1.485     4.25    -2.012435     19.85245     34.11088         6     0.920     0.686 -27.77   0
       172     84.1367    263.1057 300.1588503 +22.4526525     1256.494      70.4558      2.043     4.81    -2.212512     19.85245     90.26913        28     1.475     1.308 -20.72   0
       173    906.8646    260.1421 300.4157710 +22.6985213     446.5551     70.40207      1.782     3.49    -2.382128     19.85245      36.3314         5     1.118     0.314   8.14   0
       174    241.3807    256.4041 300.2098749 +22.4979148     3153.804     70.33038      1.938     4.54    -2.030079     19.85245     235.6647        35     1.449     1.384 -65.24   0
       175     25.8808    251.1318 300.1446478 +22.4317326     800.3463     70.47369      1.608     4.40    -2.318639     19.85245     64.55014        16     1.199     0.925 -87.24   0
       176    885.3107    237.4698 300.4164138 +22.6855468     2047.633     70.52736      1.931     4.35    -2.117238     19.85245     128.1035        29     1.405     1.304  15.78   0
       177    988.7902    236.0601 300.4491268 +22.7161438     1602.495     70.33038      1.832     4.09    -2.753448     19.85245     126.8827        26     1.344     1.217  83.55   0
       178    435.4269    233.6321 300.2775953 +22.5495847     392.3875     70.36623      1.824     3.91     -2.10637     19.85245     31.89426         5     1.028     0.425 -14.04   0
       179    486.2943    220.1935 300.2977802 +22.5609798     824.4171     70.25861      2.007     6.28    -1.942569     19.85245     68.65882        21     1.485     1.383  20.55   0
       180    260.2829    200.3586 300.2339401 +22.4874993     3199.892     70.33038      1.997     4.38    -2.080689     19.85245     256.1532        38     1.567     1.392 -80.65   0
       181    506.2977    185.5831 300.3152364 +22.5570379     3504.997      70.2945      2.102     4.51    -1.985183     19.85245     238.9598        38     1.565     1.449 -74.80   0
       182    634.5056    165.4637 300.3616658 +22.5896929     3457.578      70.4558      2.012     4.67     -1.99394     19.85245     212.8272        38     1.534     1.466   7.54   0
       183    409.4585    164.7645 300.2918691 +22.5220219     800.2302     70.36623      2.031     7.97    -2.169602     19.85245     67.03491        18     1.578     1.126 -83.76   0
       184    676.1465    163.6569 300.3752162 +22.6016546     462.0182     70.41998      1.527     4.02    -2.013664     19.85245     36.37002         6     1.185     0.390 -31.06   0
       185    159.2817    157.7717 300.2163757 +22.4449754     399.2101     70.38416      1.401     3.23    -2.183024     19.85245     43.80455         5     0.819     0.476 -43.31   0
       186    678.6593    150.3417 300.3803193 +22.5985817     1644.072     70.43789      2.041     4.92    -1.997335     19.85245     106.7952        29     1.402     1.373  72.88   0
       187    694.3671    149.3410 300.3855351 +22.6030017     490.2995     70.38416      2.079     4.59    -1.973987     19.85245     36.49963         7     0.948     0.630 -17.06   0
       188    765.1487    142.0152 300.4099559 +22.6221074     818.2745     70.36623      1.846     4.98    -1.878588     19.85245     70.24942        19     1.431     1.110   4.88   0
       189    703.5434    135.7916 300.3927889 +22.6018582     421.0197      70.3483      1.569     3.21    -1.916565     19.85245     49.06316         5     0.912     0.389  -8.12   0
       190    509.3464    135.1541 300.3325488 +22.5434673     513.2163     70.40207      1.708     4.61    -2.043746     19.85245     40.89675         8     0.953     0.632 -40.16   0
       191     82.1782    134.6634 300.1999242 +22.4152102     174.2137      70.3483      1.279     3.73    -1.936464     19.85245     32.20686         5     1.057     0.378  86.46   0
       192    794.2598    130.7346 300.4226842 +22.6275878     246.0637     70.40207      1.547     4.86    -1.880408     19.85245     26.22128         5     1.280     0.523 -26.41   0
       193    184.1945    122.8732 300.2354383 +22.4424323     2115.115     70.31245      1.929     4.14     -2.12162     19.85245     158.2246        30     1.416     1.342 -39.23   0
       194    300.6514    115.0312 300.2741744 +22.4751112     677.6424     70.40207      1.955     6.75    -2.098923     19.85245     49.63937        15     1.431     0.892 -60.48   0
       195    803.0872    106.3258 300.4333536 +22.6232166     1283.292     70.50948      2.018     4.58    -1.891213     19.85245     86.40622        27     1.389     1.266  12.88   0
       196    187.0886    102.5734 300.2429230 +22.4374733     669.6088     70.33038      1.856     4.63    -2.089865     19.85245     57.49341         9     1.299     0.648 -59.58   0
       197    977.9784     99.3663 300.4901166 +22.6736030     560.4639     70.38416      1.881     7.37    -2.187313     19.85245     41.47905        16     1.365     1.116   6.75   0
       198    751.7840     98.8339 300.4198033 +22.6056921     476.0841      70.3483      1.777     6.92    -1.676804     19.85245     42.97932        11     1.213     1.106 -10.77   0
       199    604.2922     83.4091 300.3788834 +22.5570613     621.6254      70.2945      2.158     6.93    -2.015578     19.85245     33.48734        10     1.331     1.012  11.54   0
       200    214.0688     81.8363 300.2580330 +22.4396128     434.8654     70.36623      2.502     3.78    -2.032659     19.85245     29.47333         5     0.797     0.514  53.17   0
       201    575.7239     76.7733 300.3721441 +22.5465924     1013.801     70.38416      2.034     4.60    -2.093854     19.85245     78.72112        21     1.379     1.192 -82.76   0
       202     13.5328     73.5627 300.1984295 +22.3770792     435.4551      70.3483      1.710     4.42    -1.581912     19.85245     50.93396         7     1.128     0.494   2.75   0
       203    533.2911     70.6316 300.3609313 +22.5321096     775.6335     70.31245      2.274     6.28    -2.168368     19.85245     64.93356        16     1.539     1.269 -80.96   0
       204    638.5543     67.7198 300.3946382 +22.5628209     747.2809      70.3483      1.994     5.98    -1.920892     19.85245     51.88204        18     1.430     1.271 -45.34   0
       205    458.8430     61.7933 300.3406358 +22.5072541     1373.514     70.38416      2.308     5.05    -2.096576     19.85245     90.35374        25     1.594     1.168   9.76   2
       206    106.1144     59.4182 300.2317666 +22.4007955     841.2401     70.31245      1.828     3.61     -1.69316     19.85245     93.00475        15     1.135     0.926  -5.13   0
       207    167.2902     41.8179 300.2564782 +22.4140934     632.1956      70.2945      1.735     4.55     -1.58948     19.85245     51.21042        10     1.223     0.565 -18.40   0
       208    768.3741   1019.1011 300.1258382 +22.8748997     546.9939     70.31245      1.318     2.55    -4.405251     19.85245     72.93361         8     0.771     0.670   2.66  16
       209    742.5280     20.5629 300.4423089 +22.5804206     653.4807     70.33038      2.123     6.03    -1.501976     19.85245     42.20091        14     1.388     0.877  -6.43   0
       210    925.1081   1016.8892 300.1753880 +22.9213075     155.2235     70.52736      1.406     5.03    -5.460711     19.85245     40.45077         6     1.055     0.734  59.06  16
