#   1 NUMBER                 Running object number                                     
#   2 X_IMAGE                Object position along x                                    [pixel]
#   3 Y_IMAGE                Object position along y                                    [pixel]
#   4 ALPHA_J2000            Right ascension of barycenter (J2000)                      [deg]
#   5 DELTA_J2000            Declination of barycenter (J2000)                          [deg]
#   6 FLUX_APER              Flux vector within fixed circular aperture(s)              [count]
#   7 FLUXERR_APER           RMS error vector for aperture flux(es)                     [count]
#   8 FLUX_RADIUS            Fraction-of-light radii                                    [pixel]
#   9 FWHM_IMAGE             FWHM assuming a gaussian core                              [pixel]
#  10 BACKGROUND             Background at centroid position                            [count]
#  11 THRESHOLD              Detection threshold above background                       [count]
#  12 FLUX_MAX               Peak flux above background                                 [count]
#  13 ISOAREA_IMAGE          Isophotal area above Analysis threshold                    [pixel**2]
#  14 A_IMAGE                Profile RMS along major axis                               [pixel]
#  15 B_IMAGE                Profile RMS along minor axis                               [pixel]
#  16 THETA_IMAGE            Position angle (CCW/x)                                     [deg]
#  17 FLAGS                  Extraction flags                                          
         1    596.1289      5.8478 300.3787940 +22.5569931     492.5659     69.88001      1.383     4.48    -2.388213      19.7203     62.16333        13     1.176     0.844  72.59  16
         2    731.6716      3.2536 300.4218509 +22.5968426     159.6688     63.79144      1.229     4.50    -1.586523      19.7203     32.91215         5     0.827     0.695  29.60  16
         3    352.8342   1015.9625 299.9747835 +22.7739516     162.2058     69.95121      1.245     4.61    -4.982576      19.7203     26.23605         5     0.928     0.650  62.85   0
         4    644.5817   1023.9001 300.0629817 +22.8638213     851.3137     52.98562      0.812     1.98    -5.396367      19.7203      274.476         7     0.897     0.300   0.54  24
         5    244.3907   1015.0892 299.9413531 +22.7411296     5831.918     69.82657      9.630    35.01     3.822951      19.7203     133.2274       581     9.825     5.403  51.09  26
         6    225.2952   1021.9415 299.9331863 +22.7373569     3271.311     63.02603      8.605    19.80     7.950115      19.7203     92.42738       169     4.894     3.408  19.67  27
         7    195.1804   1021.2509 299.9240523 +22.7281121      1337.09     65.61854      6.121     9.53     16.15808      19.7203      51.9462        23     1.843     1.375  88.46  27
         8    205.9364   1016.3463 299.9289922 +22.7299381     1617.731     69.93342     11.862    20.07     12.20961      19.7203     46.58941        56     4.108     2.723 -36.69  19
         9    204.8097   1023.4498 299.9263285 +22.7316350     1318.115     55.57627      4.144     7.61     13.74011      19.7203     54.13476        21     2.385     0.679  -7.46  27
        10    173.1685   1019.9330 299.9176415 +22.7211216     1745.509     69.37959      6.365    16.32     22.01154      19.7203     53.72961        48     3.525     2.099  62.86  26
        11     84.1492    962.7899 299.9085946 +22.6780053     2236.144     69.91563     18.116    31.96     5.501886      19.7203     55.70748       238    10.349     2.740 -25.43  19
        12     87.2829    994.7621 299.8991570 +22.6881061     3113.341     69.86221     21.944    53.27     14.79945      19.7203     69.33686       674    11.728     6.713  63.01  19
        13    151.0580    997.7841 299.9179848 +22.7081332     1135.194     69.88001      3.994    10.95     18.92428      19.7203     45.91032        22     2.687     1.243  47.00   2
        14    932.0168   1011.4137 300.1566049 +22.9464871     475.0894     69.84439      1.004     1.57    -5.967142      19.7203     128.9276         8     0.707     0.602 -78.50   0
        15    657.3943    994.7790 300.0764563 +22.8593147      4054.07     69.88001      1.062     1.91    -5.332978      19.7203     696.1567        23     0.905     0.862  39.04   0
        16     79.1870    978.5126 299.9019338 +22.6810186     2630.484     69.84439     18.859    30.00     8.382143      19.7203     60.22871       225     8.106     3.081 -14.48  27
        17    248.5822    989.1082 299.9511171 +22.7349435     208.2273     69.82657      0.948     1.88    0.6886644      19.7203     69.64098         5     0.664     0.460 -68.13   0
        18    565.9009    985.5287 300.0509844 +22.8291998     969.3934     70.04011      1.015     1.75    -5.204719      19.7203     176.1298        11     0.785     0.729 -73.57   0
        19    105.6794    981.6888 299.9091285 +22.6898884     1272.005     70.02234      9.229    10.17     13.97607      19.7203     43.00358        22     2.439     1.183 -59.16   3
        20    116.1094   1009.4289 299.9033350 +22.7009690     931.6516     69.86221      7.418     8.53     22.42126      19.7203     39.26369        13     2.543     0.800  60.73  17
        21    459.6357    981.9729 300.0190733 +22.7962786     670.5964     69.91563      1.167     2.10    -5.250415      19.7203     131.7251        10     0.860     0.682 -20.17   0
        22    390.4357    980.1120 299.9981530 +22.7749671      3916.14     69.88001      1.079     1.80    -5.240943      19.7203     735.1117        25     0.962     0.864  85.29   0
        23    115.2795    980.1730 299.9126043 +22.6923384     1226.573     69.89782      9.733    10.95     13.39601      19.7203     37.80394        23     2.587     1.291   0.10   3
        24    115.8294    975.7027 299.9142308 +22.6912229     668.3867     69.82657      5.931     6.97     12.15755      19.7203     35.80141        11     1.475     0.922  27.65   3
        25    125.7393    967.5376 299.9199680 +22.6918609      411.022     69.93342      4.395     5.18     9.777578      19.7203      28.3828         5     1.072     0.708  76.47   0
        26     98.6784    967.5883 299.9115452 +22.6837453     1409.348     69.88001      8.202     9.64      9.48544      19.7203     60.14772        25     2.371     1.094 -15.72   3
        27    422.8057    967.0376 300.0124792 +22.7809386     430.8197     69.93342      1.118     2.63     -5.31038      19.7203     63.66259         6     0.867     0.451  52.68   0
        28    936.6827    958.6465 300.1752454 +22.9327425     1200.868     69.88001      0.994     1.72    -5.891806      19.7203     254.2996        14     0.869     0.741  71.15   0
        29     81.5208    951.9023 299.9113231 +22.6740965     2093.532     70.02234     16.328    32.83     2.381219      19.7203     125.0623       230     9.897     3.022 -28.04   3
        30    211.7734   1021.7596 299.9290432 +22.7332427     1545.044     63.75241      8.065    10.48     11.59613      19.7203     57.04187        34     2.224     1.376  17.49  27
        31    586.5501    955.8563 300.0670749 +22.8268883     219.0604     69.93342      0.988     2.02    -5.151367      19.7203     56.91231         5     0.715     0.453 -68.21   0
        32    725.5147    947.6092 300.1130329 +22.8662260     399.5763     69.84439      1.521     4.21    -5.427147      19.7203     88.25382        10     1.505     0.531  44.74   0
        33     69.6119   1000.5886 299.8917711 +22.6844655     2398.947     69.79092     14.782    30.29     10.39094      19.7203     52.50243       231     6.936     3.671  49.08  19
        34    760.1962    941.6790 300.1257676 +22.8749306     700.2357     69.80875      1.020     1.77    -5.426758      19.7203     140.1508         9     0.776     0.588  69.17   0
        35    782.5006    935.5011 300.1347282 +22.8798497     6540.748     70.12889      0.996     1.83    -5.374679      19.7203     1137.274        28     0.958     0.847  60.93   0
        36    973.6011    935.2084 300.1943890 +22.9370871     250.9485     69.71956      1.090     1.92    -5.911932      19.7203     50.48875         5     0.663     0.466 -71.31   0
        37    828.0814    935.4135 300.1489596 +22.8934988     364.4393     69.88001      1.095     2.30    -5.428448      19.7203     53.28316         6     0.747     0.482 -10.10   0
        38     93.6827    927.2009 299.9231428 +22.6706734     522.0972     69.79092      1.253     2.92    -3.112596      19.7203      64.8165         8     0.872     0.637 -72.91   0
        39    834.3297    922.8757 300.1549892 +22.8917752     242.5953       69.969      0.840     1.83    -5.320339      19.7203      65.3534         6     0.684     0.550   8.99   0
        40    487.6809    923.5572 300.0468205 +22.7879482     273.5796     69.88001      0.925     3.39    -5.171087      19.7203     53.04488         5     0.737     0.451  20.91   0
        41    791.0827    917.5372 300.1432512 +22.8772697     761.7641     69.98679      0.917     1.51    -5.200541      19.7203     187.5444         9     0.706     0.640  25.73   0
        42    974.1951    916.4461 300.2006835 +22.9318792     370.4552     69.88001      0.987     1.83    -5.807336      19.7203     63.27223         5     0.668     0.443  26.74   0
        43    506.2478    915.2841 300.0552916 +22.7911491     161.5208     69.88001      1.492     3.89    -5.147899      19.7203     29.75197         5     0.917     0.473  45.79   0
        44    829.2370    910.9532 300.1572840 +22.8868259     505.6579     69.93342      1.157     1.68    -5.177085      19.7203     115.0539         9     0.831     0.617 -31.34   0
        45    168.0840    910.4523 299.9517098 +22.6882239     358.2539     69.93342      1.342     4.04    -2.436411      19.7203       40.454         5     0.768     0.606  77.81   0
        46    937.5117    907.8463 300.1920455 +22.9184095     212.2207     69.88001      0.832     1.65    -5.676059      19.7203     77.04741         5     0.642     0.488 -75.18   0
        47    877.6675    902.3680 300.1751733 +22.8988888     353.9661     69.89782      1.003     2.88    -5.222284      19.7203     69.73363         6     0.811     0.573  65.87   0
        48    728.9106    900.8992 300.1292993 +22.8538432     429.6278     70.05787      1.007     1.81    -4.996462      19.7203     98.08858         7     0.667     0.627  57.12   0
        49    441.5949    897.6915 300.0409024 +22.7666964     2469.297     69.80875      1.050     1.88    -5.203508      19.7203     458.4885        20     0.902     0.854 -82.62   0
        50    740.2333    898.2814 300.1336786 +22.8564891     373.6344     69.86221      1.006     1.50    -4.963175      19.7203      110.509         6     0.712     0.452 -45.07   0
        51    166.8066    883.6674 299.9600319 +22.6801642     540.0385     69.86221      1.105     1.82    -3.649781      19.7203     105.9185         6     0.671     0.524  71.69   0
        52    144.0910    880.6882 299.9539437 +22.6724876     1018.123     70.05788      1.151     2.02    -3.827883      19.7203     183.7778        13     0.955     0.728  56.23   0
        53     75.2405    881.8246 299.9321855 +22.6521317     195.7043     69.93342      1.000     3.34     -4.32233      19.7203     37.00633         5     0.931     0.348  46.33   0
        54   1015.5064    869.3343 300.2289050 +22.9307408     1286.807     70.02234      0.992     1.72    -5.543151      19.7203     246.1383        13     0.779     0.697  70.03   0
        55    969.8376    867.7625 300.2151745 +22.9165961      1289.84       69.969      0.993     1.61    -5.421771      19.7203     296.8906        11     0.725     0.697  46.10   0
        56    675.3945    867.5289 300.1234945 +22.8282120     360.4877     69.86221      1.839     5.04    -4.881158      19.7203     44.62419         6     1.241     0.580 -38.99   0
        57    175.8288    862.0159 299.9698827 +22.6766686     326.5436     69.89782      1.121     2.72    -4.598014      19.7203     58.27766         7     0.734     0.657  73.95   0
        58    753.1505    861.5903 300.1496469 +22.8498356     355.6351     69.91563      0.925     1.89    -4.603289      19.7203      72.8453         6     0.694     0.482  11.42   0
        59    621.5083    855.7551 300.1105474 +22.8086655     2690.566     69.88001      1.015     1.85    -4.834291      19.7203     531.0635        17     0.847     0.772  79.16   0
        60    423.6689    852.9513 300.0498892 +22.7484855     413.2108     69.89782      1.075     1.81    -5.117517      19.7203     78.67878         7     0.670     0.614  70.88   0
        61    171.7340    849.8311 299.9725761 +22.6719465     865.7142     69.89782      1.081     1.82    -4.598582      19.7203     172.3419         9     0.746     0.668 -83.57   0
        62    642.1039    848.0942 300.1194537 +22.8126474     404.9128     70.07563      0.978     1.65     -4.79265      19.7203     114.2956         9     0.703     0.675  77.06   0
        63    190.9032    847.2524 299.9793721 +22.6769643     200.4812       69.969      0.929     3.25      -4.6538      19.7203     56.74403         7     0.870     0.659  67.96   0
        64   1014.3636    835.5994 300.2395298 +22.9207116     643.3625     69.89782      1.006     1.82     -5.51293      19.7203     121.1553        10     0.774     0.634  46.48   0
        65    797.4779    835.4363 300.1719706 +22.8556262     2339.802     69.86221      0.986     1.77    -4.606315      19.7203     383.5841        17     0.866     0.761 -23.99   0
        66    206.3108    830.5910 299.9895827 +22.6768155     287.0434     69.82657      1.250     4.61    -4.682323      19.7203     52.56779         7     1.083     0.557  29.55   0
        67    514.5665    828.1133 300.0862553 +22.7686442     367.6633     69.86221      1.139     2.08    -4.895327      19.7203     68.07508         6     0.693     0.566  44.45   0
        68    160.8318    826.3613 299.9768264 +22.6619454     661.6375     69.93342      1.126     2.35    -4.612266      19.7203     109.1604        10     0.864     0.694  48.58   0
        69    310.6353    818.2999 300.0260126 +22.7046163     30768.94     69.88001      1.099     1.82      -4.7961      19.7203     5389.125        59     1.110     0.993  68.79   0
        70    576.1144    821.4097 300.1075937 +22.7851910     324.0782     69.82657      1.097     2.06    -4.723299      19.7203     62.13876         5     0.663     0.477  14.84   0
        71    981.3898    816.2894 300.2355313 +22.9052808     580.1841     69.84439      1.031     2.88     -5.24316      19.7203     118.3568         8     0.907     0.597  49.53   0
        72    568.4037    817.1440 300.1065818 +22.7816535     980.9879     69.86221      1.027     1.95     -4.71495      19.7203     171.4753        10     0.758     0.704 -20.14   0
        73    238.8417    816.1629 300.0043888 +22.6824479     373.9118     69.98679      1.203     2.70     -4.68879      19.7203     55.22381         6     0.864     0.457 -62.24   0
        74    597.2563    813.1442 300.1168653 +22.7891635     516.5248       69.969      1.007     1.64    -4.643145      19.7203     109.1197         8     0.799     0.583 -27.13   0
        75    608.1693    811.3426 300.1208491 +22.7919210     287.9676     69.91563      0.993     1.81    -4.614777      19.7203     76.04615         5     0.669     0.451  17.38   0
        76    928.4346    808.5870 300.2215261 +22.8871916     278.1623     69.86221      1.208     2.88    -4.741766      19.7203     52.29864         6     0.934     0.591  27.86   0
        77    713.4949    807.7664 300.1548122 +22.8224935     310.9254     69.88001      1.004     2.33    -4.560065      19.7203     50.80754         5     0.697     0.465 -69.20   0
        78    751.4289    797.9865 300.1698116 +22.8310654     397.4855     69.89782      0.976     1.60    -4.542861      19.7203     95.65092         6     0.671     0.490 -81.71   0
        79    360.3434    795.4924 300.0488918 +22.7129989     18640.94     69.95121      1.110     1.99    -4.791198      19.7203     2802.158        47     1.058     0.986  82.64   0
        80    374.6771    796.0385 300.0531719 +22.7174581      1215.06     69.88001      1.109     1.93    -4.816678      19.7203     229.0159        13     0.893     0.743  61.38   0
        81    883.1428    791.1975 300.2130659 +22.8686181     1736.141     69.86221      1.047     1.55    -4.531477      19.7203     411.2623        17     0.888     0.762  47.45   0
        82    371.4075    789.8538 300.0541675 +22.7147031      413.305     69.89782      1.096     2.36    -4.744694      19.7203     66.95837         7     0.790     0.556  61.72   0
        83    912.8732    789.5988 300.2228541 +22.8770738     207.1977     69.79092      1.241     3.42    -4.597886      19.7203     35.46389         5     0.840     0.403  22.27   0
        84    641.3744    787.2195 300.1390380 +22.7949617     419.6109     69.89782      1.036     1.88    -4.543918      19.7203     102.7674         9     0.746     0.692 -68.56   0
        85    242.8695    787.3096 300.0150296 +22.6753853     488.9274     70.05788      1.137     2.40    -4.601617      19.7203     91.24128         7     0.783     0.626  72.27   0
        86     47.4036    782.7823 299.9557705 +22.6153887     418.4977     69.82657      1.082     2.91    -4.728115      19.7203     55.89037         5     0.724     0.453 -70.49   0
        87    488.2663    782.1700 300.0930218 +22.7475725     555.1818     69.89782      1.143     2.20    -4.775021      19.7203      81.1996         6     0.704     0.553  43.94   0
        88    889.4601    778.9641 300.2190161 +22.8670001      374.454     69.91563      1.225     1.82    -4.529545      19.7203     66.11383         6     0.698     0.495 -82.98   0
        89    346.6763    778.4750 300.0501787 +22.7040162     122.6627     69.98679      1.084     3.47    -4.529649      19.7203     35.80185         5     0.766     0.454 -19.64   0
        90     75.8051    776.6686 299.9665809 +22.6221669     403.0699     69.86221      1.090     2.18    -4.653724      19.7203     64.97958         7     0.785     0.565 -58.02   0
        91    360.0441    772.0000 300.0564426 +22.7061720     3125.178     69.88001      1.006     3.61    -4.486499      19.7203     787.8452        11     1.121     0.334   0.39   3
        92    355.7458    771.0000 300.0554313 +22.7045950     3509.186     69.80875      0.889     3.20    -4.453681      19.7203     1252.668         9     0.970     0.382   4.86   3
        93    563.5654    761.8209 300.1230780 +22.7643294     212.5513     69.91563      1.027     2.37    -4.548162      19.7203     47.74853         5     0.692     0.477  74.35   0
        94    533.4197    760.1966 300.1142234 +22.7548183      450.085     69.86221      1.158     2.44    -4.580156      19.7203     66.24833         7     0.761     0.610 -62.52   0
        95    555.3502    757.7905 300.1218321 +22.7607081     867.0457     69.89782      1.136     2.19    -4.542504      19.7203     140.0081        14     0.898     0.824 -39.25   0
        96    949.5870    756.4615 300.2450837 +22.8785662     2685.533     69.86221      1.013     1.80    -4.659883      19.7203     455.5948        17     0.827     0.769 -89.70   0
        97    938.1235    747.7515 300.2443434 +22.8726283     980.8691     69.89782      1.018     1.52    -4.556382      19.7203      257.906        12     0.805     0.680  66.10   0
        98    301.2284    742.1390 300.0478683 +22.6799535     431.9184     69.89782      1.199     2.57    -4.066083      19.7203      73.9113         6     0.730     0.557  45.37   0
        99    764.3608    739.1747 300.1929769 +22.8180629     1343.865     69.91563      1.103     1.81    -4.522837      19.7203     247.1829        15     0.875     0.792  58.32   0
       100    969.2336    737.8845 300.2572543 +22.8791212     967.1589     69.86221      0.981     1.56    -4.659293      19.7203     253.5527        10     0.792     0.628  47.16   0
       101    149.8291    725.8128 300.0061218 +22.6298188     294.6523     69.89782      1.176     2.43    -4.593873      19.7203     79.94617         8     0.802     0.674  -9.89   0
       102    846.7406    724.8026 300.2233232 +22.8386402     302.4415     69.88001      1.034     1.78    -4.383637      19.7203     66.87299         5     0.708     0.403  72.83   0
       103    882.8828    716.1281 300.2374104 +22.8469859     86623.31     70.02234      1.095     1.71    -4.301858      19.7203     19534.29        99     1.095     1.028  71.49   0
       104    735.2697    716.3304 300.1913460 +22.8027807      352.524     69.95121      1.059     3.21     -4.52113      19.7203     59.43629         5     0.813     0.463  46.56   0
       105     46.2947    716.1454 299.9771040 +22.5959573     134.7451     69.95121      1.096     3.43    -4.523317      19.7203     32.34583         5     0.969     0.351 -44.36   0
       106    915.7565    708.4760 300.2501478 +22.8546441     247.5959     69.88001      1.026     1.89    -4.242729      19.7203     62.75111         5     0.647     0.492 -12.10   0
       107    569.2383    705.1472 300.1432813 +22.7497694      982.384     69.89782      1.243     2.34    -4.292802      19.7203     141.2087        14     0.889     0.873 -10.96   0
       108    750.3655    702.3070 300.2006106 +22.8032822     5587.263     69.84439      1.105     1.96    -4.460378      19.7203     887.0652        28     0.963     0.930  71.55   0
       109    252.0051    697.6638 300.0470327 +22.6524234     2840.904     69.88001      1.187     2.04    -4.222353      19.7203     477.4011        22     0.998     0.869  73.01   0
       110    334.0794    695.5496 300.0732383 +22.6764525     634.9927     69.89782      1.173     2.19     -3.95914      19.7203     106.2695        12     0.895     0.792 -81.31   0
       111    209.7578    693.6248 300.0352147 +22.6385827      307.025     69.95121      1.152     2.83    -4.352405      19.7203     43.62651         5     0.701     0.473  11.36   0
       112    542.4075    691.1696 300.1394762 +22.7377091     424.0309     69.89782      1.176     2.92    -4.138453      19.7203     71.05098         7     0.916     0.483 -83.48   0
       113    533.9927    683.2081 300.1394467 +22.7329001     1967.227     69.75525      1.214     2.10    -4.070205      19.7203     332.1024        19     1.015     0.853 -38.01   0
       114    524.2291    677.0109 300.1384236 +22.7281926     916.6647     69.89782      1.251     2.09    -4.010715      19.7203     134.3443        12     0.965     0.731  81.48   0
       115    187.3351    673.7596 300.0347069 +22.6261551     340.6796     69.86221      1.139     3.30    -4.309738      19.7203     56.86051         7     0.824     0.619  67.70   0
       116    201.9036    671.8035 300.0398707 +22.6299677     424.4271     69.80875      1.108     1.74    -4.265114      19.7203     82.29823         6     0.676     0.518  62.05   0
       117    448.9832    666.7099 300.1183589 +22.7026610     922.4749     69.82657      1.218     2.11    -3.896188      19.7203     168.5031        15     1.035     0.803  69.59   0
       118    227.2070    668.2174 300.0489014 +22.6365352     271.6904     69.84439      1.087     3.90    -4.192873      19.7203     49.19304         6     0.757     0.575  40.88   0
       119    548.1585    666.9928 300.1491298 +22.7324966     315.9285     69.91563      1.381     2.62    -3.969384      19.7203     38.88999         5     0.777     0.480  27.38   0
       120    103.0014    661.8884 300.0123640 +22.5974320     11521.89     69.82657      1.227     2.03    -4.408196      19.7203     2032.105        35     1.044     0.948  84.59   0
       121     23.9414    663.3192 299.9873426 +22.5741025     371.9578     69.95121      1.201     2.77    -4.411728      19.7203     78.34216         7     0.899     0.605  12.75   0
       122    533.8060    661.9813 300.1462924 +22.7267528     630.3929     69.86221      1.302     2.47     -3.91607      19.7203     99.39113        10     0.858     0.716   1.23   0
       123    569.3250    661.2206 300.1575957 +22.7371896     184.1763     69.89782      0.973     2.01     -3.96449      19.7203     46.79594         5     0.696     0.442  73.27   0
       124     49.1243    646.1840 300.0007356 +22.5767526     961.4707     69.89782      1.622     4.25    -4.331671      19.7203     134.2921        17     1.585     0.758 -82.99   0
       125    951.7806    647.9727 300.2810598 +22.8480657     582.4285     69.89782      1.049     1.75    -3.986735      19.7203     135.6847         7     0.681     0.590  77.06   0
       126    818.5512    645.9926 300.2401730 +22.8075589     146.0228     69.89782      1.044     1.94    -3.871289      19.7203     53.87646         6     0.721     0.497 -87.24   0
       127    892.1906    640.5309 300.2649014 +22.8280664     448.4111     69.88001      1.248     3.66    -3.815298      19.7203     78.80573         9     1.082     0.742 -14.87   0
       128    454.1310    634.9200 300.1302988 +22.6950843     380.7536     70.00456      1.200     2.17    -3.744794      19.7203      70.8477         8     0.768     0.631  49.37   0
       129    601.6783    633.3438 300.1767337 +22.7388932     278.1855     69.93342      1.161     2.93    -3.602004      19.7203      44.6137         7     0.896     0.541 -31.82   0
       130    648.9017    631.8649 300.1919185 +22.7526319     191.4451     69.98679      0.976     2.54    -3.667489      19.7203     51.40991         6     0.747     0.540  34.97   0
       131    619.4407    631.2737 300.1829371 +22.7436265     425.1888     69.88001      1.216     2.35    -3.579603      19.7203     53.75924         5     0.675     0.481  75.01   0
       132    498.2644    631.0488 300.1452905 +22.7072139     548.9081     69.91563      1.367     2.60    -3.691947      19.7203     70.79725        10     0.870     0.732  30.59   0
       133    931.8290    626.1095 300.2819491 +22.8358057     1936.936     69.86221      1.071     1.77    -3.777453      19.7203     395.1709        13     0.820     0.727  74.36   0
       134    463.7425    626.1509 300.1361409 +22.6954517     918.5239     69.95121      1.219     2.25    -3.684312      19.7203     156.3114        13     0.871     0.823 -55.82   0
       135    828.7166    623.3580 300.2507018 +22.8041065     135.1293     69.86221      0.957     3.50    -3.749289      19.7203     34.23897         5     0.781     0.453 -14.39   0
       136     25.7523    620.0387 300.0019783 +22.5622395     2961.915     69.93342      1.236     2.04    -4.191443      19.7203     513.2852        23     0.993     0.943  30.19   0
       137    327.1341    613.1167 300.0978860 +22.6507227     5350.276     70.00456      1.249     2.24    -3.824065      19.7203     782.6974        28     1.068     0.992  58.63   0
       138    449.5673    610.0887 300.1369532 +22.6865900     5170.489     69.86221      1.232     2.17    -3.637201      19.7203     812.3542        28     1.048     0.930  78.30   0
       139    695.8749    606.3195 300.2148545 +22.7593847     170.2117     70.00456      1.095     5.27    -3.578474      19.7203     29.18587         8     1.115     0.703  -6.38   0
       140    861.1923    603.9210 300.2671441 +22.8082597     1129.698     69.82657      1.192     1.93    -3.671757      19.7203     211.5467        13     0.857     0.829 -50.74   0
       141    945.7119    601.2107 300.2943744 +22.8328144     7187.968     69.84439      1.100     1.83    -3.732695      19.7203     1362.979        30     0.977     0.889  72.02   0
       142    510.1124    599.6185 300.1591976 +22.7017483     6600.174     69.84439      1.238     2.26    -3.496905      19.7203     957.3265        29     1.045     0.950  56.92   0
       143    679.6233    595.8278 300.2132042 +22.7514993     336.9315     69.89782      1.295     2.76    -3.449473      19.7203      45.8448         5     0.726     0.448  71.27   0
       144    237.5090    595.2230 300.0758390 +22.6186927      915.077     69.82657      1.263     2.31    -3.846181      19.7203     133.7127        14     0.976     0.851 -37.72   0
       145    441.7444    587.7958 300.1417675 +22.6778460     2626.546     69.86221      1.299     2.24    -3.571371      19.7203     407.9759        25     1.118     0.947  89.58   0
       146    784.3554    587.7819 300.2484462 +22.7805908     445.0084     69.91563      1.213     2.20    -3.602808      19.7203     64.06773         7     0.780     0.548  55.16   0
       147    420.0825    586.2446 300.1355327 +22.6709021     835.6819     69.86221      1.232     2.38    -3.644226      19.7203     109.0943        12     0.873     0.804   6.10   0
       148    174.6613    585.9643 300.0593159 +22.5971739     484.2645     69.91563      1.213     2.11    -3.874454      19.7203     69.80767         7     0.708     0.613 -75.24   0
       149    108.2080    583.7249 300.0393960 +22.5765838     186.3952     69.88001      1.224     3.92    -4.051064      19.7203     31.50196         6     0.774     0.569 -46.97   0
       150    861.5436    583.1262 300.2740150 +22.8023924     932.5436     69.93342      1.258     2.41    -3.669405      19.7203     122.0648        11     0.901     0.699 -23.90   0
       151    558.3602    575.3417 300.1821078 +22.7092522     118777.8     69.89782      1.250     2.32     -3.20051      19.7203     14674.76       143     1.298     1.265 -66.50   0
       152    742.0157    580.0809 300.2377587 +22.7656857      524.702     69.88001      1.236     2.33    -3.449418      19.7203     76.79474         9     0.772     0.709  11.96   0
       153    244.6057    575.3254 300.0845138 +22.6151153     1979.563     69.82657      1.200     2.21    -3.624723      19.7203     286.5645        17     0.968     0.815  82.79   0
       154    448.9517    555.9281 300.1543701 +22.6708630     1590.737     69.88001      1.409     2.82    -3.411294      19.7203     201.3369        22     1.377     0.940  88.82   0
       155    293.3939    558.6819 300.1050919 +22.6249818     158.4554     69.82657      1.230     3.50    -3.483355      19.7203     34.04712         5     0.763     0.464 -75.27   0
       156    845.8139    541.7513 300.2825637 +22.7857934      1007.68     69.93342      1.214     2.10     -3.63449      19.7203     166.7743        14     0.927     0.789  69.83   0
       157    717.1044    539.3931 300.2432259 +22.7465332     1464.339     69.79092      1.226     2.26    -3.057559      19.7203     221.2729        17     0.934     0.916  20.31   0
       158    621.7432    536.0781 300.2146046 +22.7169888     224.6827     69.93342      1.223     4.31    -2.719601      19.7203     38.74725         6     0.898     0.588   2.50   0
       159    504.7945    535.5994 300.1783550 +22.6817789     502.4229     69.71956      1.267     2.65    -3.079065      19.7203     67.14454         9     0.876     0.644 -71.58   0
       160    974.1544    533.2273 300.3253465 +22.8218064     710.4393     69.93342      1.136     2.14    -3.192343      19.7203     121.3775        10     0.781     0.743 -20.30   0
       161    846.2491    531.8928 300.2859041 +22.7830920      1258.12     69.93342      1.306     2.23    -3.640544      19.7203     211.6124        18     1.291     0.780  76.28   0
       162    960.1478    532.4431 300.3212336 +22.8173841     568.7565     69.93342      1.232     1.64    -3.303887      19.7203     75.06992         5     0.641     0.455  26.30   0
       163    599.2561    530.0092 300.2095758 +22.7085033     314.0143     69.89782      1.375     3.86    -2.681186      19.7203     37.93018         6     0.907     0.470 -52.96   0
       164    437.6410    529.0664 300.1595826 +22.6597611      167.525     69.86221      1.210     3.93    -3.372741      19.7203     33.34163         6     1.023     0.432  77.03   0
       165    884.3332    526.7805 300.2994369 +22.7930376     2530.502     69.86221      1.154     2.08    -3.624174      19.7203     443.0236        21     0.949     0.881 -84.70   0
       166    545.2719    523.5459 300.1948712 +22.6904587     177.3083     69.89782      1.274     3.43    -2.909376      19.7203     30.30575         5     0.753     0.451 -20.46   0
       167    975.9888    517.1576 300.3311423 +22.8177387     321.4276     69.89782      1.150     2.54    -3.104701      19.7203     82.54765        10     0.867     0.718 -73.20   0
       168    116.5105    517.3623 300.0635464 +22.5600448     606.3358     69.88001      1.110     2.16    -3.597551      19.7203     91.64896         9     0.826     0.635 -53.46   0
       169    915.6266    514.2124 300.3132779 +22.7988050     149.6209     69.89782      1.199     3.39    -3.443277      19.7203     27.32662         5     0.750     0.444 -71.51   0
       170    657.6160    497.4194 300.2383407 +22.7166448     328.1958     69.88001      1.015     2.63    -2.692091      19.7203     62.99865         7     0.896     0.472  81.06   0
       171    972.2186    489.6607 300.3389040 +22.8087079     298.9748     69.86221      1.029     2.26    -2.999259      19.7203     62.14285         7     0.774     0.582  24.98   0
       172    718.4418    489.5215 300.2598526 +22.7326121     442.9315     69.88001      1.398     3.06    -2.946947      19.7203     58.57815         9     0.966     0.633  82.48   0
       173    875.6835    485.7972 300.3100615 +22.7786714     606.7517     69.82657      1.144     2.40    -3.575141      19.7203      108.461        11     0.935     0.713 -77.33   0
       174    860.1867    482.1459 300.3064177 +22.7729784      538.019     69.89782      1.469     2.65     -3.67126      19.7203      54.9646         8     0.757     0.685 -42.67   0
       175    604.3081    480.2140 300.2273331 +22.6957213     1825.826     69.82657      1.272     2.48    -2.309971      19.7203     216.2555        18     1.049     0.876  58.29   0
       176    964.9401    478.5358 300.3402499 +22.8033304     274.8365     69.93342      1.168     2.52    -2.970569      19.7203     51.24352         6     0.862     0.498 -71.65   0
       177   1015.5557    459.1483 300.3623364 +22.8129229     703.0559     69.93342      1.057     1.94    -2.865486      19.7203     135.6094         9     0.772     0.641  25.84   0
       178    887.6163    458.8626 300.3225347 +22.7745087     280.0386     69.88001      1.297     3.33    -3.284537      19.7203     43.60146         5     0.752     0.434  69.05   0
       179    973.9007    457.6953 300.3498172 +22.8000261     468.5393     70.07563      1.101     2.08    -2.933351      19.7203     113.5575         9     0.937     0.553  63.92   0
       180    714.7990    454.0675 300.2702397 +22.7213374      624.085     69.86221      1.228     2.55    -2.893364      19.7203     91.90107        11     0.915     0.735  71.24   0
       181    511.3101    454.3055 300.2068032 +22.6603966     237.2398     70.07564      1.321     2.47    -2.913075      19.7203     42.75259         5     0.707     0.454  80.38   0
       182    218.8295    452.6333 300.1163772 +22.5721831     327.3112     69.91563      1.124     2.86    -2.858053      19.7203     57.97599         7     0.810     0.615  80.24   0
       183     58.9145    450.7372 300.0673047 +22.5236493     291.6777     70.00456      1.716     3.81    -3.160612      19.7203     30.14249         5     0.849     0.491  53.60   0
       184    281.4228    448.3880 300.1372150 +22.5897449     2050.874     69.89782      1.230     2.28    -2.964041      19.7203     264.2026        20     1.017     0.932  67.80   0
       185   1014.2339    446.4269 300.3660582 +22.8088707     2495.532     69.91563      1.073     1.95     -2.87937      19.7203     425.0799        17     0.888     0.800  71.70   0
       186    228.5611    443.1006 300.1224994 +22.5723679     4422.113     69.91563      1.291     2.40    -2.827469      19.7203     604.0155        26     1.076     0.975  80.51   0
       187    369.3474    437.2920 300.1681625 +22.6129362     2712.032     69.95121      1.295     2.51    -2.940236      19.7203     322.4971        24     1.088     0.983  87.94   0
       188    994.2338    437.4427 300.3627396 +22.8002972     1071.179     69.95121      1.108     2.16    -2.902277      19.7203      177.396        12     0.859     0.736  66.50   0
       189    613.4340    433.8367 300.2452449 +22.6851402     10578.59       69.969      1.303     2.49    -2.304687      19.7203     1450.447        35     1.148     1.006  67.30   0
       190    631.1621    433.5574 300.2508558 +22.6903749     516.2825     69.98679      1.905     5.63    -2.448419      19.7203     41.78988         8     1.355     0.659 -49.27   0
       191    946.7975    416.2199 300.3548425 +22.7799869      412.488     69.82657      1.040     2.44    -2.902939      19.7203     68.21442         6     0.725     0.549 -51.61   0
       192    168.2075    414.1713 300.1131403 +22.5459589     1267.513     69.89782      1.286     2.40    -2.858419      19.7203     172.3435        14     0.937     0.837 -73.92   0
       193    554.0626    403.3809 300.2366561 +22.6585944     3849.083     69.88001      1.370     2.50    -2.906905      19.7203      459.576        28     1.137     1.011  59.11   0
       194    967.7679    403.4137 300.3655426 +22.7825887     591.3771     69.89782      1.117     2.28    -2.902173      19.7203     90.09276         9     0.771     0.691  69.30   0
       195    268.6293    402.9128 300.1480119 +22.5728573     336.8569     69.89782      1.324     3.32    -2.807666      19.7203     60.31335         8     0.902     0.650  27.54   0
       196    126.4094    395.9024 300.1060869 +22.5281757     228.2042     69.80875      1.178     2.81     -2.87048      19.7203     48.76025         5     0.722     0.458 -71.26   0
       197    667.9401    393.2949 300.2753901 +22.6898362     163.7105       69.969      1.079     2.79    -2.837447      19.7203     55.16659         5     0.787     0.499  59.07   0
       198    758.2109    392.1575 300.3038793 +22.7165651     630.2213     69.89782      1.334     3.03    -2.911063      19.7203     75.31706        11     0.968     0.775  35.05   0
       199    460.7957    389.6339 300.2120951 +22.6266819     3652.455     69.89782      1.371     2.48    -2.973976      19.7203     505.5491        25     1.081     1.002  70.42   0
       200    950.1375    383.8782 300.3663915 +22.7716925     356.0222       69.969      1.214     3.35     -2.89948      19.7203     58.65468         9     1.125     0.588 -85.06   0
       201    852.5639    383.7979 300.3359982 +22.7424368     851.1782     69.89782      1.308     2.37     -2.92596      19.7203     127.0533        13     0.972     0.763  76.79   0
       202    445.5709    378.0385 300.2111246 +22.6187874     422.5418     69.93342      1.609     4.14    -2.983368      19.7203     42.96223         5     0.721     0.679  17.29   0
       203    527.5208    376.6629 300.2370739 +22.6429646     378.2208     69.98679      1.584     5.02    -2.985085      19.7203     37.12555         7     1.291     0.552  23.63   0
       204    952.0907    371.1120 300.3711479 +22.7686084     851.2469     70.05788      0.443    -1.91    -2.898303      19.7203     730.2875         5     0.369     0.298  28.40   0
       205    825.2333    371.5040 300.3314737 +22.7307152     361.4398     69.89782      1.192     2.97    -2.941686      19.7203     52.57992         6     0.766     0.499   2.25   0
       206    348.3966    368.8596 300.1838776 +22.5870104     1427.142     69.86221      1.311     2.47     -2.82674      19.7203     195.5688        18     1.023     0.892  40.10   0
       207     66.8786    366.2804 300.0972145 +22.5018140       636.15     70.02234      1.282     2.38    -2.873239      19.7203      96.7321        11     0.850     0.766 -15.94   0
       208    317.6799    358.4060 300.1777205 +22.5747971     17199.42     69.82657      1.362     2.45    -2.820475      19.7203     2311.305        52     1.241     1.118  89.18   0
       209    852.3118    355.6037 300.3450783 +22.7342594     710.6754     69.80875      1.201     2.28    -2.866949      19.7203     120.8688        11     0.858     0.741  57.99   0
       210     14.0643    346.3727 300.0872765 +22.4802542     2956.145     69.89782      1.275     2.28    -2.897627      19.7203     412.9377        22     0.998     0.964  62.33   0
       211    191.8573    344.4424 300.1431396 +22.5330472     123.5558     69.86221      0.977     3.20    -2.857335      19.7203     40.55767         5     0.944     0.342  85.31   0
       212    767.1863    344.5429 300.3221429 +22.7055750     374.4951     69.88001      1.229     3.09    -2.910819      19.7203     43.38372         6     0.776     0.498  -0.78   0
       213    416.0956    343.3674 300.2132157 +22.5999947     182.3506     69.88001      1.141     3.37    -2.989578      19.7203     36.47185         5     0.800     0.410  21.62   0
       214    728.0317    337.8916 300.3121045 +22.6919308     1098.697     69.84439      1.236     2.39     -2.89776      19.7203     171.4288        14     0.946     0.808  38.90   0
       215    943.2998    330.5232 300.3815909 +22.7543086     206.7379     70.02234      1.002     2.64    -2.904168      19.7203     61.86487         6     0.818     0.526 -44.00   0
       216    389.7918    322.5968 300.2117787 +22.5861439     1217.948     69.71956      1.622     3.52    -2.983344      19.7203     128.8644        17     1.302     0.864  62.15   0
       217    828.8997    315.2282 300.3508952 +22.7156422     369.5383     69.80875      1.261     3.66    -2.909442      19.7203      49.5956         7     1.004     0.543  85.73   0
       218    711.1533    312.6893 300.3150318 +22.6796321     223.5557     69.86221      1.097     3.86    -2.987173      19.7203     37.68399         6     1.014     0.422  11.88   0
       219    465.6395    302.0143 300.2420605 +22.6029760     663.7771     69.91563      1.413     2.92    -2.991381      19.7203     91.00023        14     1.063     0.850  53.89   0
       220    710.4758    293.8187 300.3209489 +22.6740073     1255.375     69.89782      1.395     2.67    -3.033771      19.7203     157.5592        16     1.106     0.900  26.03   0
       221    971.6882    288.0065 300.4042515 +22.7505893     1846.168     69.80875      1.186     2.08    -2.983862      19.7203     301.4845        17     0.925     0.822  65.46   0
       222    418.8678    277.3182 300.2355271 +22.5818616     295.6375     70.00456      1.314     3.50    -2.971416      19.7203     49.22495         8     0.923     0.732 -79.33   0
       223    124.3709    272.0254 300.1456834 +22.4920207     379.2854     69.89782      1.182     3.33    -3.068093      19.7203     75.80163         8     1.054     0.661  40.25   0
       224     93.5882    272.1875 300.1360669 +22.4828324     733.8412     69.80875      1.531     3.43    -3.073124      19.7203     80.96479        15     1.205     0.836 -36.48   0
       225    987.5400    268.0608 300.4156721 +22.7496023     280.5717     69.93342      1.201     4.09    -3.062109      19.7203     39.37687         5     0.901     0.529  44.88   0
       226    177.5281    263.8422 300.1648587 +22.5056180     310.7956     69.88001      1.272     3.75    -2.997478      19.7203     50.75464         8     0.887     0.685 -29.32   0
       227    372.7982    254.4409 300.2286235 +22.5614797     216.1243     69.89782      1.242     3.46    -2.890165      19.7203     31.81758         5     0.738     0.469 -16.67   0
       228    880.1382    244.2328 300.3899201 +22.7105858     1157.981     69.91563      1.251     2.30    -2.868696      19.7203     184.1435        17     0.949     0.910  49.47   0
       229    298.8094    241.6845 300.2097545 +22.5356315     1156.807     69.84439      1.342     2.53    -2.661719      19.7203     178.2884        17     1.086     0.854  89.66   0
       230    376.3131    236.7584 300.2354575 +22.5574562     613.0656     69.88001      1.474     3.28     -2.80012      19.7203     63.21915        12     0.959     0.837 -59.18   0
       231    778.5478    235.7694 300.3610053 +22.6777218      504.289     69.91563      1.687     2.84    -3.060253      19.7203     52.82063         9     0.956     0.636  10.21   0
       232    193.7781    229.1879 300.1811593 +22.5005456     367.7818     69.88001      1.233     3.21     -2.93671      19.7203     70.89523         8     1.000     0.599  84.44   0
       233    731.2407    225.6594 300.3495481 +22.6606436     976.0127     69.89782      1.274     2.57    -3.072797      19.7203     127.4324        15     0.927     0.899   5.82   0
       234    796.3462    225.1872 300.3699870 +22.6800123     375.4632     69.91563      1.215     2.20    -3.072894      19.7203     63.90887         6     0.804     0.476 -45.08   0
       235    214.7164    222.7950 300.1897426 +22.5049903     315.4427     69.82657      1.344     3.21    -2.849762      19.7203     38.70596         5     0.757     0.428  76.96   0
       236   1002.6091    217.8242 300.4366828 +22.7396701     553.7768     69.89782      1.175     2.65    -3.181801      19.7203     83.99757        11     0.906     0.770  54.55   0
       237    735.6564    217.3565 300.3536193 +22.6595805     470.7043     69.89782      1.510     3.15    -3.072011      19.7203     59.93583        11     1.000     0.771  72.79   0
       238    655.7400    216.3872 300.3290408 +22.6353577     770.4984     69.86221      1.419     3.36    -3.044577      19.7203     93.21608        14     1.165     0.770  79.60   0
       239    851.3220    207.8409 300.3927521 +22.6914936     801.2988     69.88001      1.301     2.88    -2.825682      19.7203     106.9511        14     1.034     0.840  42.04   0
       240    582.0017    207.9708 300.3088120 +22.6108431     730.6601     69.86221      1.582     3.13    -3.001769      19.7203     74.15231        13     1.013     0.835 -85.42   0
       241    863.2037    206.7527 300.3968090 +22.6947394     500.8362     69.88001      1.312     2.34    -2.778602      19.7203     70.66378         8     0.846     0.595 -89.02   0
       242   1023.5799    197.6013 300.4497889 +22.7401337     788.7164     54.85505      1.039     2.07    -3.233803      19.7203     164.4121         9     0.889     0.555 -82.60  24
       243    980.0330    197.0218 300.4363946 +22.7269284     581.5443     69.89782      1.217     2.35    -3.053724      19.7203     109.2038        10     0.878     0.682  37.60   0
       244      4.0000    194.2542 300.1335382 +22.4335927     270.7346      66.4852      1.466     3.96    -2.767951      19.7203     39.59676         5     1.043     0.431 -68.74  16
       245    214.2749    190.5288 300.2000786 +22.4955955     440.8925       69.969      1.494     3.75    -2.753684      19.7203     68.07213         9     1.082     0.662  89.37   0
       246     76.1628    185.4080 300.1588231 +22.4527022     1338.907     69.91563      1.332     2.54    -2.984489      19.7203     164.4458        17     0.996     0.930  72.72   0
       247    898.9362    182.1349 300.4159393 +22.6983635     437.0031     69.95121      1.322     3.53    -2.719417      19.7203     61.09686         8     0.946     0.764   1.59   0
       248     25.9688    182.3326 300.1442302 +22.4367625      245.519     69.89782      1.270     4.67    -2.745317      19.7203     42.75305         7     0.901     0.687  76.69   0
       249    233.4124    178.7006 300.2098665 +22.4979387     3268.293     69.80875      1.345     2.46    -2.635848      19.7203     444.5809        25     1.072     1.009  78.43   0
       250     17.5769    173.0877 300.1446241 +22.4315921     763.7928     69.82657      1.315     2.50    -2.628557      19.7203     108.2363        15     0.935     0.887  68.45   0
       251    216.9151    169.5327 300.2077136 +22.4903596     417.4747     69.98679      1.270     2.74    -2.666863      19.7203     60.03057         7     0.825     0.657 -69.44   0
       252    877.4401    159.8020 300.4164866 +22.6855052      2002.02     69.91563      1.310     2.45    -2.610483      19.7203     254.9195        24     1.178     0.957  74.83   0
       253    981.0448    158.6155 300.4491764 +22.7161871     1608.654     69.91563      1.202     2.32    -2.942918      19.7203      238.317        16     0.956     0.791  75.33   0
       254    426.8296    154.7928 300.2777776 +22.5490605     328.9067     69.89782      1.479     3.31    -2.577514      19.7203     54.16173         7     1.181     0.492  66.32   0
       255    351.2310    147.2079 300.2567221 +22.5242207     399.9747     69.89782      1.436     3.60    -2.452272      19.7203     52.10522         8     0.944     0.652 -29.43   0
       256    117.2202    144.2584 300.1849329 +22.4532064     402.7914     69.89782      1.556     4.19    -2.954125      19.7203     47.54444         7     1.101     0.454  24.90   0
       257    478.5114    142.5249 300.2978403 +22.5610266     947.1102     70.02234      1.371     3.07    -2.590235      19.7203     106.1818        15     1.051     0.875 -23.74   0
       258    406.2268    142.9979 300.2751954 +22.5394972     248.4133     69.84439      1.287     3.81    -2.522252      19.7203     32.54335         6     0.916     0.454  52.30   0
       259    221.9678    137.6945 300.2196163 +22.4827340     169.8102     69.86221      1.058     3.92    -2.593726      19.7203     39.91084         6     0.909     0.518 -88.99   0
       260    912.7953    126.5422 300.4383030 +22.6865289     201.4937     69.86221      0.908     2.30     -2.56329      19.7203     40.85309         5     0.689     0.480  15.82   0
       261    252.3751    122.5411 300.2339861 +22.4875002     3456.067     69.89782      1.313     2.47     -2.54745      19.7203     437.3307        24     1.144     0.935  75.67   0
       262    759.6505    122.7402 300.3918042 +22.6395732     182.9762     69.95121      1.452     3.71    -2.586544      19.7203     39.22493         5     0.955     0.470  84.26   0
       263    103.5444    122.2373 300.1878293 +22.4427838     408.6382     69.89782      1.220     2.67    -2.795496      19.7203     56.58639         7     0.882     0.489  82.63   0
       264     14.2082    112.5868 300.1632099 +22.4132192     401.9805     69.79092      1.431     2.77    -2.520284      19.7203     39.54047         5     0.703     0.477 -13.64   0
       265    498.4121    107.8582 300.3152827 +22.5570312     3692.975     69.86221      1.385     2.61    -2.587073      19.7203     446.4275        27     1.121     1.045  85.34   0
       266    383.7404    107.7974 300.2796224 +22.5226465     371.2024     69.88001      1.237     3.08    -2.423966      19.7203      57.7894         7     0.832     0.618  20.62   0
       267    750.9069     97.3297 300.3973253 +22.6296497     461.3948     70.02234      1.239     2.66    -2.324558      19.7203     67.43598         9     0.890     0.663  61.39   0
       268    843.5430     95.9162 300.4266522 +22.6569859     224.7111     69.98679      0.972     2.78    -2.327623      19.7203     56.68911         6     0.894     0.497  23.59   0
       269    549.9966     90.1135 300.3370964 +22.5673898     378.4611     69.82657      1.487     3.66    -2.523048      19.7203     36.56548         5     0.631     0.611  89.13   0
       270    626.7874     87.8815 300.3617294 +22.5897549     3513.314     69.88001      1.352     2.66    -2.450801      19.7203     477.9499        26     1.094     1.012  79.66   0
       271    401.5725     86.7622 300.2919946 +22.5219490     889.3239     69.91563      1.316     2.26    -2.428109      19.7203     138.5027        11     0.860     0.749  69.46   0
       272    667.7639     85.3189 300.3753221 +22.6012935     451.2491     69.84439      1.222     2.82    -2.324971      19.7203     69.42022        11     0.961     0.755 -13.90   0
       273    683.7480     80.9528 300.3817172 +22.6048265     395.2447     69.93342      1.509     3.78     -2.27058      19.7203     40.36721         6     0.922     0.446  55.93   0
       274    150.3990     79.4973 300.2162547 +22.4445651      308.852     69.79092      1.293     3.56    -2.702407      19.7203     47.62761         9     0.901     0.751  -4.99   0
       275    953.7178     78.4716 300.4666613 +22.6849569     332.7548     70.02234      1.248     3.04    -2.690782      19.7203     53.76303         7     0.921     0.493   5.57   0
       276    671.0132     72.7907 300.3803988 +22.5986658     1483.426     69.79092      1.347     2.62    -2.243906      19.7203     196.1347        19     1.077     0.891  69.64   0
       277    311.3002     73.6929 300.2681566 +22.4911373     226.3042     70.05788      1.468     3.88    -2.424865      19.7203     34.41303         5     0.880     0.489 -45.15   0
       278    685.7062     71.1853 300.3854961 +22.6026054     537.6232     69.82657      1.785     2.35    -2.202198      19.7203     53.28207         7     0.734     0.609 -84.76   0
       279    757.5588     64.2241 300.4101388 +22.6221246     884.9991     69.93342      1.282     2.90    -2.058978      19.7203     111.9433        17     1.178     0.867  71.86   0
       280    917.8519     62.8283 300.4605529 +22.6697203     248.7243     69.91563      1.557     3.49    -2.564947      19.7203     36.57803         5     0.742     0.694  -5.37   0
       281    695.2922     57.3054 300.3929849 +22.6014868     374.4461     70.05788      1.305     2.44    -2.091396      19.7203      59.3838         6     0.690     0.606 -19.90   0
       282    500.9076     56.7205 300.3326502 +22.5430860     540.4624     70.00456      1.412     2.82    -2.600566      19.7203     80.98515        11     0.986     0.705  78.18   0
       283     73.9924     56.7023 300.1999093 +22.4151089     421.6882     69.77309      1.215     2.37    -2.126367      19.7203     55.30443         7     0.710     0.643  13.05   0
       284    404.7234     54.7162 300.3033710 +22.5136875     559.0906     70.00456      1.449     2.69    -2.524647      19.7203     80.52999         8     0.944     0.572  48.86   0
       285    787.2061     53.3779 300.4228955 +22.6278847     201.1073     69.88001      1.089     2.75    -1.970452      19.7203     36.26191         5     0.743     0.428  22.10   0
       286    176.3168     45.2102 300.2354318 +22.4424915     2269.223     69.86221      1.375     2.63    -2.808377      19.7203     259.7662        21     1.078     0.984  74.71   0
       287    744.4737     45.7461 300.4120563 +22.6128935     351.8164     69.91563      1.303     3.13    -1.914117      19.7203     53.46234         7     0.948     0.612  62.41   0
       288    737.3747     37.4473 300.4125366 +22.6083815     435.3146     69.91563      1.181     2.61    -1.841686      19.7203     66.85284        10     0.833     0.778   8.15   0
       289    292.2344     37.0224 300.2741233 +22.4748901     632.4222     69.91563      1.260     3.03    -2.397475      19.7203     80.78117        11     0.906     0.758  50.60   0
       290    775.3271     32.3598 300.4260120 +22.6182842     455.9827     69.88001      1.756     4.23    -1.801447      19.7203     46.53296         9     1.128     0.632  87.49   0
       291    698.9411     32.1343 300.4022869 +22.5953437     290.3371     69.93342      1.316     3.22    -1.909538      19.7203     36.50371         8     0.819     0.670  39.64   0
       292    795.3738     28.5896 300.4334819 +22.6232031     1261.038     69.89782      1.328     2.57    -1.777303      19.7203     158.9178        16     0.964     0.913 -79.34   0
       293    500.9858     26.3616 300.3425224 +22.5343858     229.9238     69.91563      1.284     2.70    -2.626926      19.7203     44.33031         5     0.805     0.495 -56.89   0
       294    178.9261     24.1034 300.2430888 +22.4372131     616.9485     70.02234      1.276     2.68    -2.853966      19.7203     85.78093        10     0.903     0.674  78.00   0
       295    970.2883     21.7283 300.4902371 +22.6735959     436.9793     70.05788      1.366     3.28    -2.770279      19.7203     52.64365         8     0.915     0.602  77.12   0
       296    743.7079     21.3632 300.4197270 +22.6056538     476.2233     69.86221      1.232     2.30     -1.71292      19.7203     75.15246         9     0.825     0.658  71.73   0
       297     62.0529   1013.3602 299.8852642 +22.6858524     2061.308     69.88001     19.517    40.01      9.45332      19.7203      57.6218       288    10.326     4.302  23.02  27
