#   1 NUMBER                 Running object number                                     
#   2 X_IMAGE                Object position along x                                    [pixel]
#   3 Y_IMAGE                Object position along y                                    [pixel]
#   4 ALPHA_J2000            Right ascension of barycenter (J2000)                      [deg]
#   5 DELTA_J2000            Declination of barycenter (J2000)                          [deg]
#   6 FLUX_APER              Flux vector within fixed circular aperture(s)              [count]
#   7 FLUXERR_APER           RMS error vector for aperture flux(es)                     [count]
#   8 FLUX_RADIUS            Fraction-of-light radii                                    [pixel]
#   9 FWHM_IMAGE             FWHM assuming a gaussian core                              [pixel]
#  10 BACKGROUND             Background at centroid position                            [count]
#  11 THRESHOLD              Detection threshold above background                       [count]
#  12 FLUX_MAX               Peak flux above background                                 [count]
#  13 ISOAREA_IMAGE          Isophotal area above Analysis threshold                    [pixel**2]
#  14 A_IMAGE                Profile RMS along major axis                               [pixel]
#  15 B_IMAGE                Profile RMS along minor axis                               [pixel]
#  16 THETA_IMAGE            Position angle (CCW/x)                                     [deg]
#  17 FLAGS                  Extraction flags                                          
         1    566.7866     12.2890 300.3721973 +22.5466491     1180.947     70.03998      1.368     2.83    -1.948575     19.77552     137.2171        18     1.100     0.914  88.76   0
         2    289.9078      9.7888 300.2868642 +22.4629634     355.2963     70.03998      1.383     3.89     -2.00728     19.77552     41.08287        10     0.970     0.726  57.68   0
         3      4.1484      8.3610 300.1985289 +22.3768778     528.9747     67.13899      1.491     3.59    -2.734285     19.77552     54.47569        10     0.988     0.776 -48.97  16
         4    524.1116      6.1427 300.3609064 +22.5320984     797.9513     70.16494      1.375     2.77     -1.99752     19.77552     91.99296        11     0.954     0.721  -0.09  16
         5    629.4287      2.8650 300.3947572 +22.5627054     661.9849     62.30514      1.329     2.73     -1.70832     19.77552     108.0513        13     0.953     0.852  78.22  24
         6    224.6614      2.0345 300.2690938 +22.4411790     212.7447      58.3857      1.334     4.27    -1.987124     19.77552     37.16119         5     1.122     0.464 -84.64  24
         7    167.8439   1021.9432 299.9200256 +22.7166264     803.4576     63.12327      4.316     8.12     16.47152     19.77552     37.84484        14     1.520     1.212  59.80  24
         8    227.9218   1009.6228 299.9427064 +22.7311459     1284.405     70.05785      9.735    16.53     2.908571     19.77552     50.88128        41     3.833     1.981  78.24  19
         9     64.9463    986.5495 299.8995861 +22.6755723     1679.171     70.12926      9.949    25.25     3.499882     19.77552     48.93437       112     6.213     2.850  73.79  19
        10     80.3054    973.9085 299.9084718 +22.6765669      2125.02     70.25406     20.378    51.11     4.392891     19.77552     65.47111       482     9.545     7.596  77.55  19
        11    808.3505   1001.2484 300.1260554 +22.9030034     283.5861     70.12926      1.118     3.24    -4.990297     19.77552     31.79416         5     0.728     0.459  76.68   0
        12    242.1039   1020.3169 299.9436319 +22.7384698     3809.165     68.88698      8.124    27.95      1.97954     19.77552     90.34038       207     7.068     3.221  63.14  27
        13    564.8039    998.8697 300.0509851 +22.8292285     876.2037     70.03998      1.092     1.81    -5.148429     19.77552     187.7852        10     0.813     0.670 -49.51   0
        14    234.2897   1022.6212 299.9404529 +22.7367825     2296.178     60.01342     10.067    18.63     3.248586     19.77552     71.11848        88     5.236     1.842  13.57  27
        15    389.2728    993.4092 299.9981498 +22.7749614     3724.378     70.07571      1.056     1.79    -5.110123     19.77552     676.4033        20     0.892     0.836  -9.33   0
        16    458.5320    995.2813 300.0190839 +22.7962947     597.8577      70.2006      1.084     1.98    -5.226595     19.77552     110.7363         9     0.782     0.650  78.47   0
        17    115.2720    993.2317 299.9130417 +22.6926074     1385.756     70.09356     10.457    11.07     11.66322     19.77552     40.71638        27     2.299     1.486 -12.96   0
        18    421.7380    980.3865 300.0124878 +22.7809776      292.399     70.05785      1.021     1.97    -5.111625     19.77552     61.03173         5     0.664     0.467 -17.16   0
        19     66.2060   1013.7368 299.8911254 +22.6837369     2604.789     70.05785     14.469    34.73     7.211311     19.77552      54.3121       259     6.942     4.823 -45.69  19
        20    935.3181    971.8737 300.1751931 +22.9326656     1121.914      70.2006      1.089     1.94    -5.021438     19.77552     225.2336        13     0.953     0.721 -41.42   0
        21    585.5738    969.2104 300.0671073 +22.8269594     213.4522     70.09356      1.018     3.43     -5.09824     19.77552     43.77696         5     0.798     0.425 -68.02   0
        22    724.0984    960.7474 300.1129962 +22.8661058     482.1875     70.18277      1.530     5.09    -5.091848     19.77552     68.25353         8     1.219     0.601  67.22   0
        23    103.0347    960.1882 299.9199982 +22.6794662     1009.655     70.07571      8.578     9.93     4.070716     19.77552     31.36907        14     1.821     1.511 -19.07   3
        24    862.8309    976.4481 300.1511085 +22.9122340     124.9514     70.12926      0.848     2.89    -5.015406     19.77552     49.39285         5     0.726     0.475 -15.64   0
        25    759.1934    955.0413 300.1257860 +22.8749996     632.4868     70.12926      1.147     1.78    -5.048143     19.77552     127.8635         9     0.773     0.636 -15.86   0
        26    781.3260    948.7123 300.1347417 +22.8798247     6779.782     70.23624      1.054     1.72    -4.985507     19.77552       1324.6        33     0.958     0.924  69.39   0
        27    972.2867    948.1661 300.1944386 +22.9369502     261.4191     70.05785      1.164     3.89    -5.049095     19.77552     40.98354         6     0.752     0.626 -18.83   0
        28     86.7236   1011.6062 299.8981915 +22.6892921     3302.556     70.00423     18.848    49.36     13.12205     19.77552     67.60287       592    10.385     6.510  11.67  27
        29    789.7922    930.7643 300.1432226 +22.8772159     822.1033     70.09356      1.057     1.60    -4.942128     19.77552     190.8891        13     0.920     0.699  73.73   0
        30    535.7997   1002.4536 300.0407910 +22.8215489     213.1111     70.05785      1.041     3.36    -5.115909     19.77552     56.99337         6     0.956     0.487   7.17   0
        31    642.1334    927.8745 300.0981730 +22.8320811     334.6129     70.16494      1.430     3.95    -4.924783     19.77552     48.53376         7     1.009     0.562   0.32   0
        32    827.9559    924.2452 300.1572363 +22.8867946     592.9847     70.12926      1.054     1.62    -4.953705     19.77552     117.1295         7     0.633     0.622   7.29   0
        33    876.4549    915.2751 300.1752711 +22.8987688     367.9824     70.12926      1.080     2.74    -4.982194     19.77552     81.21845         7     0.942     0.480  38.38   0
        34    727.5508    914.5235 300.1291199 +22.8538828      384.416     70.09356      0.959     2.66    -4.863865     19.77552     65.12495         7     0.818     0.609 -46.38   0
        35    739.3237    911.6371 300.1337266 +22.8565871     274.7609     70.05785      0.854     1.75    -4.848787     19.77552      68.9913         5     0.656     0.449 -74.02   0
        36    440.4786    911.0446 300.0408914 +22.7667274     2356.932     70.07571      1.097     1.95    -4.938927     19.77552     405.5575        17     0.873     0.829  23.44   0
        37    218.6921    899.8122 299.9755859 +22.6969112     199.6846     70.03998      0.967     3.39     -4.32678     19.77552     40.69726         5     0.942     0.353 -46.58   0
        38    483.2296    899.0748 300.0580880 +22.7761293     311.9134     70.11141      1.370     2.98    -4.850114     19.77552     44.63786         6     0.863     0.478  51.10   0
        39    102.1001    899.6010 299.9394290 +22.6618299     276.4738     69.93269      1.354     3.50    -3.784081     19.77552     33.34348         5     0.811     0.435 -19.14   0
        40    165.6211    896.6613 299.9601197 +22.6800684       640.56     70.05785      1.581     2.44    -3.535829     19.77552     67.79948         9     0.791     0.742  64.48   0
        41     74.1138    894.9111 299.9322626 +22.6520789     280.3345     70.25406      1.402     2.91    -4.142524     19.77552     39.19987         5     0.765     0.511  31.57   0
        42    142.7396    893.9433 299.9538951 +22.6724168     854.0969     70.16494      1.223     2.31    -3.681985     19.77552     161.9872        14     0.961     0.783  18.88   0
        43   1014.3609    882.4686 300.2289464 +22.9307106     1243.993     70.05785      0.979     1.68    -4.943701     19.77552     241.2162        15     0.858     0.748 -71.20   0
        44     17.7787    883.5386 299.9184689 +22.6318965     177.5821     70.07571      1.042     1.95    -4.581378     19.77552     57.09438         5     0.681     0.461 -22.13   0
        45    968.6447    880.9819 300.2151739 +22.9165756     1170.179     70.11141      0.996     1.60    -4.932382     19.77552     267.9878        11     0.794     0.669   5.06   0
        46    445.1911    880.9798 300.0521428 +22.7595228     238.0911     70.07571      1.170     2.65    -4.728133     19.77552     40.14812         5     0.773     0.481  26.62   0
        47    752.1551    874.9154 300.1496764 +22.8499020     362.7678     70.07571      1.144     1.77    -4.610798     19.77552     93.85164         6     0.758     0.452 -58.16   0
        48    620.3427    869.0304 300.1105419 +22.8086650     2791.943     70.11141      1.138     1.99    -4.481919     19.77552      481.899        18     0.890     0.869  -3.77   0
        49    422.5170    866.3447 300.0498523 +22.7485203      346.978      70.1471      1.166     2.30    -4.622736     19.77552      69.9429         6     0.779     0.512 -46.83   0
        50    170.5063    863.1545 299.9725419 +22.6719351     799.8013     70.11141      1.151     2.11    -4.694154     19.77552      146.751        11     0.892     0.741   2.05   0
        51    640.9603    861.2937 300.1194791 +22.8126326     433.0865     70.11141      1.215     2.56    -4.436914     19.77552      80.1405         6     0.841     0.480  36.87   0
        52    189.3928    860.3574 299.9793208 +22.6768058     271.9099     70.11141      1.270     3.83    -4.710659     19.77552     40.84826         7     0.834     0.708  67.56   0
        53    557.4278    852.2274 300.0964252 +22.7849656     98.18765     70.05785      0.971     3.37    -4.457047     19.77552     30.27746         5     0.760     0.433  67.46   0
        54    796.3893    848.7355 300.1719778 +22.8556597     2438.335     70.02211      1.055     1.84    -4.735555     19.77552      450.333        20     0.904     0.820  17.87   0
        55   1013.2585    848.8080 300.2395581 +22.9207172     703.7891     70.07571      1.040     1.81    -4.844809     19.77552     143.6747         7     0.729     0.571 -22.12   0
        56    204.7343    843.1530 299.9896866 +22.6764830     358.2929     70.11141      1.291     2.59    -4.729311     19.77552     54.14062         7     0.817     0.588  74.00   0
        57    513.7214    841.3759 300.0863541 +22.7687367     362.1533     70.07571      1.278     3.19    -4.504129     19.77552     47.24516         6     0.700     0.648  73.58   0
        58    159.6413    839.6189 299.9768244 +22.6619278     659.2595     70.11141      1.189     3.12     -4.71512     19.77552     84.46265        11     1.003     0.717 -69.07   0
        59    574.8678    834.7043 300.1075559 +22.7851736     292.7061     70.23624      1.127     2.75    -4.450706     19.77552     47.40738         7     0.707     0.670  13.72   0
        60    309.4545    831.5592 300.0260105 +22.7046048     31333.94     70.05785      1.122     2.01    -4.313795     19.77552     4358.727        63     1.111     1.067  77.71   0
        61    567.2112    830.3483 300.1065901 +22.7816266     924.6935     70.09356      1.116     2.03    -4.450955     19.77552     152.5817        12     0.830     0.745 -47.60   0
        62    980.0853    829.5685 300.2354742 +22.9052479     584.9952     70.09356      1.037     1.78    -4.786128     19.77552     111.4271         7     0.646     0.627  69.30   0
        63    595.9433    826.5421 300.1167725 +22.7891566     313.4352     70.16494      1.080     2.47    -4.443552     19.77552     78.83768         8     0.836     0.611   8.16   0
        64    607.1417    824.8164 300.1208203 +22.7920219     290.1839     70.07571      1.094     2.88    -4.440052     19.77552     76.36162         8     0.930     0.626  61.29   0
        65    712.4512    820.9947 300.1548566 +22.8225209     194.2316     70.07571      1.122     2.89     -4.47568     19.77552     66.21741         7     0.881     0.645 -79.48   0
        66    749.9500    811.2797 300.1696983 +22.8309821      442.644     70.11141      1.135     2.32     -4.56443     19.77552      76.8609         9     0.790     0.682  66.08   0
        67    359.1397    808.7485 300.0488819 +22.7129820     18500.52      70.1471      1.194     2.02    -4.067459     19.77552     3092.652        47     1.084     1.016  46.75   0
        68    373.4413    809.1948 300.0531844 +22.7174032     1032.798     70.11141      1.119     2.15    -4.165323     19.77552     163.4201        15     0.872     0.817 -79.35   0
        69    882.1697    804.4263 300.2131290 +22.8686705     1687.624     70.09356      1.110     1.89    -4.734925     19.77552     311.2723        15     0.864     0.807  25.86   0
        70    370.3056    803.4192 300.0540883 +22.7148060     403.7867     70.02211      1.364     4.72    -4.088326     19.77552     52.87479        10     1.193     0.668 -60.68   0
        71    640.0207    800.6401 300.1389234 +22.7949516      515.222     70.12926      1.118     2.16    -4.427671     19.77552     96.88737         7     0.687     0.662  31.09   0
        72    476.6311    800.7155 300.0880428 +22.7459447     384.4189     70.11141      1.252     2.60    -4.452495     19.77552     43.45309         5     0.716     0.449  71.50   0
        73    241.4965    800.4918 300.0149925 +22.6752953     422.9209     70.27187      1.092     2.04    -4.524909     19.77552     80.45306         5     0.646     0.483  17.50   0
        74     46.2042    796.4468 299.9556333 +22.6154864     343.6429     70.07571      1.205     2.83     -4.66604     19.77552     60.20938         6     0.850     0.536 -65.09   0
        75    487.1478    795.5485 300.0929962 +22.7476191     477.8546     70.12926      1.091     2.12    -4.408306     19.77552     85.40532         7     0.695     0.606 -20.56   0
        76    888.1659    792.0295 300.2190316 +22.8669103     378.1176     70.11141      1.188     1.98    -4.628024     19.77552     74.32236         6     0.796     0.453 -58.48   0
        77     74.7352    789.7354 299.9666776 +22.6221332     260.4017      70.1471      1.153     3.32    -4.664594     19.77552     57.72776         6     1.000     0.513  55.74   0
        78    641.2217    789.4734 300.1429305 +22.7921085     222.8448     70.09356      1.020     3.37    -4.405049     19.77552     39.03695         5     0.752     0.437  23.26   0
        79    239.4633    784.8346 300.0194542 +22.6701969     414.3355     70.09356      1.305     3.49    -4.383534     19.77552     54.79272         9     0.890     0.763  78.37   0
        80    532.2144    773.4661 300.1142046 +22.7548098     352.5593     70.07571      1.343     3.67    -4.310772     19.77552     39.90041         8     0.888     0.650  58.31   0
        81    441.2235    772.1671 300.0863145 +22.7271311     181.0362     70.09356      1.456     3.87    -4.203269     19.77552     34.42121         5     1.015     0.422  43.84   0
        82    554.0215    770.7452 300.1218770 +22.7605729     797.4895     70.11141      1.260     2.50    -4.331522     19.77552     121.0756        11     0.921     0.715  72.64   0
        83    948.4454    769.6542 300.2451035 +22.8785612     2749.835     70.12926      1.034     1.82    -4.461602     19.77552     469.7737        16     0.839     0.791 -63.32   0
        84    936.8614    761.0321 300.2442968 +22.8726129     820.8267     70.12926      1.045     1.77    -4.330623     19.77552     214.2165        13     0.901     0.746 -17.15   0
        85    300.2570    755.2047 300.0479913 +22.6799547     463.5635     70.05785      1.235     2.60    -3.853888     19.77552     92.26418         8     0.881     0.595 -30.38   0
        86    763.3365    752.4536 300.1930073 +22.8181163     1653.697     70.12926      1.194     2.03    -4.374527     19.77552     229.3678        15     0.911     0.809  -3.68   0
        87    967.9860    751.2469 300.2571847 +22.8791347     1069.821     70.11141      1.193     1.82    -4.460243     19.77552     208.4232        11     0.855     0.678 -50.72   0
        88    845.6631    738.3726 300.2232404 +22.8387635     457.0185     70.09356      1.478     4.31    -4.049071     19.77552     53.55411         7     1.300     0.408  35.30   0
        89    148.6541    739.0496 300.0061272 +22.6298070     352.3081     70.12926      1.134     2.51    -4.644122     19.77552     70.55805         8     0.780     0.685  -8.29   0
        90    881.7038    729.3539 300.2374071 +22.8469811     86302.02     70.11141      1.099     1.87    -4.015101     19.77552     14391.06       114     1.189     1.127  88.08   0
        91    734.5051    729.7645 300.1914062 +22.8029578      505.462     70.09356      1.334     2.24     -4.41472     19.77552     75.10075         7     0.718     0.632 -69.14   0
        92    914.4865    722.2595 300.2499339 +22.8547732     208.2323      70.2006      1.260     3.16    -3.976278     19.77552      46.5452         6     0.893     0.438  -0.78   0
        93    567.9895    718.3941 300.1432535 +22.7497460     984.7341     69.96848      1.204     2.19    -4.116753     19.77552     154.3983        13     0.928     0.792  81.68   0
        94    749.1987    715.5703 300.2006002 +22.8032909     5407.804     70.05785      1.131     1.98    -4.223013     19.77552     843.1695        26     0.953     0.933  89.98   0
        95    250.8486    710.8598 300.0470545 +22.6524089     2853.736      70.1471      1.255     2.14    -3.817226     19.77552     463.6237        23     1.017     0.916  18.72   0
        96    332.8686    708.9440 300.0731774 +22.6764800     735.0323     70.11141      1.277     3.08    -3.798301     19.77552     116.5296        13     1.119     0.721  13.47   0
        97    208.4628    706.2509 300.0353793 +22.6383630     301.6241      70.1471      1.180     2.49    -3.976097     19.77552     45.92769         5     0.695     0.469  70.75   0
        98    541.2106    704.0806 300.1395736 +22.7376055     360.9139     70.07571      1.341     2.21    -4.002079     19.77552     54.94355         7     0.736     0.606  85.99   0
        99    532.7238    696.3099 300.1394594 +22.7328300     1871.326     70.23624      1.259     2.28    -3.942255     19.77552      273.258        19     1.049     0.883  70.74   0
       100    522.9365    690.1840 300.1384056 +22.7281362     824.2327     70.07571      1.271     2.44    -3.897067     19.77552     114.3233        11     0.831     0.794  21.98   0
       101    916.4343    687.6906 300.2617846 +22.8454319      352.273     70.07571      1.302     4.02    -3.832488     19.77552     46.30267         6     0.983     0.471 -36.33   0
       102    186.4187    686.2850 300.0350214 +22.6260213     354.2968     70.03998      1.201     2.39    -4.070049     19.77552     55.23363         5     0.677     0.477  75.01   0
       103    200.6444    684.9173 300.0398870 +22.6299000     389.4733     70.05785      1.152     2.24     -3.96231     19.77552     74.13973         8     0.789     0.638   5.02   0
       104    226.6108    682.2074 300.0488384 +22.6369183     326.9467     69.96848      1.235     2.86    -3.794066     19.77552     61.12469         7     0.935     0.473  81.66   0
       105    969.9313    681.0698 300.2806176 +22.8595672     280.8638      70.1471      1.050     2.50     -3.79547     19.77552     60.31634         7     0.847     0.515 -42.87   0
       106    447.6095    680.0216 300.1182713 +22.7026197     1050.703     70.09356      1.313     2.26    -3.823111     19.77552     164.4158        14     1.006     0.835  25.85   0
       107   1023.3966    677.1494 300.2985663 +22.8744663     500.9987     56.06771      0.955     2.05    -3.745664     19.77552     110.2292         7     0.815     0.480 -81.86  24
       108    101.8466    675.1198 300.0123756 +22.5974286     11631.41     70.09356      1.250     2.02    -4.371808     19.77552     1912.353        39     1.069     1.039  64.62   0
       109     22.5642    676.6324 299.9872597 +22.5740546     456.7643     70.12926      1.349     3.08    -4.087172     19.77552     54.54876         8     0.956     0.645  56.60   0
       110    532.6221    675.3041 300.1462588 +22.7267732     642.1155     70.00423      1.308     2.74    -3.844081     19.77552     80.49475        11     0.862     0.839 -74.00   0
       111     47.9898    659.3405 300.0007779 +22.5767342     860.6114     70.05785      1.584     5.22    -4.071743     19.77552     84.34606        17     1.474     0.798 -82.29   0
       112    950.6667    661.1302 300.2810950 +22.8480668     687.0998      70.1471      1.107     1.89    -3.690852     19.77552     101.4509         7     0.674     0.598  89.58   0
       113    817.2337    659.9265 300.2398942 +22.8077200     306.1353     70.07571      1.677     4.20    -3.765565     19.77552     39.74668         6     1.114     0.452 -62.97   0
       114    890.8859    653.9477 300.2647935 +22.8280844     369.2052     70.11141      1.179     3.21       -3.798     19.77552     80.58139         8     0.974     0.721  47.42   0
       115    452.8221    647.9521 300.1303209 +22.6949846     487.9622     70.11141      1.499     3.50    -3.715833     19.77552     59.21502         6     0.862     0.632  70.96   0
       116    600.5202    646.6779 300.1767023 +22.7389276     373.7602      70.2006      1.516     2.72    -3.747785     19.77552      56.7472         6     0.974     0.461   4.93   0
       117    618.3810    644.3287 300.1830268 +22.7436107     341.1855     70.12926      1.190     3.17    -3.739267     19.77552     49.46814         8     0.931     0.608  67.10   0
       118    496.9284    643.7814 300.1454007 +22.7070211     560.7382     70.11141      1.384     4.00    -3.683239     19.77552     51.69715        12     1.111     0.712  83.84   0
       119    930.6112    639.2464 300.2819581 +22.8357710     1928.601     70.11141      1.121     1.97    -3.705413     19.77552     294.5898        18     0.892     0.862  40.14   0
       120    462.5060    639.4254 300.1361062 +22.6954440     905.6396     70.02211      1.148     2.24    -3.680351     19.77552     134.3689        12     0.845     0.790  -5.62   0
       121     24.5842    633.2968 300.0019764 +22.5622417     2843.242     70.00423      1.210     2.30    -3.843845     19.77552     365.2499        19     0.948     0.892  74.64   0
       122    969.9939    628.9646 300.2975808 +22.8446223     236.8519     70.11141      1.011     2.67    -3.528128     19.77552     39.96243         5     0.638     0.569 -89.85   0
       123    325.9855    626.3132 300.0979055 +22.6507180     5390.059     70.03998      1.301     2.33    -3.561857     19.77552     715.9886        29     1.074     1.013  79.53   0
       124    448.3644    623.2750 300.1369572 +22.6865680     5207.941     70.03998      1.284     2.35    -3.617273     19.77552     623.5754        30     1.078     1.026 -75.00   0
       125    859.8837    617.1560 300.2670930 +22.8082265     1003.492     70.05785      1.240     2.13    -3.752619     19.77552     181.9549        14     1.004     0.776 -85.69   0
       126    944.5209    614.3463 300.2943910 +22.8327893     7272.713     70.12926      1.125     2.03    -3.605616     19.77552     1004.505        30     0.987     0.959  75.19   0
       127    508.9311    612.8480 300.1591929 +22.7017468     6710.524     70.07571      1.314     2.28    -3.505229     19.77552     978.2111        33     1.132     1.018  43.92   0
       128    678.4564    608.3439 300.2134333 +22.7513002        324.9     70.16494      1.320     3.70    -3.528818     19.77552     37.83112         6     0.968     0.407  70.95   0
       129    236.4666    608.4681 300.0758762 +22.6187338     754.2288      70.1471      1.329     3.02     -3.52516     19.77552     107.1129        12     0.975     0.835  57.30   0
       130    783.3544    601.0042 300.2484955 +22.7806463     475.1933     70.07571      1.274     3.03    -3.652609     19.77552     62.65345        10     0.899     0.744  63.43   0
       131    440.6599    601.0884 300.1417729 +22.6778916     2663.266     70.16494      1.335     2.34    -3.502719     19.77552     386.0451        22     1.026     0.966  39.24   0
       132    418.8943    599.6466 300.1354705 +22.6709477     717.7748     70.11141      1.380     2.63     -3.51429     19.77552     91.54268        11     0.888     0.797  16.22   0
       133    173.2675    598.8701 300.0593548 +22.5970119     389.0067     70.12926      1.163     3.06    -3.670675     19.77552     72.08033         9     0.967     0.612  -0.42   0
       134    860.3994    596.2884 300.2740380 +22.8023891     884.7571     70.00423      1.309     2.98    -3.668333     19.77552     102.0955        14     1.099     0.754 -44.76   0
       135    107.2867    596.7021 300.0395593 +22.5765834     180.6807     70.25406      1.098     3.28    -3.727235     19.77552     30.15296         5     0.828     0.617 -43.22   0
       136    740.7298    593.2737 300.2377291 +22.7656472     495.7445     70.16494      1.072     2.44    -3.539209     19.77552      75.6349        11     0.821     0.805  47.11   0
       137    557.1926    588.5676 300.1821067 +22.7092563     118314.5     70.09356      1.337     2.41     -3.23936     19.77552     13878.23       138     1.334     1.309 -28.67   0
       138    243.3788    588.7278 300.0844416 +22.6151476     2003.091     70.11141      1.250     2.25    -3.467511     19.77552     257.2752        21     1.027     0.936  54.99   0
       139    809.2708    584.2943 300.2620031 +22.7836182      248.086      70.2006      1.154     3.91     -3.61929     19.77552     39.41198         5     0.914     0.480  45.48   0
       140    292.2743    571.5968 300.1052102 +22.6249085     247.4083     70.00423      1.229     4.69    -3.357053     19.77552     28.09521         8     1.011     0.616  71.19   0
       141    447.8925    568.9604 300.1544666 +22.6708439      1605.45     70.09356      1.414     2.58    -3.238422     19.77552     211.9384        20     1.021     0.971 -77.08   0
       142    858.9956    565.4730 300.2836178 +22.7931193     233.1881     70.03998      1.149     3.81    -3.512954     19.77552     32.25714         6     1.591     0.262 -36.35   0
       143    764.8455    556.9655 300.2570444 +22.7624533     186.4859     70.11141      1.366     2.76    -3.430589     19.77552     41.10238         5     0.825     0.653  48.73   0
       144    844.6389    554.9825 300.2825531 +22.7858034     996.0413     70.11141      1.187     2.07    -3.474612     19.77552     163.7481        13     0.878     0.771  19.70   0
       145    715.9249    552.5774 300.2432310 +22.7465267     1485.007     70.11141      1.325     2.50    -3.330912     19.77552     202.2016        20     1.054     0.970 -18.48   0
       146    502.9980    548.8227 300.1781583 +22.6815957     424.2561     70.03998      1.369     3.85     -2.93538     19.77552     53.96312        10     1.018     0.698 -82.56   0
       147    973.2166    546.3691 300.3254367 +22.8218644     751.2387     70.07571      1.185     2.26    -3.265992     19.77552     107.7287        10     0.811     0.729  31.31   0
       148    844.9632    544.9822 300.2859046 +22.7830288     1299.245     70.09356      1.436     3.38    -3.427485     19.77552     166.2257        22     1.470     0.975  79.36   0
       149    958.9163    545.3581 300.3213061 +22.8172887     479.1534     70.05785      1.270     2.78    -3.263407     19.77552     71.37254         7     0.826     0.584  24.40   0
       150    384.0118    543.7146 300.1428000 +22.6444364     121.7493     70.03998      1.116     4.29    -3.228018     19.77552     30.58476         5     0.857     0.611 -88.65   0
       151    598.2728    543.3963 300.2095774 +22.7086129     316.7215     70.03998      1.339     3.48    -2.778399     19.77552     44.73235         5     0.727     0.480   9.71   0
       152    883.1456    540.0551 300.2994071 +22.7930580     2451.703     70.12926      1.241     1.96    -3.341864     19.77552     418.3306        22     0.978     0.947 -76.84   0
       153    974.9495    530.4785 300.3311419 +22.8178189     405.5333     70.11141      1.144     2.49    -3.199063     19.77552     69.11624         8     0.754     0.685 -74.24   0
       154    115.3693    530.9387 300.0634438 +22.5601551     427.7375     70.12926      1.116     2.19    -3.622954     19.77552     73.38982         7     0.712     0.614  89.17   0
       155    107.7874    520.9198 300.0643441 +22.5550065      276.792     70.07571      1.338     3.84    -3.616686     19.77552     34.21718         5     0.855     0.494  35.08   0
       156    715.2909    514.1885 300.2555100 +22.7353151     234.6663     70.03998      1.208     4.46    -3.127132     19.77552     35.36906         5     0.780     0.725  69.61   0
       157    656.9226    510.4079 300.2385599 +22.7167301     457.2432     70.05785      1.403     3.60    -2.900362     19.77552     70.84404         9     1.080     0.588  12.61   0
       158    971.2972    503.0227 300.3389260 +22.8088372     362.4005     70.02211      1.220     4.16    -3.083245     19.77552      55.2572         6     0.881     0.601  38.26   0
       159    717.3616    502.8496 300.2598398 +22.7326802     560.3327     70.11141      1.429     3.20    -3.074524     19.77552     66.08267         9     0.906     0.680  18.25   0
       160    874.4644    498.9562 300.3100579 +22.7786520      525.011     70.09356      1.121     2.27    -3.157312     19.77552     84.83653         8     0.769     0.649  -0.24   0
       161    858.7037    495.1153 300.3063935 +22.7728254     314.2222     70.27187      1.129     2.41     -3.16251     19.77552     50.63644         7     0.720     0.624  83.18   0
       162    603.2303    493.4748 300.2273441 +22.6957699     1824.553     70.11141      1.346     2.54    -2.620366     19.77552     206.1652        18     1.012     0.934  48.07   0
       163   1014.4993    472.1799 300.3624217 +22.8129196     856.1293     70.02211      1.197     2.30    -2.985803     19.77552     135.6185        12     0.911     0.772  87.10   0
       164    886.3362    471.6891 300.3226188 +22.7743776     334.4816      70.2006      1.284     3.72    -3.051198     19.77552      44.8085         9     1.016     0.605 -88.39   0
       165    972.8502    470.9182 300.3498427 +22.8000790     478.8615     70.11141      1.153     2.51    -2.992123     19.77552     79.46256         9     0.836     0.695  12.29   0
       166    713.8095    467.3779 300.2702594 +22.7214302     515.0006     70.09356      1.239     2.63    -2.867176     19.77552     81.30624        11     0.946     0.737 -22.44   0
       167    509.6276    467.6440 300.2066010 +22.6602867     236.3483     70.11141      1.289     3.40    -2.546796     19.77552     33.65583         5     1.006     0.332 -68.27   0
       168    218.2384    465.9721 300.1165186 +22.5723964     346.4433     70.11141      1.449     5.69    -3.165429     19.77552     38.43615        10     1.126     0.810  27.02   0
       169    280.1783    461.6005 300.1371932 +22.5897272     2104.237     70.02211      1.342     2.59    -3.015418     19.77552     242.4208        19     1.048     0.935  61.81   0
       170   1013.0226    459.5171 300.3660756 +22.8088387     2513.869     70.05785      1.182     2.01     -2.98205     19.77552     424.0464        19     0.942     0.878  79.02   0
       171    227.3684    456.3309 300.1224886 +22.5723705      4399.69     70.07571      1.364     2.51    -3.146274     19.77552      500.323        29     1.122     1.057  75.34   0
       172    992.8370    450.5740 300.3626858 +22.8002218       1112.3     70.11141      1.168     1.94    -2.988873     19.77552     196.6353        13     0.943     0.709  50.07   0
       173    368.1313    450.3910 300.1681847 +22.6128966     2786.121     70.07571      1.375     2.61    -2.625669     19.77552     319.5655        25     1.108     1.019  32.62   0
       174    612.2737    447.0252 300.2452516 +22.6851468     10695.36     70.11141      1.399     2.64    -2.477008     19.77552     1240.834        41     1.176     1.142  54.79   0
       175    630.4645    446.5773 300.2510611 +22.6904721      452.098     70.07571      2.001     4.83    -2.504975     19.77552     35.18244         8     1.478     0.447 -35.94   0
       176    945.9111    429.3328 300.3549536 +22.7800600     497.2091      70.2006      1.376     3.23    -3.028579     19.77552     60.53118         9     0.955     0.636 -54.45   0
       177    483.2120    428.9960 300.2109364 +22.6412721     271.6988     69.95058      1.439     3.80    -2.415558     19.77552     25.03458         5     0.818     0.506  34.02   0
       178    166.9197    427.4277 300.1130910 +22.5459416     1091.182     70.11141      1.408     2.78    -3.175029     19.77552     123.3945        15     0.967     0.893  78.43   0
       179    552.9382    416.4969 300.2366971 +22.6585923      3876.91     70.18277      1.454     2.74    -2.399713     19.77552     446.7403        28     1.177     1.060  85.32   0
       180    966.4217    416.5109 300.3655146 +22.7825207     818.5173     70.02211      1.337     2.40    -3.016947     19.77552     99.52394        13     0.920     0.782  44.98   0
       181    267.7377    416.1820 300.1480797 +22.5729648     300.4366     70.05785      1.338     3.45    -2.963384     19.77552     49.47258         7     0.978     0.551 -17.59   0
       182    125.7234    409.5205 300.1061070 +22.5284434     305.3552      70.2006      1.422     3.37    -3.216949     19.77552     39.88255         5     0.759     0.435  23.36   0
       183    666.6414    406.2190 300.2754372 +22.6897292      341.339     70.11141      1.556     5.67    -2.420204     19.77552     33.80075         9     1.169     0.775  60.34   0
       184    757.1348    405.3620 300.3039032 +22.7166067      650.722     70.07571      1.322     3.17    -2.773837     19.77552      83.9121        11     0.890     0.808 -77.46   0
       185    459.5288    402.9030 300.2120428 +22.6266806     3511.954      70.2006      1.416     2.63    -2.382386     19.77552     440.5935        31     1.168     1.077  89.92   0
       186    851.4692    396.9349 300.3360365 +22.7424554     844.8979      70.1471      1.345     2.97      -3.0693     19.77552     93.78168        13     1.020     0.775  72.62   0
       187    949.0237    397.2747 300.3663382 +22.7717813     383.4679     70.12926      1.241     2.84    -3.056144     19.77552     48.10665         7     0.736     0.651  15.57   0
       188    444.4321    391.7454 300.2109697 +22.6189508      263.949     70.11141      1.089     3.47    -2.385136     19.77552      33.6449         5     0.726     0.479 -76.74   0
       189    824.2477    384.3620 300.3316365 +22.7306868    -619.9343     70.11141    -13.221     3.08    -3.067446     19.77552     48.88378         9     0.889     0.701  79.71   0
       190    347.1644    382.0265 300.1838701 +22.5869900     1462.765     70.09356      1.440     3.04    -2.463939     19.77552     147.6344        21     1.101     1.070 -27.61   0
       191     65.5096    379.5493 300.0971355 +22.5017780     571.1755     70.11141      1.396     3.20    -3.236228     19.77552     73.51001        12     1.067     0.762  36.36   0
       192    316.5130    371.5674 300.1777351 +22.5747950     17190.51     70.07571      1.450     2.58    -2.645779     19.77552     2195.173        56     1.275     1.194  59.00   0
       193    850.8201    368.5922 300.3450401 +22.7341184     772.7879     70.05785      1.317     2.88    -3.087773     19.77552     91.76453        12     0.977     0.737  54.81   0
       194     12.9087    359.5585 300.0872907 +22.4802589       2815.3     70.09356      1.331     2.45    -3.284527     19.77552     381.8307        26     1.125     0.983  80.74   0
       195    766.2527    357.5844 300.3222621 +22.7056160      306.658     70.07571      1.239     3.44    -2.736334     19.77552     41.24843         5     0.777     0.441 -20.17   0
       196    414.8011    356.4478 300.2132149 +22.5999336     264.4116     70.09356      1.420     2.14     -2.37793     19.77552     40.55262         5     0.682     0.465 -20.71   0
       197    726.7365    351.1658 300.3120357 +22.6919302     1116.102     70.09356      1.380     2.56    -2.446622     19.77552       119.36        16     0.941     0.918  35.49   0
       198    941.6964    343.6669 300.3814649 +22.7541819     299.6414     70.21843      1.353     3.83    -3.113153     19.77552     38.44368         6     1.025     0.469  -3.12   0
       199    388.5871    335.8158 300.2117603 +22.5861506      1337.89     70.03998      1.699     3.74    -2.397633     19.77552     127.3303        21     1.442     0.920  68.45   0
       200    827.8928    328.8277 300.3508082 +22.7158246     370.9845     70.03998      1.464     2.67    -2.955644     19.77552     51.17884         8     0.787     0.684 -47.48   0
       201    677.5879    324.8131 300.3052846 +22.6696315     239.2034     70.02211      1.658     3.38    -2.435536     19.77552     28.80916         5     1.205     0.274 -34.57   0
       202    464.4608    315.1512 300.2420749 +22.6029696     699.1207      70.1471      1.493     3.08    -2.375038     19.77552     83.21356        12     1.021     0.785  83.92   0
       203    709.1562    306.9311 300.3209235 +22.6739559     1153.616     70.05785      1.369     2.84    -2.444995     19.77552     134.2717        17     1.048     0.931 -54.77   0
       204    970.4187    301.1794 300.4042180 +22.7505745     1800.402     70.09356      1.205     2.31    -2.892549     19.77552     256.4874        17     0.943     0.843  88.69   0
       205    418.6087    290.4178 300.2358394 +22.5821213     291.5742     70.03998      1.179     3.19    -2.375038     19.77552     41.81591         5     0.733     0.474 -13.96   0
       206    123.2999    285.6363 300.1455811 +22.4921798     417.1345     70.07571      1.845     4.49    -2.810935     19.77552     46.91109         8     1.152     0.746 -78.51   0
       207     92.5537    285.3388 300.1361256 +22.4828701     832.1865     70.11141      1.745     4.08    -3.140977     19.77552     71.85155        13     1.126     0.811 -21.96   0
       208    781.1106    268.5197 300.3558111 +22.6844811     375.2711     70.21843      1.218     3.41    -2.529248     19.77552     57.14544         6     0.866     0.639 -20.90   0
       209    878.9536    257.3576 300.3899281 +22.7105844     1289.338     70.12926      1.404     2.64    -2.929363     19.77552     145.7209        17     1.000     0.929  15.27   0
       210    297.6536    255.0722 300.2096945 +22.5357058     1093.165     70.09356      1.380     2.57    -2.181421     19.77552     164.9414        17     1.069     0.904  56.33   0
       211    375.6354    250.0889 300.2355635 +22.5576590     673.1673     70.07571      1.774     3.39    -2.407478     19.77552     66.92995        11     1.059     0.761  61.74   0
       212    777.4705    249.0465 300.3609985 +22.6777955     336.1882     70.07571      1.395     3.34    -2.552594     19.77552     39.44885         6     0.780     0.496 -84.43   0
       213    192.7786    242.7044 300.1811071 +22.5007032     470.2263     70.00423      1.462     4.24    -2.382444     19.77552     48.09379        11     1.190     0.655  79.89   0
       214    730.1957    238.6227 300.3496535 +22.6606368    -85.98541     70.05785      1.423     3.31    -2.511162     19.77552     105.2403        14     1.144     0.785 -77.50   0
       215    794.9985    237.6582 300.3701570 +22.6797743     315.5134     70.03998      1.380     3.45     -2.59521     19.77552     42.60598         6     0.935     0.500 -76.46   0
       216    213.8084    235.4559 300.1899960 +22.5049305      370.342     70.09356      1.246     3.34    -2.366089     19.77552     49.80777         5     0.900     0.487  -7.88   0
       217   1001.4523    230.8302 300.4367352 +22.7396466     486.6205     70.11141      1.309     3.57    -2.669376     19.77552     72.62541        10     0.970     0.740 -38.54   0
       218    504.0620    231.3473 300.2816040 +22.5907791     282.9995      70.1471      1.119     3.35    -2.708217     19.77552     35.44127         5     1.379     0.235 -17.73   0
       219    734.1454    229.8202 300.3537412 +22.6592912     475.6055     70.07571      1.561     4.76    -2.520123     19.77552     57.71389        10     1.182     0.773 -78.51   0
       220    654.5364    229.5222 300.3290418 +22.6353522     820.1776     70.18278      1.655     3.40    -2.558356     19.77552     87.19274        16     1.090     0.975  34.14   0
       221    850.2778    221.0338 300.3927808 +22.6915560     821.7275     70.07571      1.308     2.81     -2.72377     19.77552     120.2381        15     1.086     0.882  78.52   0
       222    580.9482    221.5633 300.3087119 +22.6110136       654.89     70.11141      1.618     3.35    -2.632515     19.77552      71.9535        13     1.095     0.902  24.36   0
       223    861.9842    220.3092 300.3966648 +22.6948541     462.3098     70.02211      1.625     3.06    -2.746947     19.77552     43.95374         9     0.900     0.662  68.85   0
       224   1022.9021    210.8563 300.4499088 +22.7403270     846.8876     58.72765      1.189     2.19     -2.54171     19.77552     142.9879        13     0.914     0.766  70.61  24
       225    978.5312    210.1687 300.4362932 +22.7268433     768.7117     70.07571      1.395     2.81    -2.600825     19.77552     96.31661        12     0.991     0.755  22.20   0
       226      2.4609    207.5351 300.1333962 +22.4335205     201.0349     60.47044      0.985     3.66    -2.575861     19.77552     33.09425         5     0.922     0.522  42.92  24
       227    213.0320    203.7894 300.2000319 +22.4956096     397.4587     70.09356      1.426     2.93    -2.188526     19.77552       51.341         7     0.712     0.685 -43.86   0
       228     74.9704    198.6126 300.1588121 +22.4527138      1316.69     70.09356      1.356     2.53    -2.447484     19.77552      182.079        14     0.967     0.816  58.87   0
       229    897.9376    195.1763 300.4160296 +22.6983987     460.2832     70.07571      1.212     3.33    -2.596138     19.77552     53.92585         8     0.820     0.660  33.09   0
       230     24.0997    194.8679 300.1442268 +22.4363786     292.0585     70.18277      1.425     4.17    -2.386548     19.77552     35.29811         5     0.926     0.651  33.89   0
       231    232.3067    191.9030 300.2098806 +22.4979784     3390.379     70.27187      1.477     2.74    -2.104061     19.77552     384.6769        28     1.162     1.100 -83.47   0
       232     16.6645    186.1230 300.1447553 +22.4316392     643.4118     70.18277      1.292     3.18    -2.254494     19.77552     86.94736        11     0.985     0.749  62.92   0
       233    215.8950    182.5311 300.2078204 +22.4903669     371.6672     70.23624      1.384     2.71    -2.073666     19.77552     43.23151         6     0.759     0.492  -8.58   0
       234    876.1049    173.1589 300.4163690 +22.6855315     2062.924     70.11141      1.377     2.59    -2.531266     19.77552     231.8411        21     1.038     0.982 -49.19   0
       235    979.8016    171.7053 300.4491725 +22.7161658     1498.491     70.00423      1.248     2.27    -2.309967     19.77552     248.3508        17     0.947     0.881 -89.96   0
       236    179.0170    168.8845 300.2007867 +22.4753907     220.5814     70.05785      1.346     3.73    -2.000169     19.77552     38.07751         5     0.825     0.484 -67.85   0
       237    426.2011    168.6280 300.2777310 +22.5494296     368.3394     70.05785      1.531     2.37    -2.560822     19.77552      41.6429         5     0.686     0.470 -13.04   0
       238    350.6730    160.1776 300.2569790 +22.5243619     469.2626      70.1471      2.052     5.71    -1.942037     19.77552      41.4975         8     1.334     0.689 -40.63   0
       239    115.9984    157.6525 300.1848489 +22.4532671     333.7976     70.05785      1.429     4.30    -1.917642     19.77552     38.44904         7     0.821     0.640  16.81   0
       240    477.0236    155.7785 300.2977138 +22.5609728     1026.029     70.09356      1.496     3.00    -2.522553     19.77552     102.9512        16     1.028     0.952  49.24   0
       241    405.2537    156.5950 300.2751187 +22.5396952     340.0457     70.07571      1.519     2.36    -2.419908     19.77552     39.89698         5     0.692     0.462 -18.70   0
       242    251.1590    135.8157 300.2339399 +22.4875320     3636.984     70.11141      1.421     2.66    -1.970397     19.77552     414.8499        32     1.225     1.147  74.06   0
       243    102.2319    135.4474 300.1877762 +22.4427660     380.7166     70.12926      1.265     4.37    -1.920788     19.77552     55.32393         9     1.194     0.631 -84.53   0
       244    497.2607    121.0032 300.3152944 +22.5570498       3587.5     70.07571      1.474     2.84    -2.263093     19.77552     353.6857        30     1.207     1.124  86.69   0
       245    382.1779    120.8237 300.2795464 +22.5225061     244.0742     70.05785      1.289     4.37    -2.115916     19.77552     31.55425         6     1.107     0.492 -63.44   0
       246    749.5154    110.5562 300.3972317 +22.6296243     521.1951     70.05785      1.685     4.17    -2.209371     19.77552     58.47632        10     1.115     0.765  -5.79   0
       247    548.8737    103.2318 300.3371242 +22.5674113     301.2659     70.09356      1.196     4.77    -2.073513     19.77552     39.57073         8     0.999     0.646  11.11   0
       248    625.5399    101.0502 300.3617008 +22.5897549     3616.739      70.1471      1.455     2.78    -2.049109     19.77552     399.1207        27     1.152     1.095  48.47   0
       249    400.6079    100.1714 300.2919792 +22.5220995     910.3779     70.09356      1.523     2.78    -2.098553     19.77552     105.1281        14     0.990     0.853 -57.41   0
       250    666.6689     98.4622 300.3753486 +22.6013326     492.1344     70.12926      1.429     3.73    -2.046396     19.77552     48.94895         7     0.834     0.671 -51.69   0
       251    682.5778     94.6516 300.3815397 +22.6050032     348.3169     70.09356      1.467     3.59    -2.039873     19.77552     46.44714         6     0.921     0.647 -28.24   0
       252    149.5682     92.9008 300.2162861 +22.4447509     316.8479     70.07571      1.205     3.13    -2.033345     19.77552     48.49851         8     0.821     0.666 -12.47   0
       253    952.4827     91.7994 300.4665799 +22.6850118      279.271     69.96848      1.066     2.11    -2.125502     19.77552     55.52262         5     0.692     0.431 -62.09   0
       254    720.6360     89.7037 300.3949995 +22.6149813     321.5077     70.09356      1.577     3.91    -2.083393     19.77552     38.49768         6     0.891     0.491 -45.57   0
       255    669.7576     85.9430 300.3803717 +22.5986603     1592.218     70.03998      1.467     2.77    -1.946743     19.77552     174.4142        20     1.069     0.985 -34.17   0
       256    684.2100     84.1168 300.3854655 +22.6024648     634.6783     70.03998      1.923     3.42    -1.957113     19.77552     53.50725         7     0.940     0.561 -81.46   2
       257    756.2538     77.3444 300.4101051 +22.6220971     774.6968     70.12926      1.389     3.02    -2.140831     19.77552     94.42662        15     1.002     0.917  40.18   0
       258    499.8033     70.0445 300.3326164 +22.5431738     540.3382     70.11141      1.431     3.47    -2.077136     19.77552     63.48251        12     0.966     0.860 -62.40   0
       259    694.3577     70.2181 300.3931346 +22.6015102     384.4862     70.11141      1.436     3.07    -1.895377     19.77552     63.06491         9     0.952     0.645 -40.94   0
       260     72.6569     70.0904 300.1997890 +22.4151395     275.4817      70.1471      1.135     3.29    -2.023665     19.77552     53.16076         5     0.954     0.434  28.87   0
       261    403.7456     68.3584 300.3032746 +22.5139033     477.4646     70.09356      1.531     3.58    -2.088331     19.77552     58.73351        10     0.930     0.766  43.03   0
       262    785.9704     66.3725 300.4229233 +22.6278430     293.5331     70.09356      1.424     4.38    -2.202316     19.77552     35.80387         6     0.861     0.634  42.31   0
       263    175.1296     58.3032 300.2354513 +22.4424843      2182.39     70.21843      1.402     2.78    -2.037484     19.77552     258.0826        23     1.104     1.047  70.03   0
       264    742.9695     58.9374 300.4119369 +22.6128278     350.3839     70.11141      1.245     3.06    -2.092012     19.77552     54.22977         7     0.831     0.647 -21.91   0
       265    291.1107     50.5072 300.2740335 +22.4750166     672.6478     70.25406      1.557     3.94     -2.00728     19.77552     64.96732        15     1.128     0.982  12.25   0
       266    736.5499     50.3483 300.4127228 +22.6084364     438.3468     70.12926      1.394     3.49    -2.064778     19.77552     63.40854        11     1.090     0.724  83.34   0
       267    774.3519     45.7019 300.4260076 +22.6184218     433.1252     70.12926      1.573     5.49    -2.164911     19.77552     45.32784         9     0.940     0.905  87.90   0
       268    697.3834     45.1993 300.4021920 +22.5952260     261.7845     69.98636      1.257     3.44    -1.756227     19.77552     32.81271         5     0.764     0.447  71.99   0
       269    794.2375     41.8206 300.4334629 +22.6232610     1378.054     70.11141      1.448     3.31    -2.222046     19.77552     169.2343        21     1.191     0.963  79.68   0
       270    499.8190     40.2786 300.3422755 +22.5346275     219.3574     70.09356      1.232     4.32     -2.06898     19.77552     36.82768         5     0.889     0.597 -36.02   0
       271    177.4138     37.2940 300.2429747 +22.4371379     636.9081     70.02211      1.581     2.49     -2.03547     19.77552     70.69884         8     0.848     0.597 -83.09   0
       272    968.9162     34.8491 300.4901775 +22.6735546     390.6221     70.07571      1.388     3.84    -2.125502     19.77552      62.4849        10     1.029     0.835 -27.03   0
       273    742.4270     34.3351 300.4197474 +22.6055938     539.3536     70.07571      1.629     3.72    -2.059134     19.77552     59.55166        10     1.130     0.762 -68.80   0
       274    327.6666     23.6947 300.2940964 +22.4782742     291.9031     70.21843      1.507     5.55     -2.00728     19.77552     29.09929         6     0.987     0.879  17.76   0
       275    595.0200     19.2071 300.3787438 +22.5570948     538.9074     70.05785      1.505     2.52    -1.954985     19.77552     67.57594         8     0.798     0.632  42.71   0
       276    204.3805     16.9706 300.2579466 +22.4393878     181.6643     70.09356      1.344     3.85    -2.008276     19.77552     29.75274         5     0.883     0.482  85.44   0
       277    758.0056     13.9814 300.4312019 +22.6044083     434.1753     70.05785      1.346     3.33     -2.09273     19.77552     54.17799        10     1.015     0.695  -9.84   0
       278    202.4010   1019.2245 299.9316488 +22.7262297     727.3429     70.03998      3.079     5.13     8.833345     19.77552     37.56522         6     1.573     0.473  70.37  16
       279     81.8078    996.6124 299.9015467 +22.6835208     2955.669     69.98636     18.780    27.18     8.920611     19.77552     63.42281       221     4.978     4.121  75.81  19
       280    149.4982   1010.5543 299.9180342 +22.7078524     1161.366     70.12926      7.890    11.03     15.61959     19.77552     39.64319        26     2.326     1.457  40.18  16
       281    133.0089   1010.3192 299.9129880 +22.7028308     897.3169     70.03998      6.489     7.66     15.46056     19.77552     42.66438        11     1.753     0.937 -36.02   8
       282    656.2966   1008.1050 300.0764607 +22.8593396     3961.586     70.27187      1.131     1.97    -5.087512     19.77552     731.7646        24     1.012     0.823  44.29   0
