#   1 NUMBER                 Running object number                                     
#   2 X_IMAGE                Object position along x                                    [pixel]
#   3 Y_IMAGE                Object position along y                                    [pixel]
#   4 ALPHA_J2000            Right ascension of barycenter (J2000)                      [deg]
#   5 DELTA_J2000            Declination of barycenter (J2000)                          [deg]
#   6 FLUX_APER              Flux vector within fixed circular aperture(s)              [count]
#   7 FLUXERR_APER           RMS error vector for aperture flux(es)                     [count]
#   8 FLUX_RADIUS            Fraction-of-light radii                                    [pixel]
#   9 FWHM_IMAGE             FWHM assuming a gaussian core                              [pixel]
#  10 BACKGROUND             Background at centroid position                            [count]
#  11 THRESHOLD              Detection threshold above background                       [count]
#  12 FLUX_MAX               Peak flux above background                                 [count]
#  13 ISOAREA_IMAGE          Isophotal area above Analysis threshold                    [pixel**2]
#  14 A_IMAGE                Profile RMS along major axis                               [pixel]
#  15 B_IMAGE                Profile RMS along minor axis                               [pixel]
#  16 THETA_IMAGE            Position angle (CCW/x)                                     [deg]
#  17 FLAGS                  Extraction flags                                          
         1      6.5415     17.0294 300.1986588 +22.3768515     392.0273     70.14394      1.402     3.83    -1.333254      19.7847     62.34523         9     1.187     0.569  61.23  16
         2    526.4327     14.9884 300.3609444 +22.5321048     796.6107     70.10822      1.491     3.54    -2.083094      19.7847     85.57505        16     1.169     0.887  84.21   0
         3    631.6685     11.6075 300.3948011 +22.5626583     786.8839     70.10822      1.433     3.17    -2.437461      19.7847     91.20583        13     0.955     0.901 -82.00   0
         4    226.9149     10.7490 300.2691606 +22.4411254     332.4978     70.10822      1.441     3.43    -2.406263      19.7847     44.07941         5     1.054     0.478  54.86   0
         5    452.0251      5.5319 300.3408572 +22.5070938     1253.519     70.10822      1.530     3.26    -2.191067      19.7847     131.8708        18     1.121     0.980  48.17  16
         6     99.2799      3.5309 300.2318401 +22.4007868      759.353     65.12503      1.442     3.05    -1.355025      19.7847     84.62402        15     1.028     0.898  77.53  16
         7    249.8656   1011.1907 299.9511573 +22.7349727      462.572     70.09035      1.107     2.52  0.003032065      19.7847     76.65629         8     0.937     0.524 -53.80   0
         8    231.3140   1018.4275 299.9430350 +22.7314732     1478.959     70.12608      9.310    16.31     2.407695      19.7847     41.76728        43     3.599     2.055 -10.47  27
         9    241.9043   1018.6616 299.9462500 +22.7347216      1381.68     70.21534      5.412     7.52     1.267141      19.7847     43.59737        16     2.080     0.760 -21.15  19
        10    156.3585   1021.2348 299.9188310 +22.7097586     1149.737     65.96588      7.195    12.40      12.5388      19.7847     51.41681        21     2.908     1.471  67.28  18
        11    132.9613   1014.5089 299.9137531 +22.7008022     1195.257     70.10822      9.162     8.28     11.69264      19.7847     49.31853        16     1.888     1.512  39.37  18
        12    136.9780   1019.4287 299.9133986 +22.7034183     1221.638     70.12608      7.786     8.59      12.3498      19.7847     39.39457        14     1.898     1.087  30.90  27
        13     84.0322    984.6263 299.9082869 +22.6775414     2339.149     70.12608     17.740    37.35     4.360266      19.7847     58.55492       264     8.454     4.579   4.03  19
        14     86.1922    972.2068 299.9130016 +22.6746331     2131.569     69.98305     10.228    22.21     2.685329      19.7847     56.86792       120     4.859     2.819 -11.05   3
        15     86.1221   1010.4463 299.9005279 +22.6855647     3009.796     70.12608     17.982    57.36     8.524892      19.7847     72.80984       819    11.153     8.187  38.55  27
        16    567.1385   1007.6432 300.0509879 +22.8292313     876.8006     70.12608      1.061     1.81    -5.141472      19.7847     168.7365        12     0.826     0.762 -87.29   0
        17    116.3804   1003.0168 299.9123452 +22.6925286     1568.869     70.10822     11.835    15.36     9.680564      19.7847     52.15523        48     4.023     1.630 -24.56  19
        18    460.7199   1004.0533 300.0190443 +22.7962522     702.1957      70.1618      1.328     1.94    -4.853387      19.7847     141.2765         8     0.761     0.642   6.35   0
        19    391.6116   1002.2105 299.9981493 +22.7749722     3857.198     70.01883      1.073     1.86    -5.040737      19.7847     720.4666        21     0.909     0.837  68.05   0
        20    424.2141    989.0421 300.0125775 +22.7809879     368.7948     70.14394      1.215     3.26     -5.20346      19.7847     53.43124         9     0.929     0.723  17.85   0
        21    937.7778    980.5081 300.1752731 +22.9326679     1301.258      70.0546      1.067     1.81     -4.58387      19.7847     226.4103        15     0.900     0.764  81.14   0
        22    620.0212    974.8480 300.0781288 +22.8357015     47.95078     70.14394      0.954     2.94    -4.683071      19.7847     33.22791         5     0.788     0.495  56.11   0
        23    103.1209   1021.3049 299.9022711 +22.6937826     2044.083     65.75668     17.384    22.52     12.96324      19.7847      62.2694       102     5.238     2.689  -4.80  27
        24    726.7258    969.4258 300.1131198 +22.8661696     531.6312     70.14394      1.589     5.67    -5.146931      19.7847     65.86301        11     1.335     0.746  65.81   0
        25    761.5618    963.8541 300.1257847 +22.8750245     650.1637     70.12608      1.083     2.02    -5.072484      19.7847     104.2964         8     0.795     0.607   9.44   0
        26    783.7177    957.4877 300.1347597 +22.8798459     6704.919     70.23318      1.017     1.72    -5.002214      19.7847     1216.372        31     0.947     0.923 -67.67   0
        27    974.8024    957.0876 300.1944432 +22.9370517     300.4361      70.0546      1.107     2.00    -4.619669      19.7847     61.87186         6     0.716     0.524 -38.72   0
        28    829.1324    957.2131 300.1489985 +22.8933924     241.6245     70.14394      1.077     2.56    -4.965672      19.7847      75.5057         5     0.840     0.414  47.84   0
        29     95.0282    949.2860 299.9232087 +22.6707224     378.8539     70.12608      1.043     2.22   -0.2315061      19.7847     63.77988         7     0.687     0.643  32.58   0
        30    835.3920    944.8944 300.1549602 +22.8917359     305.9169     70.01883      1.072     2.37    -4.851285      19.7847     57.27656         5     0.712     0.445 -68.82   0
        31    488.7683    945.5640 300.0468166 +22.7879058     174.8626     70.14394      1.007     2.76    -4.546759      19.7847     49.50262         5     0.731     0.429  24.83   0
        32     64.9922    942.9539 299.9159421 +22.6598843     149.3067     70.14394      1.105     3.77    -2.887611      19.7847     39.25318         5     0.816     0.499 -65.94   0
        33    792.1311    939.7044 300.1431714 +22.8772683     796.3583     70.25101      1.112     2.01    -4.831559      19.7847      146.656        11     0.845     0.680 -87.00   0
        34    830.1854    932.8561 300.1572577 +22.8867199     408.5386     70.10822      1.058     2.06    -4.747165      19.7847     81.45296         8     0.756     0.614  37.88   0
        35    878.4125    923.9836 300.1751755 +22.8986408     308.0722     70.07248      1.111     2.18      -4.6972      19.7847     72.61377         7     0.769     0.587  60.34   0
        36    729.9470    923.2402 300.1291618 +22.8538877     400.1709     70.10822      1.107     1.81    -4.777256      19.7847     93.82528         7     0.668     0.620 -19.07   0
        37    442.6948    919.8090 300.0408687 +22.7666900     2386.277     70.03672      1.113     1.90    -4.499383      19.7847      474.347        16     0.914     0.768  68.09   0
        38    741.6984    920.3785 300.1337537 +22.8565927     410.0388      70.0546      1.142     2.25     -4.72029      19.7847     63.22142         6     0.652     0.621  42.28   0
        39    220.7088    908.5207 299.9755254 +22.6967964     268.9715     70.26884      1.149     2.86    -3.787681      19.7847     54.81323         5     0.885     0.499  -2.21   0
        40    104.4260    908.0710 299.9395450 +22.6617388     195.8582     70.12608      1.222     3.93     -3.91978      19.7847     30.98381         5     0.894     0.494  88.21   0
        41    167.9223    905.4284 299.9601300 +22.6800555     503.4571     70.12608      1.309     2.75    -3.120685      19.7847     73.05261        10     0.914     0.743 -31.16   0
        42    145.1279    902.7482 299.9539209 +22.6724406     1025.876     70.12608      1.180     2.03    -3.329575      19.7847     167.7078        13     0.899     0.781  19.95   0
        43   1016.6336    891.2584 300.2289212 +22.9307009     1132.869     70.14394      0.979     1.67    -4.807223      19.7847     255.7509        11     0.752     0.685  32.29   0
        44     19.8127    892.2539 299.9184175 +22.6317873     175.5639     70.14394      1.242     3.54    -4.942214      19.7847     33.21555         5     0.718     0.703  62.42   0
        45    970.9230    889.7911 300.2151454 +22.9165728     1251.817     70.09035      1.013     1.67     -4.74447      19.7847     307.7206         9     0.694     0.653 -22.29   0
        46    754.6912    883.5581 300.1497879 +22.8499272     459.2619     70.12608      1.158     2.17    -4.705923      19.7847     68.14033         6     0.791     0.462  88.83   0
        47    177.1725    884.0841 299.9699517 +22.6767179     182.1514     70.12608      1.126     2.33    -3.551365      19.7847     48.90152         5     0.744     0.489 -35.36   0
        48    622.6471    877.8492 300.1105273 +22.8086704     2747.671      70.1618      1.143     2.00    -4.847743      19.7847     496.7391        20     0.942     0.865 -59.71   0
        49    424.9286    874.9149 300.0499568 +22.7484852     215.8255     70.23318      1.010     2.04    -4.474998      19.7847     73.05247         6     0.681     0.563  49.00   0
        50    172.9386    871.9175 299.9725963 +22.6719599     757.5361     70.21534      1.198     2.12     -3.71742      19.7847     141.0212        13     0.990     0.755  49.08   0
        51    643.1007    870.3126 300.1193483 +22.8126462     416.8427     70.28666      1.122     2.22    -4.860413      19.7847     68.99842         7     0.709     0.617   7.64   0
        52    192.2766    869.1075 299.9795194 +22.6769626     243.5039     70.26884      1.165     2.83    -3.817693      19.7847     49.75351         5     0.749     0.422  76.16   0
        53    559.9622    861.1750 300.0964428 +22.7850763     197.6144     70.14394      1.053     2.79    -4.596189      19.7847     39.12521         5     0.774     0.490  62.54   0
        54   1015.6058    857.5808 300.2395639 +22.9207245     683.6758     70.09035      1.104     2.53    -4.790823      19.7847      110.476        10     0.914     0.659   3.73   0
        55    798.5319    857.4728 300.1719365 +22.8555940     2316.954      70.1975      1.024     1.90    -4.645058      19.7847     394.2513        17     0.936     0.761  42.71   0
        56    206.8612    851.7856 299.9896890 +22.6763786     256.3758     70.09035      1.113     2.52    -3.962133      19.7847      52.1501         6     0.837     0.469  34.26   0
        57    515.7126    850.1193 300.0862708 +22.7686254     357.2199     70.25101      1.237     2.29    -4.505956      19.7847     59.97853         7     0.810     0.559  62.49   0
        58    162.0996    848.1146 299.9769756 +22.6618835     563.9056     70.28666      1.272     2.55    -4.033743      19.7847     104.2096        11     0.914     0.778  71.05   0
        59    311.7989    840.3729 300.0260197 +22.7046183     31326.59     70.07248      1.175     1.96    -4.193175      19.7847     5285.187        62     1.097     1.066  48.95   0
        60    577.2017    843.3727 300.1076027 +22.7851439     308.5891     70.07248      1.038     1.99    -4.635631      19.7847     64.08396         6     0.665     0.593 -71.33   0
        61    569.6416    839.2958 300.1065766 +22.7817058     1021.566     70.14394      1.265     2.33    -4.597589      19.7847      140.695        16     0.976     0.877 -69.73   0
        62    982.6340    838.2734 300.2355669 +22.9052956     440.1059     70.10822      1.021     2.85    -4.695674      19.7847     100.8404         8     0.897     0.631  53.59   0
        63    598.5829    835.0465 300.1169679 +22.7891717     619.0014      70.1618      1.264     2.76    -4.681155      19.7847     81.46535        10     0.913     0.701  47.97   0
        64    609.4895    833.6231 300.1208262 +22.7920361      404.679      70.0546      1.024     2.47    -4.707224      19.7847     63.67516         7     0.793     0.587  16.69   0
        65    714.7977    829.9852 300.1548000 +22.8225881     308.1314     69.96514      1.480     3.67    -4.666152      19.7847     32.61419         5     0.801     0.499 -28.61   0
        66    752.4465    819.9526 300.1697916 +22.8310034     406.8358     70.12608      0.976     1.91    -4.654613      19.7847     83.58063         6     0.712     0.497  89.74   0
        67    361.4503    817.5994 300.0488688 +22.7129960     18449.86     70.09035      1.151     2.08    -4.256872      19.7847     2671.788        44     1.098     0.995  55.13   0
        68    375.8147    817.9782 300.0532124 +22.7174168     1106.328     70.12608      1.233     2.00    -4.312615      19.7847     203.1546        14     0.939     0.773 -65.49   0
        69    884.3827    813.2406 300.2130852 +22.8686480     1582.712     70.14394      1.043     1.74    -4.621432      19.7847     328.2408        16     0.899     0.764  87.23   0
        70    372.4806    812.0095 300.0541179 +22.7147045     399.1444     70.07248      1.171     3.77    -4.276401      19.7847     46.41956         8     0.863     0.644   2.85   0
        71    914.0963    811.3088 300.2229755 +22.8770038     134.3972     70.30448      0.751     2.19    -4.584376      19.7847     53.32207         5     0.749     0.397  21.85   0
        72    243.9580    809.2773 300.0150509 +22.6753349     443.8967     70.10822      1.191     2.34    -4.094333      19.7847     81.83065         9     0.882     0.620  55.44   0
        73    642.3320    809.0639 300.1390433 +22.7948450     493.3625     70.17965      1.190     2.35    -4.553721      19.7847     95.77952         9     0.788     0.713  22.74   0
        74     48.4109    804.8398 299.9557450 +22.6153359     264.5793     70.12608      1.049     2.58    -4.696681      19.7847      46.4297         7     0.818     0.585 -12.94   0
        75    489.7950    804.1908 300.0931535 +22.7476750      498.771     69.98305      1.302     1.99    -4.501652      19.7847     80.22788         6     0.693     0.542 -53.40   0
        76    391.1732    800.3617 300.0637213 +22.7169760     194.2603     70.14394      1.026     3.46    -4.329076      19.7847     28.49434         5     0.795     0.435  17.92   0
        77    868.5795    795.3963 300.2139670 +22.8587869     329.7744     70.09035      1.556     4.35     -4.58523      19.7847     39.05094         7     1.046     0.516 -43.95   0
        78    241.6750    793.7518 300.0193931 +22.6701991     300.8902     70.12608      1.257     2.00    -4.101452      19.7847     59.18747         5     0.667     0.461  80.04   0
        79    564.6564    783.8577 300.1230658 +22.7643079     318.4873     70.19749      1.145     2.91    -4.359947      19.7847     51.55458         7     0.824     0.612  20.44   0
        80    534.3123    782.5485 300.1140481 +22.7548271      346.692      70.1618      1.132     2.82     -4.35807      19.7847     51.27966         6     0.683     0.649  57.68   0
        81    556.2836    779.8746 300.1217559 +22.7606530     781.6593     70.21534      1.247     2.38    -4.325427      19.7847     110.6116        12     0.885     0.782  77.86   0
        82    476.4145    779.7300 300.0969497 +22.7366438     198.9167     70.14394      0.968     3.45    -4.381369      19.7847     36.06982         5     0.777     0.444 -70.37   0
        83    950.7711    778.3578 300.2451315 +22.8785408     2633.062     70.14394      1.078     1.76    -4.408992      19.7847     489.1988        18     0.847     0.826  17.88   0
        84    939.2925    769.8096 300.2443345 +22.8726450     937.8572     70.07248      1.093     1.94    -4.329421      19.7847     190.2586        11     0.894     0.653  40.35   0
        85    302.1982    764.0591 300.0478669 +22.6798578     508.8035     70.09035      1.463     2.26    -4.013953      19.7847     67.25821         8     0.778     0.636 -44.53   0
        86    765.6103    761.2554 300.1929926 +22.8181071     1519.825     70.12608      1.166     1.90    -4.359412      19.7847     237.2059        18     0.956     0.866  -7.17   0
        87    970.3533    760.0970 300.2571787 +22.8791686     957.3323      70.1618      1.052     1.79    -4.323371      19.7847     192.5369        12     0.775     0.752   2.21   0
        88    847.5275    747.1122 300.2231173 +22.8386140     297.2183     70.26884      1.118     4.88    -4.255636      19.7847     58.12392         8     1.031     0.659 -53.29   0
        89    151.1322    747.9515 300.0061589 +22.6298836      260.885     70.12608      1.170     2.35    -4.308514      19.7847     65.34315         7     0.704     0.653  30.38   0
        90    884.0174    738.1309 300.2374116 +22.8469771     87072.52     70.14394      1.195     1.91      -4.1463      19.7847     16678.22       101     1.147     1.100  48.07   0
        91    736.3469    738.4012 300.1913127 +22.8027711     379.5076     70.09035      1.070     2.96    -4.178296      19.7847     76.37704         5     0.717     0.485   7.91   0
        92    570.1217    727.0844 300.1432378 +22.7496605      979.376     70.23318      1.363     3.50    -3.902068      19.7847     127.5595        17     1.225     0.899   7.74   0
        93    751.4896    724.3611 300.2005971 +22.8032831     5439.513     70.10822      1.171     2.13    -4.154518      19.7847     720.0516        29     1.059     0.944  45.08   0
        94    253.2037    719.6871 300.0470716 +22.6524276     2883.099      70.0546      1.237     2.31    -3.946519      19.7847     388.8293        24     1.062     0.937  78.02   0
        95    335.2506    717.9186 300.0731531 +22.6765494     644.0297     70.14394      1.184     2.72    -3.897326      19.7847     93.01761        11     0.971     0.710  72.95   0
        96    543.3937    713.1983 300.1394363 +22.7376576     354.6291     69.94724      1.210     3.09    -3.781527      19.7847     66.70555        10     0.929     0.799  77.19   0
        97    535.0951    705.3171 300.1394173 +22.7329067     1749.887     70.30448      1.230     2.25    -3.732388      19.7847     284.5993        19     1.012     0.858  64.89   0
        98    525.2470    699.1783 300.1383493 +22.7281908     851.4293      70.1618      1.270     2.62    -3.697376      19.7847     108.9787        12     0.885     0.798  44.70   0
        99    918.6000    696.6694 300.2616791 +22.8454412     200.8563     70.07248      1.096     2.75    -3.813455      19.7847     45.98706         5     0.694     0.476  76.97   0
       100    188.7685    695.0790 300.0350507 +22.6260281      297.704     70.12608      1.217     3.59    -4.044935      19.7847     59.14428         8     1.034     0.601 -21.08   0
       101    202.9432    693.6749 300.0399120 +22.6298811     318.0795      70.1618      1.295     2.70    -3.979529      19.7847     66.09378         7     1.023     0.562  86.49   0
       102    228.4567    690.5307 300.0488634 +22.6366390      287.607     70.14394      1.311     3.16    -3.868279      19.7847     52.89907         7     0.853     0.656  65.49   0
       103    971.7455    689.7643 300.2804940 +22.8593898     350.6073     70.14394      1.242     2.40    -3.994203      19.7847     51.87192         6     0.694     0.621  -8.47   0
       104    450.0492    688.8428 300.1183140 +22.7026628     995.9443      70.1618      1.329     2.56    -3.815727      19.7847     129.7194        11     0.852     0.775 -84.40   0
       105    104.1152    683.9238 300.0123790 +22.5974132     11594.91     70.23318      1.276     2.17    -4.069346      19.7847     1796.182        40     1.111     1.027  53.43   0
       106     24.9169    685.4196 299.9872966 +22.5740591     491.0948     70.07248      1.234     2.56    -3.996465      19.7847     67.43198         8     0.763     0.672  60.93   0
       107    534.7521    684.1266 300.1462030 +22.7267243     594.5355     70.12608      1.375     2.79    -3.564268      19.7847     89.06665        11     0.981     0.745 -12.61   0
       108    288.1514    675.2864 300.0723761 +22.6501871     205.1311     70.10822      1.319     3.09    -3.804732      19.7847     40.36897         5     0.744     0.649 -62.89   0
       109    952.9479    670.0697 300.2810392 +22.8480993     583.3787     70.10822      1.151     2.49    -3.801353      19.7847     104.4607        11     0.826     0.762 -65.78   0
       110     50.0539    668.0201 300.0007606 +22.5766211     857.4252     70.10822      1.712     5.01    -3.938606      19.7847     74.92257        20     1.559     0.935 -77.09   0
       111    819.8508    668.1157 300.2401903 +22.8076369     315.5093     70.10822      1.358     2.53    -3.914578      19.7847     43.31899         6     0.720     0.563 -33.42   0
       112    116.4077    668.6435 300.0211667 +22.5967241     281.5554     70.14394      1.197     3.95    -4.044638      19.7847     41.05854         6     0.931     0.479  -1.13   0
       113    498.5342    664.2709 300.1413904 +22.7101615     189.1378      70.1618      1.257     3.04    -3.481767      19.7847     36.71293         5     0.762     0.695 -40.07   0
       114    893.0873    662.6149 300.2648031 +22.8280144     516.7213     70.07248      1.333     2.29      -3.6433      19.7847     70.27077         8     0.778     0.639  75.08   0
       115    455.3743    656.8933 300.1303614 +22.6950955     448.8134     70.07248      1.321     3.42    -3.614119      19.7847     60.03633        11     1.020     0.774 -40.99   0
       116    603.0350    655.5376 300.1767543 +22.7390049     313.8888     70.12608      1.330     4.92    -3.576765      19.7847     38.87575         8     0.895     0.828  10.04   0
       117    621.0215    653.5048 300.1830148 +22.7438166     298.3099     70.03672      1.424     2.76     -3.60285      19.7847     33.78247         6     0.766     0.499   2.81   0
       118    499.4717    652.8942 300.1453819 +22.7071788      534.785     70.23318      1.300     3.06    -3.477128      19.7847     61.75469         8     0.946     0.550  47.58   0
       119    933.0006    648.0152 300.2819933 +22.8357865     2048.662     69.98305      1.237     2.14    -3.663887      19.7847     343.4937        19     0.996     0.865  67.65   0
       120    464.7685    648.3406 300.1360653 +22.6954605     909.0022     70.14394      1.339     2.80    -3.543852      19.7847     122.4331        15     1.004     0.871  65.70   0
       121     26.8894    642.0964 300.0019971 +22.5622349     2910.773     70.30448      1.279     2.18    -3.707218      19.7847     440.4167        24     1.080     0.913  62.91   0
       122    971.8668    637.6460 300.2974831 +22.8444580     149.7567     70.12608      1.122     4.28    -3.775788      19.7847     35.34887         5     1.137     0.459   7.39   0
       123    328.2753    635.1478 300.0979033 +22.6507185     5394.001     70.14394      1.306     2.49     -3.61456      19.7847     634.6985        30     1.091     1.058 -88.43   0
       124    450.6572    632.1303 300.1369466 +22.6865761     5089.015     70.14394      1.329     2.43    -3.530013      19.7847     712.0272        28     1.066     1.030  45.98   0
       125    215.9810    629.1033 300.0649620 +22.6152811     200.7296     70.03672      0.929     2.99     -3.71458      19.7847     33.49706         5     0.643     0.576  88.62   0
       126    946.8453    623.2499 300.2943633 +22.8328239     7161.342     70.14394      1.189     1.98    -3.667536      19.7847     1227.207        30     0.998     0.976  23.73   0
       127    862.3334    625.7302 300.2672133 +22.8082036     985.3741     70.17965      1.224     2.41    -3.639728      19.7847     146.3042        15     0.976     0.846  84.38   0
       128    511.2343    621.6732 300.1591946 +22.7017497     6778.729     70.10822      1.355     2.49    -3.455433      19.7847     817.4007        35     1.163     1.075  33.89   0
       129    238.7033    617.2454 300.0758794 +22.6187011     809.5829     70.14394      1.265     2.34     -3.65925      19.7847     117.1628        13     0.900     0.818  52.80   0
       130    442.9434    609.9176 300.1417695 +22.6778891     2523.444     70.17965      1.337     2.60    -3.429278      19.7847     313.9231        22     1.042     0.978 -75.00   0
       131    785.8841    609.7538 300.2485865 +22.7806969     579.8118     70.10822      1.362     3.04    -3.692112      19.7847     70.73639        11     0.893     0.836 -14.44   0
       132    421.3676    608.3663 300.1355623 +22.6709706     764.7922      70.1975      1.321     2.68    -3.387753      19.7847     87.87726        11     0.852     0.800 -48.73   0
       133    175.4808    607.7662 300.0593142 +22.5970057     518.9121     70.09035      1.128     2.47    -3.726872      19.7847      69.2532         7     0.868     0.488 -81.57   0
       134    862.5977    605.1730 300.2739804 +22.8023796     890.8915     70.07248      1.313     2.67    -3.629912      19.7847     116.3046        14     0.990     0.828 -14.81   0
       135    559.5102    597.4018 300.1821103 +22.7092661     119811.8     70.03672      1.383     2.56    -3.306912      19.7847     14413.88       144     1.364     1.315   2.24   0
       136    383.1898    603.8288 300.1251632 +22.6582138     111.0852     70.12608      1.453     5.47    -3.353837      19.7847     24.01174         5     1.165     0.723 -79.58   0
       137    743.4397    602.0704 300.2378624 +22.7657650     483.2153     70.07248      1.429     3.99    -3.768271      19.7847     63.87535        10     1.129     0.746 -30.04   0
       138    245.6055    597.4908 300.0844474 +22.6151077     2197.211     70.03672      1.374     2.52    -3.611376      19.7847     267.3884        21     1.028     0.971  81.87   0
       139    811.6557    593.1899 300.2620020 +22.7836673      294.636     70.12608      1.080     2.16    -3.518098      19.7847     45.28862         5     0.709     0.441 -71.36   0
       140    450.1081    577.8613 300.1544205 +22.6708412     1553.299     70.21534      1.496     2.79    -3.177209      19.7847     160.6433        22     1.370     0.947  76.48   0
       141    767.3684    566.2006 300.2569787 +22.7626406     250.4144     70.09035      1.412     4.33    -3.358231      19.7847     39.03868         7     0.883     0.791 -40.60   0
       142    847.1183    563.6371 300.2826608 +22.7858115     1014.174     70.09035      1.376     2.56     -3.49755      19.7847     120.2882        13     0.922     0.807  73.53   0
       143    718.1379    561.3812 300.2432103 +22.7464969     1503.583     70.10822      1.416     2.77    -3.300838      19.7847      167.342        18     1.076     0.979  30.37   0
       144    505.3398    557.2307 300.1783117 +22.6814895     396.4112      70.1618      1.275     4.17    -2.941834      19.7847     55.38108         9     0.958     0.891 -70.06   0
       145    975.6138    555.4209 300.3253872 +22.8219626     692.2271     70.09035      1.147     2.33    -3.306197      19.7847     101.2763        12     0.912     0.739  30.56   0
       146    961.1892    554.3538 300.3212364 +22.8173335     595.5978     70.14394      1.687     3.37    -3.356476      19.7847     55.38218         9     0.938     0.711 -33.94   0
       147    847.3487    554.3062 300.2857660 +22.7832009     1306.235      70.1975      1.325     2.51    -3.467151      19.7847     155.7905        13     0.931     0.831  54.19   0
       148    600.7964    551.8041 300.2097855 +22.7085617     347.6164     69.92933      1.468     3.85    -2.962372      19.7847     36.58483         6     0.792     0.538  36.57   0
       149    885.4429    548.8841 300.2994013 +22.7930616     2579.998     70.09035      1.280     2.34    -3.545202      19.7847      326.886        23     1.021     0.962 -55.55   0
       150    117.6198    539.4109 300.0635582 +22.5600373     606.5717     70.10822      1.320     2.52    -3.645836      19.7847     81.09791        11     0.872     0.775  55.01   0
       151    977.2565    539.1071 300.3312028 +22.8177684     441.9319     70.17965      1.243     2.29    -3.212251      19.7847     74.14682         7     0.741     0.606  66.97   0
       152    717.8719    523.2484 300.2555231 +22.7354686     258.9982     70.10822      1.197     4.44    -3.095379      19.7847      28.8671         7     0.922     0.607  31.49   0
       153    658.8872    519.3241 300.2384294 +22.7166572     403.2258     70.25101      1.351     3.15    -2.897499      19.7847     59.07072        10     0.874     0.816 -48.46   0
       154    973.0237    511.7460 300.3387768 +22.8086395      442.346     70.14394      1.410     2.24    -3.104905      19.7847     55.92413         7     0.711     0.643   0.98   0
       155    719.4725    511.6885 300.2597790 +22.7326293     572.3065     70.28666      1.476     4.14    -3.066821      19.7847     50.88214        10     0.977     0.694   9.73   0
       156    876.8078    507.7653 300.3100757 +22.7786632     502.5551     70.12608      1.193     2.48    -3.236046      19.7847     89.99609        11     0.865     0.777  48.35   0
       157    861.2028    504.1191 300.3063972 +22.7729390     414.5804     70.03672      1.256     2.75    -3.206857      19.7847     55.13693         6     0.741     0.553  50.91   0
       158    605.4037    502.3271 300.2273017 +22.6957407     1803.477     70.07248      1.431     2.79    -2.670618      19.7847     211.3932        21     1.085     1.034 -77.70   0
       159   1016.6039    480.9722 300.3623689 +22.8128549     854.8228     70.09035      1.203     3.81    -2.989361      19.7847     126.9585        14     1.132     0.745  70.52  16
       160    888.5381    480.8606 300.3224762 +22.7744502     325.1926      70.1618      1.164     2.53    -2.987964      19.7847     59.14369         8     0.780     0.723 -41.56   0
       161    975.0937    479.9223 300.3497655 +22.8001166     490.0755     70.25101      1.184     2.26    -2.964539      19.7847     88.78127         7     0.824     0.504  46.75   0
       162    716.0248    476.1673 300.2702495 +22.7213959     692.9934     70.12608      1.394     3.19    -2.958169      19.7847      81.9783        12     1.051     0.752  41.30   0
       163    512.3058    476.3960 300.2067522 +22.6603791      215.067     70.03672      1.137     3.90    -2.363735      19.7847     37.03747         6     0.951     0.459  87.16   0
       164    220.1463    474.5735 300.1164861 +22.5722127     438.5782     70.14394      1.431     4.62    -3.252329      19.7847     47.78346         8     0.920     0.659 -62.05   0
       165    282.5263    470.3734 300.1372406 +22.5897250     2033.627     70.12608      1.305     2.44    -2.956454      19.7847     256.9682        19     1.072     0.886  82.85   0
       166   1015.3458    468.3178 300.3660891 +22.8088418     2496.394     70.17965      1.168     2.18    -2.987306      19.7847     352.9885        20     0.968     0.901  50.29   0
       167    229.5999    465.0970 300.1225035 +22.5723310     4231.324     70.00094      1.388     2.53    -3.142008      19.7847     565.9758        29     1.132     1.052  64.62   0
       168    370.3428    459.3588 300.1681249 +22.6129098     2849.892     70.10822      1.462     2.86    -2.730152      19.7847     319.4777        27     1.156     1.101  36.05   0
       169    995.2953    459.5236 300.3626941 +22.8003079     1098.794     70.26884      1.185     2.53    -2.976202      19.7847     140.3759        14     0.998     0.801  62.77   0
       170    614.5599    455.8470 300.2452570 +22.6851422     10681.61     70.17965      1.472     2.85    -2.495443      19.7847     1228.717        47     1.241     1.209  72.66   0
       171    630.6335    456.9932 300.2498888 +22.6902904     449.9498     70.12608      2.552     4.13    -2.569816      19.7847     36.50677         5     0.970     0.655 -35.21   2
       172    812.0107    446.0310 300.3099450 +22.7415113     312.3103     70.12608      1.410     2.76    -2.964258      19.7847     36.30751         5     0.631     0.582  -0.32   0
       173    947.8437    438.4130 300.3547580 +22.7800255     442.7028     70.14394      1.435     3.86    -2.954383      19.7847     61.03351         8     0.970     0.644 -35.13   0
       174    169.2978    436.2997 300.1131203 +22.5459758     1169.212      70.3401      1.369     2.72    -3.182208      19.7847     125.6058        15     1.004     0.838  73.05   0
       175    555.1785    425.4195 300.2366587 +22.6586020     3791.431     70.12608      1.443     2.75    -2.347806      19.7847     381.6397        28     1.207     1.059  69.08   0
       176    968.8527    425.3616 300.3655492 +22.7825696     629.8304     70.12608      1.121     2.30    -2.965022      19.7847      111.234        12     0.878     0.771  43.26   0
       177    270.1388    424.8719 300.1481736 +22.5729541     274.6297      70.1618      1.340     3.17    -2.769073      19.7847     48.36416         7     0.903     0.593  73.33   0
       178    127.2055    417.4425 300.1061687 +22.5279357     212.8669     70.14394      1.485     3.44    -3.067656      19.7847     32.37869         5     0.794     0.431  21.78   0
       179    759.3795    414.4297 300.3038149 +22.7166606     757.2909     70.12608      1.868     4.26    -2.945162      19.7847     68.94404        13     1.111     0.976 -62.24   0
       180    669.0594    415.8375 300.2752260 +22.6899926     429.7112     70.14394      1.355     2.16     -2.54557      19.7847     59.84652         5     0.741     0.480  54.28   0
       181    461.8585    411.6599 300.2120892 +22.6266688      3526.03     70.19749      1.509     2.91    -2.414384      19.7847     391.7044        25     1.111     1.095  62.79   0
       182    853.8081    406.0449 300.3359622 +22.7425502     795.7739     70.14394      1.446     3.45    -3.038898      19.7847     100.5306        13     1.145     0.769  79.15   0
       183    950.7915    405.6836 300.3663113 +22.7715042     382.7149     70.07248      1.270     3.12    -2.956949      19.7847     53.90277         7     0.896     0.549  56.76   0
       184    826.5241    393.6886 300.3314737 +22.7308247     234.0578     70.25101      1.200     3.34    -3.005544      19.7847     39.80085         6     0.878     0.463  -0.88   0
       185    349.3114    390.9317 300.1838154 +22.5869649     1384.384     70.28666      1.399     2.82    -2.548189      19.7847     190.0014        19     1.059     0.976  62.99   0
       186     67.9526    388.6378 300.0971200 +22.5018924     682.6838      70.1618      1.564     3.44    -3.153927      19.7847     74.06733        13     1.189     0.758 -66.84   0
       187    318.7363    380.3944 300.1777309 +22.5747701     17303.43     70.10822      1.490     2.74     -2.55049      19.7847     2031.547        57     1.302     1.227  81.16   0
       188    853.2143    377.4426 300.3450690 +22.7341548     783.9656     70.14394      1.342     3.08    -3.126082      19.7847     100.2886        17     1.079     0.977 -83.00   0
       189     15.1517    368.2877 300.0873322 +22.4802097     2997.072     70.12608      1.329     2.64    -3.313841      19.7847     340.3418        25     1.140     0.956  61.43   0
       190    768.6348    366.3468 300.3223185 +22.7056228     399.4378     70.14394      1.677     4.30    -2.911366      19.7847     41.57731         8     1.023     0.749  51.11   0
       191    728.9525    359.9370 300.3120389 +22.6918894     1100.883     70.14394      1.413     3.10     -2.81122      19.7847     113.3865        16     1.078     0.872  55.17   0
       192    538.1461    354.3524 300.2544436 +22.6330914     298.9592      70.1618      1.583     4.58    -2.365031      19.7847     28.84535         5     0.855     0.696 -69.08   0
       193    944.3079    352.4894 300.3815701 +22.7542756     378.9492     70.28666      1.468     3.10    -2.943465      19.7847     60.23633         9     0.997     0.629   4.41   0
       194    390.8679    344.8711 300.2117004 +22.5862084     1259.136      70.1618      1.666     3.78    -2.512371      19.7847      106.924        21     1.205     1.132  55.71   0
       195    829.9065    337.5637 300.3507588 +22.7157135     328.3508     70.09035      1.201     3.74    -3.037759      19.7847     44.69299         8     0.936     0.611  14.51   0
       196    712.6153    335.1904 300.3149879 +22.6798849     243.8139      70.0546      1.359     2.69    -2.583852      19.7847       41.365         5     0.739     0.429 -67.64   0
       197    466.8002    324.1749 300.2420430 +22.6030362     616.0428     70.07248      1.355     3.08    -2.460692      19.7847     70.93311        11     0.966     0.762  74.88   0
       198    978.1087    319.6398 300.4027787 +22.7549592     171.8361     70.12608      0.864     3.19    -2.668689      19.7847     48.90135         6     0.916     0.523 -63.86   0
       199    711.5004    315.7395 300.3209577 +22.6739635     1273.255     70.21534      1.489     3.16    -2.496618      19.7847     122.1737        17     1.045     0.994  74.64   0
       200    972.7188    310.0154 300.4042237 +22.7505785     1729.637     70.10822      1.282     2.46    -2.597908      19.7847     233.5656        17     1.015     0.875  33.38   0
       201    420.1976    299.5296 300.2355479 +22.5819875     355.8648     70.07248      1.268     2.96    -2.530468      19.7847     49.13775         7     0.844     0.583  72.73   0
       202     95.0109    294.1582 300.1362071 +22.4829106     808.1171     70.12608      1.616     4.37    -2.844171      19.7847     64.06287        17     1.335     0.847 -41.27   0
       203    125.4835    294.5105 300.1455591 +22.4921541     464.2019     70.23318      1.454     2.55     -2.72989      19.7847     57.42957         5     0.721     0.467 -18.80   0
       204    783.2557    277.3193 300.3557869 +22.6844266     425.3576      70.1618      1.382     4.09    -2.509721      19.7847     47.79815        10     0.940     0.756 -26.75   0
       205    881.1777    266.0930 300.3899477 +22.7105355     1245.916     70.03672      1.346     2.73    -2.890386      19.7847     144.1352        16     1.045     0.859  43.00   0
       206    299.8645    263.8817 300.2096998 +22.5356705     1166.643     70.23318      1.430     3.11    -2.369186      19.7847     118.3763        20     1.121     1.023  25.05   0
       207    377.6822    258.6801 300.2355871 +22.5575122     596.6299     70.25101      1.559     3.99    -2.314205      19.7847     53.57312        11     1.025     0.809 -84.20   0
       208    779.8627    257.6648 300.3611114 +22.6777625     260.2779      70.1618      1.493     3.38    -2.458374      19.7847     37.74059         5     0.782     0.422  18.72   0
       209    194.5302    251.3070 300.1810401 +22.5004698     423.6917     70.25101      1.575     4.48    -2.511503      19.7847     52.06638         9     0.930     0.772 -64.74   0
       210    732.4657    247.6744 300.3495894 +22.6606914     796.6353     70.17965      1.502     3.51    -2.385748      19.7847     92.92986        17     1.109     0.982 -78.85   0
       211    796.5399    247.1975 300.3697060 +22.6797511     325.2282     70.10822      1.610     4.45    -2.451541      19.7847     31.95229         6     0.949     0.594  22.02   0
       212    216.3636    244.2211 300.1901259 +22.5049849     322.9776     70.14394      1.388     3.43    -2.462164      19.7847     33.59315         5     0.748     0.454  74.41   0
       213   1003.8334    239.9545 300.4366762 +22.7397570     379.6055      70.1618      1.191     2.87    -2.250328      19.7847     59.62306         9     0.889     0.666  72.22   0
       214    736.4387    239.2900 300.3535491 +22.6594728     464.8826     70.10822      1.618     3.58    -2.384929      19.7847     42.58598        10     1.055     0.663 -36.31   0
       215    657.0927    238.5515 300.3290764 +22.6354855     616.6946      70.1618      1.363     2.97    -2.404359      19.7847     70.15633        13     0.985     0.831 -36.40   0
       216    583.1046    230.4135 300.3086824 +22.6109750     553.6122      70.0546      1.490     3.31    -2.505439      19.7847     71.43137        11     0.979     0.835  38.10   0
       217    852.1838    229.7300 300.3927169 +22.6914000     883.0232     70.14394      1.464     3.24     -2.60964      19.7847     93.76033        15     1.061     0.885  -2.66   0
       218    864.0991    229.0504 300.3966512 +22.6947737     427.8472     70.21534      1.253     2.21    -2.649477      19.7847     77.64427         7     0.825     0.510  42.65   0
       219    980.9171    218.9922 300.4363352 +22.7268682     638.9034      70.0546      1.301     2.88    -2.259233      19.7847     86.07045        11     0.851     0.829 -23.36   0
       220      4.8662    216.4375 300.1334416 +22.4335676     403.8559     69.17293      1.692     3.91    -2.798573      19.7847     41.61948         7     0.967     0.683   2.33  16
       221    215.2108    212.5497 300.2000484 +22.4955493     328.0307      70.1618      1.476     3.96    -2.376294      19.7847     51.56836        10     1.023     0.794  52.42   0
       222     77.1880    207.4458 300.1588205 +22.4526851     1320.538     70.12608      1.423     2.84     -2.49802      19.7847     134.0834        18     1.006     0.987 -84.15   0
       223    900.2581    204.2688 300.4159668 +22.6984806     373.0599     70.14394      1.235     2.37    -2.399654      19.7847     58.32079         6     0.689     0.584  33.73   0
       224     26.9305    204.2242 300.1442573 +22.4366835     363.7389     70.12608      1.273     2.84    -2.589373      19.7847     49.29478         5     0.771     0.494  53.02   0
       225    234.4943    200.8276 300.2098467 +22.4979679     3299.149     70.03672      1.485     2.78    -2.281712      19.7847     406.0575        29     1.201     1.148  73.39   0
       226     18.9176    195.2094 300.1446948 +22.4316932     777.6954     70.07248      1.334     3.15    -2.497579      19.7847     99.22421        14     1.046     0.857  67.14   0
       227    217.9558    190.9191 300.2079223 +22.4901641     386.7845     70.10822      1.484     5.00    -2.244831      19.7847     36.56735         9     1.041     0.679  73.55   0
       228    878.5442    182.0464 300.4164116 +22.6855897     2042.245      70.1618      1.424     2.77    -2.361089      19.7847     228.7253        23     1.217     0.963  17.43   0
       229    982.0759    180.4593 300.4492047 +22.7161369     1483.545     70.17965      1.298     2.60    -2.195059      19.7847     209.8245        18     1.001     0.924  53.88   0
       230    428.1168    177.7808 300.2775354 +22.5494041     364.4078     70.07248      1.564     4.58    -2.096539      19.7847     47.53609         5     0.923     0.667 -19.45   0
       231    352.5442    169.1782 300.2568213 +22.5242787     459.1562      70.1618      1.767     3.67    -2.048587      19.7847     45.56302         7     0.836     0.631  61.55   0
       232    118.0305    166.7175 300.1847261 +22.4532490     240.4368     70.14394      1.236     3.72     -2.14401      19.7847     39.35314         7     0.731     0.685 -16.50   0
       233    479.4692    164.8460 300.2977103 +22.5610818     1018.369     70.10822      1.524     3.25    -2.058028      19.7847     125.7288        18     1.160     0.986  72.63   0
       234    408.2141    165.1667 300.2754379 +22.5398157     317.9294     70.10822      1.416     3.42    -2.056233      19.7847     29.50699         5     0.995     0.340 -47.86   0
       235    253.5288    144.5422 300.2340300 +22.4875186     3427.917      70.1618      1.474     2.69    -2.074683      19.7847     440.7347        27     1.165     1.048  86.91   0
       236    104.3438    144.1988 300.1877816 +22.4426814     487.3417      70.0546      1.462     3.42    -1.902519      19.7847     43.51128         7     0.824     0.620 -61.04   0
       237    225.6969    138.5836 300.2273124 +22.4774626      464.086     70.03672      2.138     3.80    -2.079007      19.7847     41.36639         5     0.885     0.467  46.61   0
       238    499.4341    129.7925 300.3152983 +22.5569970     3675.548     70.12608      1.559     2.96    -2.052289      19.7847     401.2639        30     1.287     1.103  88.86   0
       239    384.8632    129.7256 300.2796756 +22.5226383     367.3586      70.1618      1.551     5.25    -2.049984      19.7847     35.02968         9     1.030     0.757 -45.68   0
       240    751.9966    119.0447 300.3974236 +22.6295787     405.6644     70.12608      1.388     4.37    -1.992963      19.7847     48.48446         9     0.994     0.775 -17.84   0
       241    844.3204    117.6782 300.4266345 +22.6568369     343.8375     70.25101      1.492     5.26    -2.138318      19.7847     29.48096        10     0.990     0.789  44.93   0
       242    192.2036    113.6687 300.2249870 +22.4602672     323.0354     70.09035      1.500     3.53    -1.999123      19.7847      35.0801         6     0.716     0.666  70.05   0
       243    550.8646    112.2940 300.3369826 +22.5673823     266.9247     70.23318      1.248     4.84    -2.058123      19.7847     32.08936         8     1.025     0.649 -10.67   0
       244    627.7847    109.8170 300.3617324 +22.5897175     3660.759     70.09035      1.486     3.03    -2.088508      19.7847     404.7847        31     1.189     1.145 -71.88   0
       245    402.6689    109.0405 300.2919258 +22.5220350     809.8129     70.10822      1.618     4.19    -2.049599      19.7847     86.28078        14     1.052     1.008  32.62   0
       246    668.8121    107.1966 300.3753583 +22.6012558     445.4347     69.96514      1.382     3.33    -2.109087      19.7847     62.22005        11     1.044     0.737  56.51   0
       247    684.8223    102.9724 300.3817149 +22.6048379     446.7711     70.12608      1.349     3.62    -2.068353      19.7847     47.87444         8     0.954     0.599  22.77   0
       248    152.0112    101.3549 300.2164924 +22.4446801     283.8935     70.12608      1.415     4.45    -1.783218      19.7847     42.41698         7     0.881     0.640  70.42   0
       249    954.4105    100.2833 300.4665973 +22.6848002     180.4917     70.09035      1.123     3.22    -2.145484      19.7847     43.40073         6     0.707     0.644  -0.24   0
       250    723.6039     98.9928 300.3950853 +22.6153111     141.6165     69.96514      1.384     4.02    -1.929663      19.7847     31.03198         5     0.791     0.583   0.88   0
       251    671.8564     94.7195 300.3803546 +22.5985822     1571.863      70.1618      1.540     3.09    -2.108949      19.7847     170.5059        21     1.096     1.078 -22.92   0
       252    687.2422     93.5532 300.3855247 +22.6028559     637.0389      70.1618      2.318     4.59    -2.058479      19.7847     60.21349         9     1.204     0.816  61.42   0
       253    758.4141     86.1306 300.4101024 +22.6220405     787.9169     70.14394      1.409     3.43     -1.87978      19.7847     78.79303        15     1.116     0.906  20.25   0
       254    696.3134     79.4240 300.3929340 +22.6015125     498.6518     70.09035      1.918     4.16     -2.03283      19.7847     42.02166         7     0.922     0.572  55.56   0
       255     75.1969     79.1709 300.1998254 +22.4152768     270.0827     70.09035      1.278     4.39    -1.337512      19.7847      45.7659         6     1.012     0.542  67.99   0
       256    502.1843     78.8951 300.3326681 +22.5432002     567.6891      70.0546      1.467     3.90    -2.054282      19.7847      57.7796        12     1.037     0.859 -39.15   0
       257    405.7085     76.8656 300.3033099 +22.5137051     486.9742     70.25101      1.525     3.79    -2.108143      19.7847     50.33574        11     1.023     0.822  13.60   0
       258    745.3074     67.6166 300.4120258 +22.6127934     353.4819      70.0546      1.292     3.40     -1.74351      19.7847     44.82348         8     0.891     0.755 -73.37   0
       259    177.3662     67.1581 300.2354650 +22.4424663     2293.967     70.17965      1.479     2.82    -2.020431      19.7847     232.4579        22     1.090     1.041  50.00   0
       260    738.3262     59.2209 300.4125747 +22.6082893     501.7746     70.14394      1.348     3.67    -1.683859      19.7847     73.27931         9     1.046     0.598  46.92   0
       261    293.2940     59.1143 300.2741087 +22.4749122     663.5717     70.30448      1.316     3.17    -2.178315      19.7847      84.7826        12     1.022     0.784  74.63   0
       262    776.5075     54.5031 300.4260002 +22.6183679     445.1978     70.30448      1.764     5.34    -1.707825      19.7847      38.7387        10     1.297     0.622  44.07   0
       263    796.2908     50.5708 300.4334399 +22.6231619     1197.838     70.09035      1.270     2.48    -1.696709      19.7847     145.5529        15     0.970     0.895 -72.69   0
       264    179.9143     46.0216 300.2431129 +22.4371622     496.7416     70.07248      1.352     2.56    -2.117978      19.7847     75.27529        10     0.858     0.728   6.16   0
       265    971.1395     43.7789 300.4901455 +22.6735591      354.505     70.07248      1.143     2.13    -2.164421      19.7847     75.99162         8     0.770     0.627  35.69   0
       266    745.0051     42.9894 300.4199207 +22.6056238      472.199     69.98305      1.360     3.46    -1.604205      19.7847     64.17297        10     1.067     0.715  29.66   0
       267    597.4314     28.3076 300.3787248 +22.5572020     536.4418     70.07248      1.523     3.48    -2.316551      19.7847     61.49435        11     1.021     0.795   4.99   0
       268    331.7918     25.6234 300.2969424 +22.4768336     211.5006     70.12608      1.391     3.66    -2.256135      19.7847     30.70586         5     0.972     0.396 -84.25   0
       269    207.0635     25.2278 300.2582948 +22.4393316     338.1462     70.12608      1.220     4.05    -2.297587      19.7847     44.01572         6     0.908     0.517  31.36   0
       270    760.2849     23.2960 300.4310688 +22.6045385     348.3809     70.30448      1.615     4.27     -1.48493      19.7847     47.49366         7     1.148     0.452   3.44   0
       271    568.9963     21.0325 300.3722324 +22.5465930     1116.427     70.12608      1.538     3.30    -2.200953      19.7847      110.786        17     1.101     0.963  58.34   0
       272    291.7332     18.7966 300.2867007 +22.4628662     418.1832     70.10822      1.496     4.21    -2.267643      19.7847     50.53038         9     1.102     0.644  14.01   0
       273    121.6768   1019.1088 299.9087499 +22.6987292     918.1011     70.26884      6.622     7.93     12.46134      19.7847     37.48679        12     2.392     0.735  42.02  19
       274     70.2171   1021.5174 299.8919831 +22.6839561     2196.465     64.89381      9.395    27.32     6.260818      19.7847      58.3756       160     7.775     2.665   5.20  27
       275    658.6195   1016.7904 300.0764858 +22.8593142     3973.932     70.10822      1.115     1.95    -5.120779      19.7847     738.3068        22     0.952     0.873  58.14   0
       276    171.1094   1014.5450 299.9255924 +22.7122742     794.5668     70.17965      7.340     7.29     10.15911      19.7847     35.12929        11     1.526     1.353  80.20  16
       277    242.4152   1023.2505 299.9449142 +22.7361899     1268.671     56.86992      6.400    13.01     1.496389      19.7847     50.78389        39     3.144     1.498  -6.83  27
