#   1 NUMBER                 Running object number                                     
#   2 X_IMAGE                Object position along x                                    [pixel]
#   3 Y_IMAGE                Object position along y                                    [pixel]
#   4 ALPHA_J2000            Right ascension of barycenter (J2000)                      [deg]
#   5 DELTA_J2000            Declination of barycenter (J2000)                          [deg]
#   6 FLUX_APER              Flux vector within fixed circular aperture(s)              [count]
#   7 FLUXERR_APER           RMS error vector for aperture flux(es)                     [count]
#   8 FLUX_RADIUS            Fraction-of-light radii                                    [pixel]
#   9 FWHM_IMAGE             FWHM assuming a gaussian core                              [pixel]
#  10 BACKGROUND             Background at centroid position                            [count]
#  11 THRESHOLD              Detection threshold above background                       [count]
#  12 FLUX_MAX               Peak flux above background                                 [count]
#  13 ISOAREA_IMAGE          Isophotal area above Analysis threshold                    [pixel**2]
#  14 A_IMAGE                Profile RMS along major axis                               [pixel]
#  15 B_IMAGE                Profile RMS along minor axis                               [pixel]
#  16 THETA_IMAGE            Position angle (CCW/x)                                     [deg]
#  17 FLAGS                  Extraction flags                                          
         1    645.1120     16.2155 300.4126315 +22.5515308     1509.446      70.3309      2.034     4.55    -1.581828     19.85766     108.5409        28     1.407     1.324 -40.13   0
         2    740.9075     16.1936 300.4424750 +22.5802179     611.8322     70.29501      1.905     5.87    -1.419092     19.85766     47.54334        14     1.391     1.215  45.19   0
         3    578.8797      6.2669 300.3952377 +22.5288298     765.8049      70.4922      1.836     5.73    -1.373868     19.85766     60.05415        21     1.432     1.134 -15.68  16
         4    731.2896   1020.5481 300.1129360 +22.8657617     302.2087     68.43955      1.057     3.47    -4.749485     19.85766     45.31607         5     0.740     0.470 -16.77  16
         5    100.5154   1018.3386 299.9174706 +22.6756922     1059.983     70.51009      7.367    10.42   -0.8030846     19.85766     37.50926        16     2.420     1.251  34.04  27
         6    766.9760   1015.2668 300.1257722 +22.8749569     537.0677     70.36678      1.337     2.96     -4.75512     19.85766     72.54561        10     0.881     0.760  45.42   0
         7    544.4255   1016.0253 300.0562336 +22.8083701     271.5069     70.34885      1.479     4.23    -4.614964     19.85766     30.91307         5     0.790     0.645   4.05   0
         8    923.4520   1013.1833 300.1752107 +22.9213113     264.3444      70.3847      1.383     3.40    -5.833709     19.85766     34.58723         5     0.740     0.459  70.65   0
         9    789.1907   1009.0661 300.1347127 +22.8798448     6458.603      70.3847      1.292     2.32    -4.757833     19.85766     904.9813        33     1.120     1.018  74.26   0
        10    834.9385   1008.8329 300.1490422 +22.8935057     345.0336     70.40263      1.237     2.91    -4.761257     19.85766      47.5227         7     0.824     0.661  55.45   0
        11    100.8169   1000.9331 299.9232341 +22.6707969     301.4761     70.36678      1.257     4.37    -1.561652     19.85766     51.55719         8     1.088     0.566  73.03   0
        12    798.0447    991.0250 300.1433487 +22.8773258     789.1502     70.40263      1.327     2.88    -4.756333     19.85766     107.9704        15     1.152     0.839  -7.97   0
        13    980.5798    989.8876 300.2006105 +22.9317631     388.7531     70.31296      1.480     3.38    -5.626231     19.85766     46.07253         5     0.867     0.523 -41.05   0
        14    836.1705    984.6526 300.1573037 +22.8869375     415.3179     70.40263      1.081     2.56    -4.755108     19.85766     68.51659         9     0.948     0.718 -65.06   0
        15    943.7767    981.4338 300.1918904 +22.9182970     232.3781     70.40263      1.246     3.45    -5.496818     19.85766     27.66498         5     0.774     0.444 -20.30   0
        16    735.5233    975.3427 300.1289816 +22.8540648     406.1158     70.42056      1.596     3.83    -4.743324     19.85766     66.06371        10     1.150     0.655 -70.18   0
        17    884.2550    975.8455 300.1751575 +22.8988371      298.591     70.42056      1.235     3.13    -4.951656     19.85766     52.74335         7     0.761     0.650 -86.21   0
        18    448.4535    970.9054 300.0410715 +22.7666172      2920.48     70.45638      1.662     7.80    -4.529455     19.85766     442.2918        26     1.581     1.075 -80.54   0
        19    746.8688    971.8350 300.1336580 +22.8564633     378.6721      70.3847      1.344     2.27    -4.744639     19.85766     60.23202         6     0.702     0.561  36.31   0
        20    173.3533    957.3178 299.9599731 +22.6800959     411.7122     70.36678      1.436     4.67    -3.153444     19.85766     41.69902         8     0.969     0.638  67.82   0
        21    150.8206    954.4481 299.9539073 +22.6725040     879.3627     70.42056      1.285     2.72    -3.277318     19.85766     115.7085        15     1.080     0.822  59.59   0
        22    777.4160    950.3299 300.1501784 +22.8594600     287.9546     70.40263      1.584     3.73    -4.745977     19.85766     34.64262         5     0.988     0.405  15.38   0
        23     25.7837    943.6904 299.9185769 +22.6318518     236.6574     70.31296      1.271     5.68     -4.91189     19.85766     42.28494         8     1.530     0.594 -50.11   0
        24   1022.1522    942.7363 300.2289337 +22.9306975     1236.625     62.52359      1.154     2.11    -4.964783     19.85766     206.6583        15     0.906     0.818   6.93  24
        25    976.3182    941.2855 300.2151140 +22.9165345     1151.657     70.52798      1.254     2.49    -4.935745     19.85766     155.6461        14     0.917     0.868   5.13   0
        26    760.0427    935.2904 300.1496649 +22.8499319     291.1898      70.3847      1.250     2.55    -4.740673     19.85766     47.93391         7     0.710     0.665   2.16   0
        27    628.2852    929.3946 300.1105545 +22.8086999     2737.975     70.31296      1.472     2.91     -4.71727     19.85766     278.1789        27     1.165     1.118 -22.22   0
        28    430.3369    926.3849 300.0499362 +22.7484130     258.4972     70.34885      1.378     4.46    -4.362458     19.85766     39.28401         6     1.146     0.493  46.50   0
        29    178.4995    923.4631 299.9725973 +22.6719409     690.7263     70.47429      1.244     2.68    -4.099154     19.85766     100.6345        13     0.927     0.850  43.57   0
        30    648.8173    921.9094 300.1193847 +22.8127151     458.1337     70.31296      1.432     4.95    -4.670042     19.85766     43.61346        12     1.121     0.825  -2.45   0
        31    197.0855    921.0712 299.9791511 +22.6768387     325.2562      70.4922      1.752     3.94    -4.154625     19.85766     31.29813         5     1.303     0.342 -62.92   0
        32    804.1752    909.1561 300.1719251 +22.8556745     2380.552     70.42056      1.338     2.53    -4.580685     19.85766     279.1107        23     1.071     1.008  56.28   0
        33   1021.1735    909.0469 300.2396011 +22.9207322     723.2517     66.47544      1.353     2.79    -4.786909     19.85766     85.99266         8     0.802     0.659 -59.53  16
        34    212.8722    903.6724 299.9897222 +22.6765945     271.7552     70.43847      1.170     2.29    -4.217314     19.85766     44.71924         5     0.732     0.424  19.68   0
        35    521.3085    901.5937 300.0863119 +22.7686158     392.5459     70.29501      1.239     3.92    -4.411197     19.85766     47.69006         6     0.870     0.611  73.48   0
        36    167.5875    900.0753 299.9768226 +22.6619608     631.5722     70.40263      1.511     4.05    -4.179403     19.85766     64.29517        15     1.248     0.811  23.18   0
        37    317.3471    892.0013 300.0259959 +22.7046270     30487.37     70.34884      1.466     2.69     -4.24976     19.85766     3505.687        70     1.340     1.252  56.00   0
        38    583.0626    895.1661 300.1076239 +22.7853088       330.72      70.3847      1.444     3.81    -4.452199     19.85766     31.62239         5     0.802     0.518 -56.38   0
        39    575.0832    890.8494 300.1065459 +22.7816756     891.6757      70.3847      1.383     3.05    -4.420563     19.85766     99.95394        13     0.988     0.832   2.13   0
        40    987.9225    889.6927 300.2355352 +22.9052042     484.3015     70.52798      1.250     2.50    -4.647336     19.85766     74.13078         8     0.898     0.566  68.76   0
        41    604.2870    887.1017 300.1168565 +22.7893658     532.7117     70.54588      1.306     4.28    -4.423443     19.85766     59.54882        10     1.025     0.915  32.35   0
        42      3.4267    886.5021 299.9302569 +22.6087513     506.0502      64.8808      1.532     4.07     -4.79024     19.85766     62.45457        12     1.151     0.772  88.63  16
        43    615.4282    885.2267 300.1209353 +22.7921716     417.6391     70.34885      1.681     3.34    -4.408937     19.85766      36.6847         5     0.729     0.460  71.24   0
        44    934.6204    882.2217 300.2213497 +22.8870738     208.0149      70.3847      1.011     3.43    -4.315624     19.85766     29.26435         5     0.784     0.434 -70.62   0
        45    719.7567    881.0549 300.1547792 +22.8222824     339.4495      70.3847      1.406     4.24    -4.536489     19.85766     31.17325         7     1.190     0.432  33.97   0
        46    367.0291    869.2466 300.0488525 +22.7130219     17780.94     70.42056      1.497     2.90    -4.219645     19.85766     1702.851        54     1.298     1.236  44.05   0
        47    757.9993    871.5640 300.1697812 +22.8310333     440.5477     70.34885      1.452     3.67    -4.487545     19.85766     46.02759         6     0.789     0.491  -6.14   0
        48    381.3415    869.7370 300.0531436 +22.7174599     1168.068     70.43847      1.438     2.73    -4.211961     19.85766      136.511        16     1.066     0.907  16.09   0
        49    889.9516    864.8793 300.2130730 +22.8686981     1653.437      70.3847      1.430     2.71    -4.173368     19.85766     195.0377        19     1.070     0.981  86.61   0
        50    378.3576    863.7719 300.0541578 +22.7148537     372.7361     70.40263      1.454     5.41    -4.200902     19.85766     40.96951         9     1.155     0.755 -31.02   0
        51    249.3522    861.0858 300.0149253 +22.6753450     443.9411     70.36678      1.303     4.64    -4.240376     19.85766     64.78609        12     1.229     0.989  53.13   0
        52    647.8035    860.6741 300.1390091 +22.7948440     388.1465     70.29501      1.300     4.92    -4.207867     19.85766     52.46188         9     0.995     0.688  80.16   0
        53    495.3523    855.8688 300.0931235 +22.7477105     379.7385     70.36678      1.149     4.37    -4.242091     19.85766     60.91196         7     1.154     0.471 -85.55   0
        54     54.3130    856.8137 299.9557226 +22.6155348     319.0708      70.3309      1.491     2.31    -4.675778     19.85766     42.66542         5     0.733     0.425 -71.85   0
        55    896.1710    852.5764 300.2190173 +22.8670319     218.6437      70.3847      0.986     3.00    -4.054602     19.85766     44.75728         5     0.741     0.433 -23.37   0
        56    440.9490    850.5516 300.0779294 +22.7298543     257.6102     70.42056      1.285     3.75    -4.184154     19.85766     33.13698         6     0.812     0.497  -0.94   0
        57    247.0985    845.3735 300.0193399 +22.6701642     294.3975      70.3309      1.410     3.85    -4.237365     19.85766     43.12235         6     0.856     0.599  36.03   0
        58    570.0295    835.4859 300.1229986 +22.7642780     330.8522      70.3847      1.725     3.92    -4.157133     19.85766     26.53524         6     0.920     0.837  86.19   0
        59    540.0237    833.6545 300.1142562 +22.7547472     411.1956     70.40263      1.499     4.07     -4.15364     19.85766     45.72391         9     1.028     0.824  42.40   0
        60    561.7726    831.0569 300.1218705 +22.7605294     818.6193      70.3847      1.519     3.43    -4.141017     19.85766     74.15863        15     1.079     0.912  45.17   0
        61    956.2458    830.0551 300.2450771 +22.8785830     2609.555     70.42056      1.337     2.61    -4.100773     19.85766     288.1859        19     0.993     0.928 -46.75   0
        62    944.7007    821.2900 300.2443313 +22.8726043     928.3456     70.54588      1.283     2.82    -3.923856     19.85766     110.9258        13     0.933     0.844  45.17   0
        63    308.1346    815.8503 300.0479233 +22.6800288     390.7499     70.42056      1.380     2.71    -4.209692     19.85766     54.54961         8     0.807     0.706  85.79   0
        64    771.0648    812.8766 300.1929582 +22.8181108     1472.126     70.47429      1.654     3.47    -4.136045     19.85766     111.3876        23     1.277     1.043  26.27   0
        65    975.7712    811.4954 300.2572071 +22.8791090     1016.813     70.31296      1.401     3.22    -4.216871     19.85766     116.5215        14     1.079     0.860  26.33   0
        66    157.1329    799.8214 300.0062111 +22.6300879     367.4383     70.36678      1.733     5.67     -4.05878     19.85766     35.37229         8     1.315     0.689  74.58   0
        67    889.4677    789.7014 300.2373969 +22.8469716     84229.07     70.47429      1.501     2.84    -3.571352     19.85766     7793.585       108     1.364     1.330  74.27   0
        68    741.7817    790.1493 300.1912345 +22.8028036      489.269      70.3847      1.832     5.23    -4.073489     19.85766     38.92159        10     1.077     0.717  50.52   0
        69    575.8948    778.8423 300.1432623 +22.7497879     971.9185      70.3847      1.704     4.37    -3.848651     19.85766      73.2421        17     1.234     0.986  18.56   0
        70    757.0333    775.9786 300.2005977 +22.8033115     5422.671      70.3847      1.559     3.21    -3.896606     19.85766     443.8369        36     1.250     1.217  36.71   0
        71    258.6667    771.3042 300.0470444 +22.6524035     2833.479     70.51009      1.615     3.04    -3.986569     19.85766     277.7032        29     1.258     1.144 -79.15   0
        72    340.7702    769.3019 300.0732205 +22.6764799     708.4304      70.3309      1.666     5.18    -4.028331     19.85766     55.95232        14     1.162     0.946  33.44   0
        73    549.2626    765.3184 300.1393748 +22.7379161     482.7567      70.4922      1.639     3.85    -3.662333     19.85766     36.56824         6     1.045     0.408 -13.56   0
        74    540.6841    756.8998 300.1394448 +22.7329265     1785.265     70.54588      1.659     3.31    -3.592415     19.85766     149.8194        27     1.353     1.106  29.91   0
        75    530.8183    750.5869 300.1384290 +22.7281548      938.812     70.34884      1.818     4.39     -3.59987     19.85766      63.4964        15     1.072     0.982  -4.86   0
        76    924.9863    747.4398 300.2622237 +22.8454884      194.393     70.40263      1.466     4.13    -3.502613     19.85766     26.89865         5     0.785     0.620 -88.10   0
        77    194.5868    746.9029 300.0350702 +22.6261662     278.1087     70.27706      1.504     4.00    -3.782063     19.85766     33.29232         7     0.932     0.733 -41.80   0
        78    208.9345    744.8334 300.0402021 +22.6298812      271.978      70.3847      1.112     3.45    -3.772858     19.85766     42.67679         5     0.819     0.476  59.48   0
        79    234.4892    742.2567 300.0489824 +22.6368157     340.8206     70.42056      1.592     4.30    -3.753879     19.85766     28.69127         6     1.105     0.477 -81.43   0
        80    455.5617    740.4205 300.1183215 +22.7026533     1025.845     70.40263      1.696     3.88    -3.739748     19.85766     85.21289        16     1.131     0.959 -37.36   0
        81    109.7003    735.6169 300.0123699 +22.5974390     11428.66     70.29501      1.564     2.79    -3.728145     19.85766     1281.638        49     1.330     1.231  59.37   0
        82     30.3921    737.0576 299.9872703 +22.5740316     431.1056     70.36678      1.522     5.29    -3.734085     19.85766     35.19451        10     1.015     0.779  45.15   0
        83    540.7776    735.6545 300.1463877 +22.7268592     616.0069     70.40263      1.767     4.35    -3.384769     19.85766     47.62648        12     1.012     0.891  33.85   0
        84    958.3498    721.4274 300.2810905 +22.8480218     618.2474     70.40263      1.424     3.32    -3.467121     19.85766     60.90636        11     0.980     0.777 -72.02   0
        85     55.7865    719.7299 300.0007940 +22.5766929     720.4647      70.3847      1.688     5.55    -3.718117     19.85766     61.54749        16     1.630     0.811 -69.95   0
        86    826.5887    720.6953 300.2402596 +22.8083034        238.7      70.3309      0.801     3.26    -3.393607     19.85766     31.04173         4     0.892     0.346 -18.34   2
        87    898.4614    714.5536 300.2646575 +22.8280920     454.8975     70.40263      1.820     5.18    -3.448405     19.85766     40.90108         9     0.972     0.781  -7.14   0
        88    461.3694    708.2294 300.1306030 +22.6951617     373.4039      70.3847      1.435     2.95    -3.435003     19.85766     54.02576         5     0.882     0.481 -86.92   0
        89    504.8897    704.5334 300.1453463 +22.7071612      580.257     70.51009      1.785     3.93    -3.289781     19.85766     46.74793        12     1.011     0.876  27.71   0
        90    938.5095    699.7509 300.2819584 +22.8358484     1746.802      70.3847      1.525     3.28    -3.419971     19.85766     162.6468        21     1.107     1.059  44.23   0
        91    470.5185    699.9428 300.1361455 +22.6955299     1052.062     70.42056      1.762     3.96    -3.335553     19.85766     86.57943        20     1.342     0.945  48.47   0
        92     32.5501    693.8514 300.0019976 +22.5622966      2738.97     70.42056      1.521     2.78    -3.708742     19.85766     318.0044        25     1.181     1.076  47.42   0
        93    977.9386    689.3553 300.2976343 +22.8446833     206.1687     70.40263      1.332     4.27    -3.461875     19.85766     31.91749         6     0.973     0.534  76.08   0
        94    333.7638    686.7797 300.0978937 +22.6507101     5155.692     70.40263      1.696     3.44    -3.548788     19.85766     438.9112        39     1.384     1.265  56.32   0
        95    456.1434    683.7194 300.1369515 +22.6865617     5137.793     70.42056      1.765     3.67    -3.191998     19.85766     458.6526        40     1.423     1.311 -83.76   0
        96    867.5924    677.5725 300.2670691 +22.8082170      1029.32      70.3847      1.619     4.71    -3.363802     19.85766      73.0835        17     1.239     0.990  61.53   0
        97    952.2678    674.6735 300.2944073 +22.8327709     7221.711     70.45638      1.562     3.07    -3.402134     19.85766     638.6371        40     1.269     1.185  26.80   0
        98    516.7627    673.2870 300.1592067 +22.7017584      6473.63     70.36678      1.747     3.70    -2.876289     19.85766     464.0692        39     1.367     1.318  56.74   0
        99    244.1976    668.8033 300.0758979 +22.6186682      752.399     70.16924      1.636     3.70     -3.42578     19.85766     76.19619        14     1.081     0.905   0.15   0
       100    448.3883    661.5040 300.1417661 +22.6778610     2450.992     70.29501      1.760     3.71    -3.096497     19.85766     207.1836        26     1.289     1.169  69.43   0
       101    791.0078    660.9026 300.2486279 +22.7804663     356.1948     70.27706      1.406     5.11    -3.328256     19.85766     46.82244         9     1.084     0.680  -2.18   0
       102    426.8040    660.1851 300.1354807 +22.6710054     717.8523     70.24113      1.721     4.12    -3.204234     19.85766     66.44299        12     1.110     0.808  10.19   0
       103    181.2446    659.5578 300.0593415 +22.5971171      455.977     70.47429      1.475     5.11    -3.495405     19.85766     42.67788        11     1.012     0.924  43.56   0
       104    867.9847    656.8077 300.2739470 +22.8023718     833.7762     70.29501      1.560     3.98    -3.330457     19.85766     73.27064        19     1.202     1.050 -82.31   0
       105    748.7221    653.8511 300.2377486 +22.7657610     403.2905      70.3847      1.550     4.48    -3.333753     19.85766     44.57954        11     1.073     0.803  88.02   0
       106    564.9910    648.9821 300.1821229 +22.7092535     116794.1      70.3309      1.826     3.81    -2.898818     19.85766      9070.57       150     1.606     1.588  14.45   0
       107    251.1663    649.1246 300.0844652 +22.6151167     2082.262      70.3847      1.696     3.32    -3.415004     19.85766     215.6247        24     1.217     1.135  51.65   0
       108    816.8771    644.9438 300.2618798 +22.7836412      228.944     70.42056      1.393     4.89    -3.303638     19.85766     30.01124         6     1.128     0.601  66.21   0
       109    455.6665    629.3871 300.1544774 +22.6708301     1453.774     70.36678      1.792     3.77    -2.958246     19.85766       113.36        23     1.278     1.134  40.44   0
       110    852.4525    615.3457 300.2825936 +22.7858080     1046.549     70.42056      1.761     4.26    -3.272994     19.85766     71.73854        16     1.089     0.983 -86.90   0
       111    723.6810    613.0424 300.2432231 +22.7465352     1479.984     70.34884      1.824     4.14    -3.162861     19.85766     93.63593        25     1.306     1.197  10.75   0
       112    967.0027    607.5992 300.3208212 +22.8179215     608.3375     70.16924      2.293     8.02    -3.207897     19.85766     34.84008        11     2.400     0.748  82.88   0
       113    510.7877    608.6213 300.1783820 +22.6814094     468.9724     70.36678      1.889     5.20    -2.903256     19.85766     35.48895         6     1.184     0.645  46.08   0
       114    980.8323    606.7344 300.3254147 +22.8218182     689.4026      70.3847      1.590     3.74    -3.192415     19.85766     64.35725        13     1.025     0.863  39.18   0
       115    852.8003    605.3749 300.2859451 +22.7830487     1307.587      70.3309      1.828     4.49    -3.232193     19.85766     87.23283        22     1.327     1.117  81.94   0
       116    605.8127    602.6833 300.2098894 +22.7082107     414.1491     70.34884      1.929     6.10     -2.86884     19.85766     34.13668         9     1.303     0.803  66.88   0
       117    890.8472    600.3928 300.2994237 +22.7930238      2471.71     70.40263      1.678     3.46    -3.182509     19.85766     189.8031        32     1.353     1.282  10.16   0
       118    123.6187    591.5646 300.0635516 +22.5603194     539.1321      70.3847      1.483     4.30    -3.382234     19.85766     55.40314        13     1.247     0.861 -79.18   0
       119    982.6048    590.6400 300.3312021 +22.8177259     345.4765     70.40263      1.491     4.91    -3.139488     19.85766     38.19759         8     1.019     0.669   7.13   0
       120    664.6300    571.2620 300.2384209 +22.7168311     370.4073     70.40263      1.730     5.80    -2.827511     19.85766     38.83281        11     1.173     0.958 -81.15   0
       121    978.3061    563.6392 300.3386429 +22.8086804     269.0243     70.40263      1.500     5.26    -3.035334     19.85766     36.27827         7     0.905     0.862  85.03   0
       122    882.1381    559.6218 300.3099687 +22.7787024     651.0254     70.36678      1.728     6.67    -2.833897     19.85766     48.24378        16     1.192     1.047  39.60   0
       123    866.7712    555.7693 300.3064320 +22.7729895     377.4629      70.3847      1.636     6.31    -2.799601     19.85766     38.62681         9     1.229     0.909  24.06   0
       124    610.8831    553.8782 300.2273394 +22.6957215     1415.764      70.4922      1.836     4.14    -2.736964     19.85766     125.8912        29     1.399     1.271 -32.31   0
       125    725.7322    563.7472 300.2598939 +22.7329963     465.7414     70.40263      1.619     3.68    -2.858624     19.85766     40.08594         8     1.109     0.557 -46.12   0
       126   1021.9841    532.5594 300.3623705 +22.8128395     710.1422     63.26591      1.525     3.64    -3.052903     19.85766     78.67664        17     1.134     0.993 -26.48  24
       127    980.7584    531.4673 300.3498693 +22.8001720     449.3446     70.36678      1.592     5.57    -2.856563     19.85766     47.51994        11     0.995     0.879 -27.57   0
       128    721.5372    527.7241 300.2703007 +22.7213944     588.9609     70.43847      1.769     5.88    -2.671878     19.85766     52.41384        14     1.216     1.049  20.99   0
       129    226.1671    526.5569 300.1165532 +22.5724580     365.1295     70.43847      1.319     4.99    -2.741977     19.85766     38.59163         8     1.219     0.577  82.15   0
       130    287.8090    521.9434 300.1372139 +22.5896337     2024.449     70.36678      1.805     4.12    -2.751747     19.85766     181.9675        28     1.411     1.207  46.64   0
       131   1020.7468    519.9485 300.3660851 +22.8088450      2421.28     67.86559      1.553     3.26    -2.889452     19.85766     211.9844        24     1.172     1.100 -75.51  16
       132    235.2321    516.8042 300.1225413 +22.5723810     4182.604     70.36678      1.815     3.56    -2.661141     19.85766     387.7035        41     1.477     1.314  76.39   0
       133    375.6741    511.4493 300.1679465 +22.6129874     3446.091      70.3847      1.839     8.04    -2.870179     19.85766     807.8149        33     1.563     1.157 -65.36   0
       134   1000.7361    510.9458 300.3627716 +22.8002619     1086.189     70.42056      1.619     3.70    -2.729058     19.85766     90.20522        19     1.138     1.060 -37.83   0
       135    619.9370    507.4860 300.2452419 +22.6851178     10302.65      70.4922      1.920     4.23    -2.582125     19.85766     666.8514        59     1.588     1.484  15.26   0
       136    953.8538    489.0923 300.3552576 +22.7799339     370.6891     70.43847      1.766     4.89     -2.46518     19.85766     29.48579         8     1.215     0.557  76.93   0
       137    174.5574    487.9840 300.1130541 +22.5459037     1195.875     70.40263      1.834     4.85    -2.462784     19.85766     82.59704        20     1.294     1.077  26.34   0
       138    560.5975    476.8945 300.2367146 +22.6585395     3834.459     70.29501      1.964     4.35    -2.650274     19.85766     232.8222        36     1.488     1.350  70.91   0
       139    973.9959    477.0983 300.3654372 +22.7825232     639.4375     70.27706      1.748     7.05    -2.411495     19.85766      45.4561        16     1.347     1.069  30.23   0
       140    275.8604    476.8415 300.1481608 +22.5731082     296.8164     70.36678      1.380     3.92    -2.401314     19.85766     31.42487         6     0.755     0.582  52.03   0
       141    764.8568    465.3287 300.3040796 +22.7164617     619.6959     70.40263      1.930     6.18    -2.616249     19.85766      42.1068        10     1.099     0.977 -15.81   0
       142    467.2796    463.2871 300.2120978 +22.6266453     3537.153     70.54588      1.965     4.15    -2.765721     19.85766     264.1549        38     1.442     1.408 -65.66   0
       143    957.1306    457.6061 300.3665148 +22.7718684     309.4112     70.34884      1.253     4.26     -2.40484     19.85766     43.85764         7     1.053     0.492 -46.88   0
       144    859.1341    457.5755 300.3359764 +22.7424927     851.5478     70.36678      1.846     5.83    -2.570387     19.85766     59.55059        18     1.293     1.061 -18.66   0
       145    354.8267    442.6254 300.1838343 +22.5869823     1328.595     70.34884      1.869     4.33    -2.535637     19.85766     92.46116        26     1.332     1.278  87.05   0
       146     73.4382    440.6239 300.0970329 +22.5019687     436.9816     70.40263      1.517     4.59     -2.43467     19.85766     51.78242        13     1.120     1.051 -31.85   0
       147    324.2142    432.0515 300.1777516 +22.5747639     16898.52     70.40263      1.935     4.06     -2.39505     19.85766     1221.106        68     1.577     1.523 -86.11   0
       148    858.4206    429.1237 300.3450018 +22.7341045     649.0748      70.3847      1.697     5.28    -2.444139     19.85766     60.76133        18     1.405     1.019  23.67   0
       149     20.6174    420.1633 300.0872779 +22.4802452     2839.214      70.3847      1.694     3.27     -2.43467     19.85766     261.9658        29     1.293     1.190  46.49   0
       150    774.4023    417.6154 300.3225614 +22.7056173     279.6472     70.24114      1.441     4.22     -2.48081     19.85766     27.18578         5     1.042     0.487 -86.22   0
       151    422.6840    417.6989 300.2130405 +22.6001831     385.2135     70.54588      1.763     4.14    -2.561178     19.85766     29.13451         6     0.949     0.516 -43.06   0
       152    734.3727    411.4871 300.3120829 +22.6918584     973.4797      70.3847      1.783     5.71    -2.432108     19.85766     67.27811        20     1.285     1.185  52.79   0
       153    396.4767    396.5084 300.2117746 +22.5862398     1288.503     70.52798      2.129     5.21    -2.276741     19.85766     78.93832        29     1.541     1.332  50.55   0
       154    835.5696    389.2560 300.3508367 +22.7158017     379.4694     70.40263      1.878     3.44    -2.527223     19.85766       27.054         5     0.777     0.440 -69.26   0
       155    472.8221    376.0160 300.2421835 +22.6032541     646.1917     70.36678      2.026     4.99    -2.525974     19.85766     47.70182        12     1.200     0.911 -36.63   0
       156    716.8694    367.5196 300.3209182 +22.6739820     1221.553      70.4922      1.953     4.94     -2.42872     19.85766     80.39383        25     1.434     1.275  -4.22   0
       157    978.1171    361.5690 300.4042698 +22.7505555      1718.57      70.3847      1.700     4.27    -2.582076     19.85766     141.3651        27     1.403     1.223  41.99   0
       158    131.8014    345.7800 300.1459794 +22.4922773      280.981     70.31296      1.381     5.01    -2.402202     19.85766     34.28695         8     1.180     0.602  81.12   0
       159    100.3885    345.9980 300.1361499 +22.4829135      753.387      70.2052      1.598     4.13    -2.497328     19.85766     73.12103        14     1.207     0.895  49.69   0
       160    788.5844    329.1057 300.3557396 +22.6844386     357.7684     70.31296      1.720     6.23    -2.490332     19.85766     38.96739         9     1.464     0.745  41.28   0
       161    886.3619    317.5447 300.3899668 +22.7104137     1103.396      70.3847      1.800     4.91    -2.607048     19.85766     74.07729        25     1.414     1.171  59.25   0
       162    305.4463    315.4510 300.2098004 +22.5356685     1165.797     70.42056      1.895     4.23    -2.050453     19.85766     108.3357        22     1.328     1.236 -54.24   0
       163    383.9346    310.9673 300.2356646 +22.5579219     528.6533      70.3847      1.782     3.65    -1.882848     19.85766      45.8438         7     0.987     0.683 -16.33   0
       164    200.5764    302.7627 300.1813232 +22.5005686     398.5617     70.40263      1.774     4.47     -2.19953     19.85766     36.56436         5     1.192     0.476  82.94   0
       165    738.0347    299.3725 300.3496502 +22.6607471     860.6948     70.40263      1.883     4.53    -1.943294     19.85766     67.90407        18     1.214     1.101  24.61   0
       166    222.2461    295.7763 300.1903271 +22.5050643     347.8154     70.40263      1.565     4.06    -2.174582     19.85766     36.85292         6     1.039     0.577 -68.32   0
       167   1009.4604    291.5078 300.4368056 +22.7398038     550.2994     70.45638      1.871     5.47    -2.660697     19.85766     52.42503         9     1.025     0.823  -7.58   0
       168    741.4394    290.7236 300.3535202 +22.6592823     325.3925     70.34885      1.581     5.08    -1.899085     19.85766     27.83593         7     1.061     0.689  -4.29   0
       169    662.2130    290.1220 300.3290399 +22.6353657     745.2579     70.40263      1.980     7.19    -2.357852     19.85766     59.02186        16     1.275     1.137 -26.55   0
       170    589.3488    281.9158 300.3090187 +22.6111682     415.6991     70.36678      1.714     5.64    -2.002146     19.85766     39.25169        10     1.210     0.741 -70.44   0
       171    857.8187    281.6323 300.3927358 +22.6915408       776.35      70.3847      2.074     5.91    -2.459908     19.85766     51.96915        13     1.136     0.998  12.33   0
       172    870.0077    280.7100 300.3968344 +22.6949274      549.254     70.29501      2.147     6.71    -2.479155     19.85766     40.20468        10     1.226     1.031 -83.59   0
       173    986.2882    270.9127 300.4362688 +22.7269425     529.8062     70.54588      1.677     4.07    -2.651039     19.85766      60.3548        13     1.282     0.677  13.03   0
       174    221.2030    264.7881 300.2000671 +22.4958574     394.4099      70.2052      1.575     4.36    -2.122637     19.85766     35.69156         7     1.160     0.466 -57.88   0
       175     82.8085    259.1035 300.1589121 +22.4527071     1304.315     70.27706      1.825     3.85    -2.323574     19.85766     100.1792        25     1.267     1.263  60.13   0
       176     31.9649    256.2066 300.1440614 +22.4366200     361.5235      70.3847      1.668     5.06    -2.332209     19.85766     28.06252         7     1.071     0.677  61.84   0
       177    905.5233    255.5852 300.4160653 +22.6983449     394.9723     70.40263      1.595     3.67    -2.534446     19.85766     38.46987         6     0.933     0.414  18.60   0
       178    240.0190    252.4088 300.2099356 +22.4979482     3236.262     70.34885      1.970     4.01    -2.107263     19.85766     258.5612        36     1.498     1.339  42.13   0
       179     24.6449    247.1203 300.1447388 +22.4318166     677.1826     70.36678      1.618     4.09    -2.258561     19.85766      73.3567        15     1.215     0.918 -72.89   0
       180    883.6654    233.3406 300.4164760 +22.6854030     1950.625     70.42056      1.920     4.35    -2.342188     19.85766     118.6983        29     1.385     1.295 -48.19   0
       181    987.5238    232.1593 300.4492402 +22.7161706     1505.254     70.34884      1.721     3.74    -2.601711     19.85766     118.1703        23     1.349     1.054 -22.79   0
       182    484.9790    216.3890 300.2978148 +22.5610603     921.4464     70.36678      2.019     5.11    -1.847886     19.85766     68.35612        24     1.435     1.236  66.20   0
       183    258.8831    196.3343 300.2340069 +22.4875090     3193.487      70.4922      1.894     3.85    -2.126939     19.85766     241.5924        38     1.501     1.369 -87.69   0
       184    887.6476    193.2116 300.4307479 +22.6750599     183.0424     70.40263      1.453     4.93    -2.271993     19.85766     28.21274         6     1.572     0.438  58.39   0
       185    504.7275    181.4954 300.3152894 +22.5569575     3479.598      70.4922      1.996     4.42    -1.844482     19.85766     215.5142        38     1.521     1.393 -67.56   0
       186    756.9387    171.2951 300.3971313 +22.6296057     516.8069     70.47429      2.102     3.18    -1.885452     19.85766     43.73906         7     0.838     0.711  70.35   0
       187    633.1426    161.3796 300.3617935 +22.5896643     3437.906      70.3847      2.003     4.59    -1.770763     19.85766     225.9501        36     1.511     1.392  65.13   0
       188    408.4497    160.9705 300.2919975 +22.5222012     739.0956     70.40263      1.845     6.22    -1.863578     19.85766     56.63331        14     1.172     1.111 -12.46   0
       189    674.4839    158.9222 300.3754649 +22.6013457     499.1475      70.4922      1.805     7.15    -1.769404     19.85766     33.36386        14     1.477     0.970  72.74   0
       190    157.8211    153.7546 300.2164199 +22.4449755     375.7569     70.43847      1.452     3.33    -2.165266     19.85766     35.14603         5     0.922     0.349 -44.76   0
       191    728.6272    150.6882 300.3950015 +22.6152012     276.6819     70.36678      1.763     4.07    -1.741827     19.85766     30.87488         5     1.004     0.471  82.88   0
       192    677.3036    146.3608 300.3804208 +22.5985807     1725.758     70.36678      2.023     4.59    -1.762245     19.85766     100.0063        33     1.426     1.414 -24.43   0
       193    692.7605    145.1418 300.3856304 +22.6028614     490.5978      70.3847      1.664     3.80    -1.755007     19.85766      35.1127         6     0.763     0.567 -41.79   0
       194    763.5402    138.0805 300.4099705 +22.6220364     873.5117     70.43847      1.935     5.25    -1.859046     19.85766     58.11347        16     1.156     1.075  52.61   0
       195    508.2443    131.2607 300.3326911 +22.5435807       444.56     70.40263      1.471     3.36    -1.604025     19.85766     41.54261         5     0.925     0.354 -45.04   0
       196    411.2769    129.0764 300.3032298 +22.5138883     371.9011     70.47429      1.557     4.10    -1.658964     19.85766     39.29783         7     1.109     0.439 -32.89   0
       197    182.7956    118.9691 300.2354712 +22.4424799     2257.559     70.36678      1.943     3.98    -2.131242     19.85766     170.7151        29     1.304     1.291  39.80   0
       198    743.5610    112.1882 300.4121507 +22.6086089     431.5695      70.3847      1.558     4.65    -1.738624     19.85766     45.53905         8     1.170     0.524  20.29   0
       199    299.0901    111.1281 300.2741654 +22.4751005     835.2166     70.54588      2.019     5.60    -2.026638     19.85766     52.65856        17     1.397     1.078 -42.30   0
       200    801.6206    102.2027 300.4334808 +22.6231293     1127.704      70.3309      1.857     5.10    -1.777295     19.85766     78.40501        20     1.246     1.201  37.77   0
       201    185.2783     98.1625 300.2429953 +22.4372509     584.1816     70.36678      1.602     5.06    -2.109506     19.85766     51.12585        11     1.071     0.833  19.28   0
       202    976.8610     95.4729 300.4902909 +22.6736717     396.4803     70.42056      1.753     5.11    -2.199998     19.85766     35.39077         8     1.058     0.767  46.55   0
       203    750.8336     95.5704 300.4198098 +22.6060105      435.119     70.40263      1.718     4.78    -1.720897     19.85766     39.18222         7     0.969     0.668  -7.55   0
       204    603.0759     79.4131 300.3790366 +22.5571010     416.0665     70.40263      1.795     5.74    -1.475823     19.85766     30.07686         7     1.340     0.692 -64.22   0
       205    765.2264     74.9304 300.4309922 +22.6043882      424.194      70.3847      2.296     3.85    -1.631185     19.85766     30.77188         5     0.852     0.498 -35.47   0
       206    574.5660     72.9486 300.3722590 +22.5467009     862.9922     70.40263      1.775     4.45    -1.409166     19.85766     66.00311        19     1.308     1.110 -26.43   0
       207    297.9033     70.8078 300.2868812 +22.4631655     384.0383     70.27706      1.525     3.64    -1.771668     19.85766     43.92359         7     0.802     0.778  24.73   0
       208     11.7331     69.0074 300.1985440 +22.3768315     398.7585      70.3847      1.600     5.18    -1.808027     19.85766     34.48031         8     1.189     0.639  13.19   0
       209    531.7981     66.8489 300.3609261 +22.5321329     721.4747     70.36678      1.880     5.41    -1.330064     19.85766      64.0731        15     1.424     1.099  -0.28   0
       210    636.9744     63.4357 300.3947761 +22.5626654     709.0637     70.40263      1.746     5.88    -1.583511     19.85766     56.38152        13     1.265     0.980   0.73   0
       211    457.8224     57.5079 300.3409367 +22.5072803     1283.017     70.31296      2.029     5.05      -1.3584     19.85766     89.33342        26     1.505     1.304  70.95   0
       212    104.9313     55.3519 300.2319220 +22.4008650     754.2839      70.3847      1.723     4.23    -1.888245     19.85766     71.14954        15     1.181     0.982 -61.67   0
       213    165.7451     37.0325 300.2567609 +22.4138420     747.0313     70.40263      1.756     3.73    -1.704617     19.85766     67.43166        14     1.066     0.929  89.05   0
       214     98.3599   1021.7803 299.9156800 +22.6760303     1322.656     64.13749      5.197    10.88   -0.6075754     19.85766     42.20514        23     3.083     1.070  50.61  27
       215     89.0953   1022.2435 299.9126516 +22.6733788     1543.166     62.05766      5.239    14.27    -1.131179     19.85766     50.16326        46     2.534     2.236  18.74  27
