#   1 NUMBER                 Running object number                                     
#   2 X_IMAGE                Object position along x                                    [pixel]
#   3 Y_IMAGE                Object position along y                                    [pixel]
#   4 ALPHA_J2000            Right ascension of barycenter (J2000)                      [deg]
#   5 DELTA_J2000            Declination of barycenter (J2000)                          [deg]
#   6 FLUX_APER              Flux vector within fixed circular aperture(s)              [count]
#   7 FLUXERR_APER           RMS error vector for aperture flux(es)                     [count]
#   8 FLUX_RADIUS            Fraction-of-light radii                                    [pixel]
#   9 FWHM_IMAGE             FWHM assuming a gaussian core                              [pixel]
#  10 BACKGROUND             Background at centroid position                            [count]
#  11 THRESHOLD              Detection threshold above background                       [count]
#  12 FLUX_MAX               Peak flux above background                                 [count]
#  13 ISOAREA_IMAGE          Isophotal area above Analysis threshold                    [pixel**2]
#  14 A_IMAGE                Profile RMS along major axis                               [pixel]
#  15 B_IMAGE                Profile RMS along minor axis                               [pixel]
#  16 THETA_IMAGE            Position angle (CCW/x)                                     [deg]
#  17 FLAGS                  Extraction flags                                          
         1    595.4980      2.0157 300.3787888 +22.5570947     546.7931     58.05164      1.262     3.06    -2.450485     19.73496     65.25871         6     0.776     0.500  89.50  24
         2    172.7071   1015.4839 299.9179850 +22.7210520     1671.486     70.12772      6.308    12.98     21.61894     19.73496     54.47461        28     2.224     2.109  23.02  19
         3    643.8423   1021.4793 300.0625707 +22.8642514     5145.599     64.84608      1.086     1.78     -5.30894     19.73496     910.1115        26     0.961     0.873 -89.16  26
         4    638.2322   1023.4576 300.0601798 +22.8631347      3805.89     55.59516      0.948     1.91    -5.307269     19.73496     860.8468        15     0.859     0.648   9.59  27
         5    206.9310   1020.9543 299.9268383 +22.7329010     2835.371     66.74034     11.993    31.29     15.13193     19.73496     73.03899       230     6.333     4.446  16.65  27
         6    243.6056   1012.0724 299.9411280 +22.7413737     5725.093      69.8963      9.727    32.34     5.275738     19.73496     127.7822       603     9.609     5.101  56.21  27
         7     69.5933   1011.9273 299.8871121 +22.6890511     1784.298      69.8963     18.389    44.14     13.13564     19.73496     58.06577       347    10.702     5.054  28.34  27
         8    180.1796   1016.0956 299.9201076 +22.7234723     705.9507     69.86063      3.117     4.39     20.28349     19.73496     33.28638         5     1.496     0.367  85.56  17
         9     80.9326    958.8752 299.9079049 +22.6772632     2416.633       70.021     19.987    34.51     4.083419     19.73496     65.21249       277     8.997     3.674  -9.57   3
        10    656.5891    990.9004 300.0764967 +22.8593083     4075.481     69.86063      1.206     2.11    -5.242839     19.73496     660.6779        26     1.075     0.885  37.03   0
        11    133.6408    990.6083 299.9139468 +22.7021892     692.8138     69.96759      3.981     4.21     17.73125     19.73496     27.77456         5     1.277     0.396  53.15   1
        12     68.7567    997.7578 299.8914655 +22.6847416     2425.622      70.0388     15.794    27.54     9.880839     19.73496     57.32987       199     6.774     3.108  47.65  19
        13    111.1195   1002.7921 299.9029842 +22.6989125     1147.702      69.8963      9.700     8.87     21.56572     19.73496     43.33891        15     2.318     0.948  85.36   3
        14    153.0975    995.5047 299.9183973 +22.7094373     741.7621     70.12772      5.714     9.46     19.17227     19.73496     35.52293        14     1.868     1.337   0.90   2
        15    808.3161    984.5870 300.1258120 +22.9030282     212.4584      69.8963      1.295     4.24     -4.82343     19.73496     35.32343         6     0.907     0.564  41.73   0
        16    536.1216    984.8102 300.0409791 +22.8214018     195.2724     69.91413      0.992     2.67    -5.172253     19.73496     46.93831         5     0.755     0.627  36.23   0
        17    225.2434   1020.1268 299.9327986 +22.7381652     3986.792     69.01707      7.734    24.78     10.73398     19.73496     84.98264       243     5.373     4.131  17.03  27
        18    180.2534   1022.5009 299.9180450 +22.7253293     1078.194     60.55256      7.879    10.69     21.96334     19.73496     46.26046        29     2.428     1.311   6.81  27
        19     82.2059    946.5121 299.9123246 +22.6741044     2235.823     69.86063     14.664    29.55     1.076841     19.73496     122.1923       206     8.434     2.875 -15.20   3
        20    565.0857    981.7187 300.0510001 +22.8292102     918.2993     70.09216      1.076     1.89    -5.188639     19.73496     163.7954         9     0.802     0.606  58.17   0
        21    149.1797    992.8491 299.9180447 +22.7074996     975.6667     69.94978      4.864     9.42     18.33103     19.73496     41.67116        15     2.279     1.087 -18.49   2
        22    502.9710   1013.2004 300.0214192 +22.8195885      106.062     69.91413      1.020     3.14    -5.204283     19.73496     33.05509         5     0.790     0.496  54.66   0
        23    458.9443    978.1243 300.0191416 +22.7963147     566.9218     69.96759      1.157     2.29    -5.134142     19.73496     93.49339         9     0.772     0.701   5.00   0
        24    389.6504    976.2270 299.9982050 +22.7749645     3778.368     69.96759      1.103     1.96    -4.994033     19.73496      612.928        22     0.957     0.882  55.62   0
        25    113.4441    976.0640 299.9124078 +22.6919549     1097.053     69.94978     11.041    11.06     12.86691     19.73496     39.75191        17     2.252     1.513  16.71   2
        26    422.0039    963.0492 300.0125580 +22.7809020     431.4966     69.93195      1.328     3.85    -5.075039     19.73496      51.6619         7     1.001     0.532  31.94   0
        27    935.7571    954.8884 300.1752011 +22.9327373     1253.073     69.94978      1.102     1.90    -5.450879     19.73496     238.9239        13     0.900     0.740  56.46   0
        28    618.2185    948.9480 300.0782085 +22.8357610     222.8185     69.93195      1.315     3.71    -5.190648     19.73496     32.33058         5     1.127     0.350  78.19   0
        29    724.2449    942.9088 300.1131909 +22.8658468     387.2436     69.93195      1.304     2.77    -5.128506     19.73496     63.98184         8     0.829     0.608  47.78   0
        30    931.3747   1007.1543 300.1568168 +22.9464208     550.4593     69.96759      1.673     4.57    -6.014632     19.73496     66.91993        10     1.104     0.741 -60.89   0
        31    759.2599    937.9575 300.1257096 +22.8749326     608.4036     69.93195      1.161     2.30    -5.080649     19.73496     113.4581        10     0.908     0.632 -76.99   0
        32    536.9877    938.9814 300.0561683 +22.8085216     227.2654     69.91413      1.113     2.57    -5.105066     19.73496      44.9511         5     0.927     0.362  30.50   0
        33     85.2750    987.7786 299.8998445 +22.6868467      3131.55     69.93195     24.068    66.16     12.87963     19.73496     71.76344      1077    15.332     7.921  65.93  27
        34    781.6200    931.5955 300.1347466 +22.8798160     6538.337     69.91413      1.054     1.87     -5.01593     19.73496     1165.812        27     0.972     0.840  60.14   0
        35    827.1885    931.2888 300.1490447 +22.8933987     377.8216      69.8963      0.987     2.44    -5.017852     19.73496     63.98684         5     0.845     0.384 -84.47   0
        36     92.9961    923.6401 299.9231205 +22.6707942      549.353     69.96759      1.934     4.12    -3.488465     19.73496     58.08809         8     1.158     0.499  20.87   0
        37    833.4232    919.2463 300.1549076 +22.8918137     223.9515     69.96759      1.136     3.79    -5.027614     19.73496       47.654         7     0.969     0.477 -81.25   0
        38    486.5884    919.7681 300.0467391 +22.7878837     255.3073     69.94978      1.137     3.46    -5.124263     19.73496     39.59043         5     0.748     0.462  73.31   0
        39     82.9575    914.4994 299.9229775 +22.6651598     480.7632     69.93195      1.759     3.96    -3.894168     19.73496     43.64664         5     0.901     0.504 -46.69   0
        40    790.1684    913.5959 300.1432690 +22.8772165     805.7773     69.93195      1.045     2.13    -4.985178     19.73496     147.4436        10     0.822     0.692  33.37   0
        41    642.3096    910.9589 300.0980751 +22.8320956     301.6035     69.94978      1.124     2.61    -5.056946     19.73496     50.09493         7     0.714     0.662   2.48   0
        42    168.0149    907.2687 299.9517539 +22.6886394     238.1463     69.96759      1.230     4.28    -1.289543     19.73496     29.00689         6     0.909     0.574 -89.54   0
        43    828.2183    906.9173 300.1572989 +22.8867147     466.0296     69.91413      0.963     1.76    -5.001554     19.73496     98.93713         6     0.684     0.516 -53.72   0
        44    876.6365    898.3947 300.1751623 +22.8987923     243.7697     69.96759      1.020     2.42     -5.04446     19.73496     56.62284         6     0.800     0.480  86.82   0
        45    728.0636    897.1971 300.1292598 +22.8538793     456.0239     69.93195      1.264     2.48    -5.064096     19.73496     80.60564         7     0.853     0.479  42.81   0
        46    739.4523    894.6873 300.1336241 +22.8565761     379.5809      69.9854      1.196     2.96    -5.077264     19.73496     51.38195         6     0.683     0.659  28.33   0
        47    440.6896    893.9305 300.0408687 +22.7666970     2428.605     70.10994      1.110     1.97    -5.092837     19.73496     469.4024        20     0.934     0.842  -6.60   0
        48    165.9444    879.7513 299.9600656 +22.6801327     365.8846      69.9854      1.127     2.46    -3.270245     19.73496     71.99383         7     0.720     0.623  25.22   0
        49     74.5398    877.8113 299.9323024 +22.6521206      280.986     69.91413      0.968     1.88    -4.533916     19.73496     50.09531         5     0.667     0.455  65.28   0
        50    143.0897    876.8049 299.9539236 +22.6724238     870.9425     69.86063      1.210     2.27    -3.672879     19.73496     136.0273        12     0.872     0.771  10.86   0
        51   1014.6502    865.2944 300.2289649 +22.9306797     1261.419       70.021      1.029     1.85    -5.156494     19.73496     256.1743        14     0.898     0.733 -85.44   0
        52     17.8160    866.6426 299.9183213 +22.6318800     361.9619     69.96759      1.584     5.63    -5.124807     19.73496     36.71964         9     1.017     0.878  31.68   0
        53    968.9493    863.9095 300.2151642 +22.9165790     1141.264     69.96758      1.058     1.78    -5.041887     19.73496     277.5981        12     0.861     0.672  60.83   0
        54    752.5453    857.7398 300.1497272 +22.8499034     343.6652      70.0032      1.106     2.53    -4.923101     19.73496     79.16777         8     0.864     0.640  45.28   0
        55    175.3214    858.2436 299.9699779 +22.6767859     305.4419     69.93195      1.214     3.53     -4.45171     19.73496     63.76781         7     1.012     0.530 -26.48   0
        56    620.6390    851.9630 300.1105283 +22.8086705     2743.601       70.021      1.081     1.77    -4.897713     19.73496     563.5071        18     0.895     0.803  56.88   0
        57    110.1979    852.3782 299.9516538 +22.6555450     223.6239      69.8963      1.079     4.05    -4.538417     19.73496     35.07316         5     0.883     0.571 -48.86   0
        58    422.9515    849.0202 300.0499657 +22.7484956     439.8451      69.9854      1.212     2.12    -4.952433     19.73496     71.37422         7     0.803     0.524  41.55   0
        59    170.9619    846.0338 299.9725960 +22.6719776     818.2814      69.9854      1.247     2.19    -4.482276     19.73496     144.6808        13     0.897     0.841 -42.89   0
        60    641.1582    844.3707 300.1193875 +22.8126496     379.4955     69.96759      1.010     2.16    -4.774872     19.73496     80.09804         7     0.702     0.613  10.29   0
        61   1013.5590    831.6485 300.2395739 +22.9206929     780.3921      69.9854      1.167     2.22    -5.043815     19.73496     104.4398        13     0.905     0.731  51.34   0
        62    796.5479    831.5699 300.1719519 +22.8555933      2428.43     69.96759      1.025     1.80     -4.74054     19.73496     448.8878        16     0.841     0.783  31.60   0
        63    205.1823    825.8725 299.9897894 +22.6764765     257.8024     69.94978      1.116     3.32     -4.50258     19.73496     42.40321         7     0.860     0.577  65.79   0
        64    513.4309    824.0944 300.0862266 +22.7685050     348.7078     69.87846      1.084     2.10    -4.750544     19.73496     91.96556         6     0.793     0.467  46.22   0
        65    159.9695    822.3123 299.9768985 +22.6618783     584.6339     69.93195      1.243     2.21    -4.558029     19.73496     100.0107         9     0.831     0.656  67.46   0
        66    575.4982    817.7250 300.1076162 +22.7853041     334.6614     70.07438      1.193     3.31    -4.679375     19.73496     51.95823         5     0.746     0.425  64.61   0
        67    309.8103    814.4518 300.0260275 +22.7046189     31489.23     69.94978      1.159     1.96    -4.511183     19.73496     5114.494        62     1.131     1.036  58.52   0
        68    567.4850    813.4087 300.1065263 +22.7816615     1073.126      69.8963      1.127     2.03    -4.646235     19.73496     152.5713        14     0.915     0.760  72.65   0
        69    283.9647    812.7711 300.0185391 +22.6963773      229.935     69.96759      1.148     3.15    -4.502206     19.73496     32.83714         5     0.786     0.497 -58.90   0
        70    980.2728    812.2576 300.2355032 +22.9051460     452.1757      69.9854      1.073     2.48    -4.824795     19.73496     85.63913         6     0.727     0.534  51.49   0
        71    238.0291    812.2561 300.0044278 +22.6824372     113.2891     69.94978      1.026     2.82    -4.491731     19.73496      52.8811         5     0.794     0.468  49.67   0
        72    596.6113    809.3218 300.1169226 +22.7892289     513.1662     69.93195      1.074     2.40    -4.591392     19.73496     91.42624         8     0.839     0.575  85.08   0
        73    926.9329    804.6199 300.2213574 +22.8869601     220.7827     69.91413      1.041     2.62    -4.547904     19.73496     40.93748         5     0.726     0.439  20.98   0
        74    712.9949    803.5461 300.1550416 +22.8224889     237.6815     69.93195      1.050     2.22     -4.51078     19.73496     45.03287         6     0.735     0.498   0.05   0
        75    750.4346    794.1502 300.1697606 +22.8310233     351.2857     69.96759      0.978     1.92    -4.513173     19.73496     74.66766         6     0.666     0.576 -40.09   0
        76    359.5329    791.6740 300.0488987 +22.7130155     18267.38       70.021      1.128     2.03    -4.402992     19.73496     2826.593        47     1.080     0.986  63.05   0
        77    373.7741    792.2321 300.0531461 +22.7174505     1116.461     69.94978      1.144     1.98    -4.437358     19.73496     213.8208        13     0.867     0.749  46.21   0
        78    241.9691    783.7753 300.0149175 +22.6754562     341.7199     69.94978      1.003     1.87    -4.486551     19.73496     89.49868         7     0.760     0.510  48.65   0
        79    640.4539    783.3401 300.1390250 +22.7949293     510.8742      70.0032      1.090     1.85    -4.458272     19.73496     83.92241         5     0.632     0.473  68.25   0
        80    476.8271    783.3229 300.0881011 +22.7458264     260.5876     69.94978      1.409     1.82    -4.388272     19.73496     49.35789         5     0.706     0.416 -22.03   0
        81    487.5587    778.3015 300.0930737 +22.7476068     531.6669     69.93195      1.095     2.12     -4.34602     19.73496      83.0882         9     0.789     0.666  60.15   0
        82     46.7089    778.7847 299.9558761 +22.6153880     258.3707     69.87846      1.172     3.42    -4.696667     19.73496     50.53113         5     0.763     0.443  80.85   0
        83    882.3871    787.2786 300.2131133 +22.8686247     1630.009     69.94978      1.025     1.70    -4.444138     19.73496     338.3192        15     0.834     0.741 -89.83   0
        84     75.1660    772.9720 299.9666048 +22.6222695     354.8893     69.96759      1.359     3.49    -4.625037     19.73496     47.26176         8     1.015     0.526  37.76   0
        85    239.7072    768.0024 300.0193451 +22.6702556     229.4277     69.86063      1.203     2.06    -4.487241     19.73496     46.59161         5     0.738     0.450  25.26   0
        86    563.1556    757.9960 300.1232053 +22.7644667     172.6024     69.96759      1.039     3.61     -4.45589     19.73496     37.68364         5     0.804     0.486 -24.29   0
        87    554.3712    753.7295 300.1218589 +22.7606070     895.9297     69.94978      1.169     2.15     -4.45498     19.73496      149.218        14     0.943     0.842 -14.78   0
        88    473.9840    753.5728 300.0968938 +22.7364404     278.3679     69.96759      1.061     2.52    -4.110708     19.73496     45.81337         5     0.741     0.548  87.89   0
        89    948.7274    752.5620 300.2450882 +22.8785490     2679.416     69.91413      1.049     1.82    -4.332999     19.73496     503.2016        18     0.925     0.767  32.23   0
        90    937.2581    744.0536 300.2442800 +22.8726675     929.7675      70.0032      1.041     1.76    -4.203129     19.73496     197.5961        10     0.775     0.661  31.32   0
        91    300.2011    738.0748 300.0478843 +22.6798366     569.7045     69.84279      1.296     1.96    -4.370553     19.73496     103.7559         9     0.745     0.685  25.26   0
        92    763.7596    735.3875 300.1930271 +22.8181553     1547.309     69.94978      1.217     2.19    -4.444092     19.73496     218.4743        18     1.163     0.836   7.30   0
        93    968.3480    734.1395 300.2571984 +22.8791414     1033.155      70.0032      1.003     1.75    -4.350119     19.73496     217.9581        11     0.865     0.650  64.23   0
        94    149.0076    721.9236 300.0061459 +22.6298140     282.6782      69.8963      1.215     2.36    -4.500154     19.73496       73.635         8     0.891     0.568  66.18   0
        95    845.8007    720.6587 300.2233811 +22.8385296     319.5276     69.91413      1.166     2.45    -4.233756     19.73496     60.08036         8     0.840     0.647  57.94   0
        96    882.0311    712.2195 300.2374180 +22.8469699     85899.15     69.94978      1.142     1.83     -4.04017     19.73496     17403.52       105     1.184     1.051  60.65   0
        97    644.1484    716.3818 300.1619550 +22.7768251     216.5419     69.93195      1.259     3.86    -4.261049     19.73496     33.17112         5     0.879     0.486   1.05   0
        98    734.3268    712.4264 300.1913262 +22.8027380     383.7813     69.94978      0.954     2.31    -4.373541     19.73496     68.98352         7     0.791     0.557  53.38   0
        99    914.7858    705.1032 300.2499428 +22.8547467     265.6585     69.86063      0.980     1.70    -3.989246     19.73496      61.6734         6     0.669     0.527 -39.28   0
       100    568.2039    701.2332 300.1432382 +22.7496962     979.6986     69.94978      1.226     2.70     -4.02679     19.73496     138.1253        15     1.044     0.764  15.73   0
       101    749.5047    698.4724 300.2005924 +22.8032847     5605.935     70.05659      1.053     1.93    -4.323863     19.73496     845.3327        26     0.990     0.858  58.06   0
       102    251.1993    693.8387 300.0470367 +22.6524433     2760.914     69.94977      1.196     2.06    -4.252609     19.73496     468.3291        21     0.957     0.891  66.77   0
       103    333.2190    691.7203 300.0732251 +22.6764552      612.509     69.94978      1.193     2.47    -4.037446     19.73496     86.26212         9     0.856     0.640  69.01   0
       104    208.9369    689.5445 300.0352974 +22.6385249     237.1239      70.0032      1.043     2.48     -4.22866     19.73496     48.27436         5     0.725     0.457  20.64   0
       105    541.3456    687.1843 300.1394470 +22.7376077     438.7459     69.91413      1.110     2.49    -3.871917     19.73496     63.14942         9     0.820     0.681 -16.35   0
       106    533.1044    679.4382 300.1394010 +22.7329128     1812.334     69.93195      1.138     2.06    -3.782717     19.73496     301.9065        16     0.905     0.837  17.93   0
       107    523.3762    673.2104 300.1383984 +22.7282074     894.7597     69.94978      1.237     2.41    -3.726957     19.73496     123.5989        11     0.892     0.767  63.24   0
       108    916.5574    670.6650 300.2616945 +22.8453891     296.4024     69.93195      1.073     2.61    -3.813879     19.73496     55.90643         5     0.720     0.464 -71.23   0
       109    434.0955    670.0546 300.1116447 +22.7005144     177.3672       70.021      1.173     3.73    -3.835432     19.73496      33.0248         5     0.637     0.628 -33.20   0
       110    200.9850    667.9115 300.0398600 +22.6299354     411.9374      69.8963      1.228     4.11    -4.128082     19.73496     70.34452         8     1.138     0.504  67.61   0
       111    186.6317    669.5260 300.0348746 +22.6260894     364.1513     69.96759      1.064     2.69    -4.158627     19.73496     65.14307         6     0.847     0.468  14.38   0
       112    970.2398    664.0416 300.2805857 +22.8595785      400.968      70.0388      1.251     3.35    -4.101482     19.73496     59.96151         9     0.992     0.649  74.02   0
       113    226.6551    664.7053 300.0488805 +22.6367222     225.2166      70.0032      0.905     2.10    -4.077168     19.73496     60.97428         5     0.691     0.449  72.69   0
       114    448.1101    662.7933 300.1183656 +22.7026366     920.0677     69.86063      1.219     2.42    -3.794048     19.73496     146.8478        12     0.916     0.711  53.85   0
       115    102.1578    657.9759 300.0123842 +22.5974164     11553.62      70.0032      1.265     2.19    -4.223794     19.73496     1785.905        43     1.151     1.028  51.28   0
       116   1023.6052    659.9605 300.2985552 +22.8744008     460.8136     54.78219      1.023     2.14     -4.40356     19.73496     90.79021         6     0.730     0.478  79.11  24
       117     23.2482    659.7405 299.9873024 +22.5742274     424.2148      70.0032      1.222     3.06    -4.266986     19.73496     53.65831         7     0.833     0.585  55.16   0
       118    532.9927    658.0723 300.1463134 +22.7267491     627.1052     69.91413      1.131     2.22    -3.693704     19.73496     91.34378         8     0.774     0.624  46.63   0
       119    567.9694    657.1382 300.1575036 +22.7369736      234.705     69.96759      1.180     2.68    -3.692414     19.73496     43.99561         5     0.776     0.493  57.81   0
       120    950.8622    644.0020 300.2810596 +22.8480151     698.7593     69.93195      1.293     1.90    -3.878727     19.73496     129.4406        12     0.936     0.754 -33.50   0
       121     48.0585    641.9729 300.0007834 +22.5765852     1034.357     69.94977      1.733     4.99    -4.244729     19.73496     90.63647        16     1.368     0.770 -87.24   0
       122    817.8077    642.2300 300.2401618 +22.8076200     169.1723     69.94978      1.168     4.32    -4.011436     19.73496     35.39458         7     0.898     0.592  38.50   0
       123    496.0707    638.4323 300.1412087 +22.7100373     268.0486     69.94978      1.141     3.90    -3.685628     19.73496     47.19261         6     1.002     0.436  15.13   0
       124    891.1791    636.5447 300.2648777 +22.8279835     371.4511     69.96759      1.049     2.28     -3.62056     19.73496     77.07264         6     0.679     0.643  -6.67   0
       125    886.8251    636.0453 300.2636829 +22.8265349     222.9872     69.96759      1.083     3.94    -3.609148     19.73496      34.1434         6     0.955     0.466  54.25   0
       126    453.0909    630.9528 300.1302672 +22.6949966     499.5119     69.94977      1.349     2.61    -3.746488     19.73496     57.00593         8     0.800     0.652  46.82   0
       127    648.3536    627.9443 300.1920213 +22.7527062     410.3969      69.9854      1.482     3.83    -3.887153     19.73496     48.38772         6     1.252     0.337  60.45   0
       128    619.0161    627.5880 300.1830024 +22.7438051     417.8286      69.8963      1.380     2.76    -3.687772     19.73496     48.76434         6     0.770     0.490   4.95   0
       129    497.3200    626.8110 300.1453755 +22.7070777     542.0493     69.93195      1.194     2.46     -3.67135     19.73496     79.32769         8     0.880     0.557  74.91   0
       130    930.9982    622.1843 300.2819599 +22.8357952     1891.651     69.80709      1.055     1.75    -3.659397     19.73496     435.7088        14     0.840     0.721  64.34   0
       131    462.9624    622.4272 300.1361101 +22.6955124     1056.307     69.96759      1.211     2.13    -3.719102     19.73496     157.6055        16     0.958     0.873  14.48   0
       132     24.9400    616.2639 300.0019611 +22.5622743     2914.217      69.9854      1.245     2.23    -4.279181     19.73496     450.4323        23     1.010     0.912  65.01   0
       133    326.3496    609.2830 300.0978908 +22.6507504     5327.104     69.96759      1.206     2.25    -3.928184     19.73496     717.7208        28     1.052     0.951  52.52   0
       134    448.7124    606.2032 300.1369506 +22.6865824     5168.864     69.87846      1.217     2.16    -3.713688     19.73496     840.7016        30     1.082     0.954  49.59   0
       135    860.2304    599.9366 300.2671326 +22.8081937     1067.739     69.96759      1.177     2.18     -3.63276     19.73496     193.8965        11     1.013     0.614  79.88   0
       136    944.8855    597.3258 300.2943711 +22.8328179     7217.055     70.07438      1.115     1.88    -3.633933     19.73496     1320.527        27     0.968     0.875  69.73   0
       137    509.3095    595.7551 300.1592020 +22.7017633     6626.915     69.93195      1.236     2.22    -3.585866     19.73496     953.3681        32     1.098     0.952  62.55   0
       138    678.7021    591.7120 300.2132505 +22.7514073     326.8959     70.10994      1.142     2.16    -3.915943     19.73496     47.63156         5     0.701     0.441  77.11   0
       139    236.6800    591.2618 300.0758713 +22.6186710     865.5481      70.0388      1.282     2.39    -3.808947     19.73496     113.4695        13     0.980     0.802  88.03   0
       140    394.5864    590.1909 300.1253180 +22.6657492     223.3437     69.86063      1.373     3.49    -3.701873     19.73496     25.83508         5     0.785     0.449 -71.66   0
       141    483.3022    588.6402 300.1534217 +22.6919201     299.1421     69.94978      1.125     3.69    -3.597304     19.73496     35.71073         6     0.713     0.667  63.48   0
       142    440.9915    583.9185 300.1417921 +22.6778723     2422.836      69.8963      1.242     2.13    -3.618051     19.73496     408.6029        21     1.007     0.891  75.75   0
       143    783.5632    583.6467 300.2485365 +22.7805327     468.5719      69.9854      1.084     2.22    -4.165491     19.73496     71.86108         7     0.800     0.532  31.83   0
       144    419.2426    582.4813 300.1354934 +22.6709350     721.1553     69.91413      1.288     2.50    -3.627957     19.73496      95.7422        13     0.928     0.797  85.65   0
       145    173.7479    582.0253 300.0593152 +22.5971333     388.7094     69.96759      1.258     2.46    -4.051858     19.73496     61.44995         8     0.794     0.638  50.25   0
       146    860.6172    579.2242 300.2739860 +22.8023615     922.7809     69.94978      1.186     2.51    -3.622813     19.73496     129.5955        14     0.996     0.751 -58.57   0
       147    741.1799    576.1283 300.2377761 +22.7656671     607.5892      69.9854      1.251     2.52    -4.160858     19.73496     98.71072        11     0.920     0.736 -85.67   0
       148    557.5566    571.4630 300.1821139 +22.7092639       119600     69.94978      1.222     2.18    -3.478867     19.73496     16206.88       138     1.300     1.261  41.27   0
       149    243.7935    571.6314 300.0844627 +22.6151761     1926.671     69.94978      1.220     2.25    -3.707798     19.73496     275.8707        17     0.995     0.817  77.61   0
       150    809.3050    567.3483 300.2618551 +22.7835697     336.1023       70.021      1.150     3.21    -4.084543     19.73496     48.99114         5     0.741     0.446  16.49   0
       151    292.1227    554.3176 300.1051137 +22.6247135     270.8813     70.05659      1.337     3.27    -3.917686     19.73496     38.13365         5     0.873     0.465  -2.02   0
       152    448.2470    551.7359 300.1545092 +22.6708148     1427.448      69.9854      1.252     2.47    -3.460603     19.73496     194.7863        15     0.957     0.796  62.68   0
       153    765.6980    540.7245 300.2569211 +22.7628522      387.468     70.09216      1.894     3.67    -4.111963     19.73496     40.57302         5     0.930     0.417  44.54   0
       154    844.9565    537.7832 300.2825744 +22.7857659      1130.37     69.96759      1.229     2.05    -3.743681     19.73496      183.953        13     0.926     0.765   4.44   0
       155    716.2734    535.4945 300.2432242 +22.7465332     1377.644     70.09216      1.202     2.20    -3.892122     19.73496     208.6094        15     0.930     0.829  80.70   0
       156    960.5124    532.6861 300.3202539 +22.8189334     310.0486     70.07438      1.114     3.43    -3.487086     19.73496      37.5248         6     0.881     0.464  -0.82   0
       157    503.0939    531.6136 300.1781144 +22.6814923      422.154     69.87846      1.262     3.27    -3.381187     19.73496     67.07938         8     0.889     0.643   5.11   0
       158    973.5733    529.3658 300.3254057 +22.8218933     663.0234     69.96759      1.065     2.11     -3.47362     19.73496     117.4804        12     0.915     0.685  88.48   0
       159    845.5144    528.3022 300.2858295 +22.7832102      1270.29     70.10994      1.312     2.50    -3.712873     19.73496     162.3278        14     1.025     0.757  66.70   0
       160    959.4119    528.3792 300.3213105 +22.8173664     493.3579     69.93195      1.059     2.13    -3.480994     19.73496     78.31858         7     0.760     0.594 -73.56   0
       161    598.5955    525.7454 300.2097471 +22.7084495     421.9213     69.94978      1.320     3.12    -3.285329     19.73496     50.88726         8     0.910     0.595  73.18   0
       162    437.3973    525.0004 300.1598219 +22.6598885     248.9067     69.73564      1.310     4.90    -3.417888     19.73496     26.62468         7     0.894     0.762  -4.68   0
       163    883.4924    522.9881 300.2993936 +22.7930663     2347.301      69.8963      1.122     2.05    -3.561715     19.73496     408.7997        19     0.934     0.838  46.75   0
       164    975.2118    513.4313 300.3310950 +22.8178064     504.6438     69.94978      1.222     2.61    -3.442129     19.73496     64.66969         9     0.941     0.607  71.74   0
       165    115.4792    513.5948 300.0634484 +22.5600208     613.3409     69.87847      1.268     3.47     -4.17701     19.73496     86.05595        10     0.899     0.860  23.40   0
       166    776.3514    507.6795 300.2709790 +22.7565565     241.7883     69.94978      1.362     4.04    -3.856693     19.73496     26.07534         6     0.901     0.517  44.13   0
       167    108.1894    503.2220 300.0645539 +22.5548582     319.9462     69.93195      1.444     4.04    -4.192564     19.73496      48.1367         5     1.038     0.505  36.95   0
       168    657.1492    493.6609 300.2384043 +22.7167958     470.6567      70.0032      1.284     2.50    -3.325453     19.73496     77.32612        10     0.891     0.695  30.11   0
       169    717.8015    485.6427 300.2598995 +22.7326770      532.506     69.94978      1.467     2.29    -3.605015     19.73496     64.15609         7     0.772     0.592  80.70   0
       170    874.7479    481.7072 300.3100820 +22.7785881     554.7278      70.0032      1.149     2.77    -3.570312     19.73496      93.9324        10     0.985     0.640  53.18   0
       171    859.0999    478.1237 300.3063690 +22.7728692     410.4024     70.07438      1.338     3.91    -3.589397     19.73496     49.76242         7     0.715     0.702  84.57   0
       172    603.5361    476.3859 300.2273237 +22.6957613     1758.939     69.91413      1.203     2.27     -2.88446     19.73496     233.3562        14     0.886     0.820  40.01   0
       173    963.7556    474.9950 300.3400122 +22.8033309     252.6386     69.94978      1.004     2.37    -3.373908     19.73496     74.38296         8     0.919     0.586   7.86   0
       174    868.9785    469.0521 300.3123955 +22.7732238     1462.315     69.94977      0.474    -3.85     -3.56716     19.73496     1027.249         6     0.466     0.312  14.40   0
       175   1014.8222    455.0163 300.3624288 +22.8128897     765.8413     69.93195      1.137     2.06    -2.969099     19.73496     150.9504        11     0.844     0.728  59.57   0
       176    973.0970    453.9936 300.3497484 +22.8000954     646.9106     69.84279      1.205     2.02    -3.212589     19.73496     114.1362        11     0.898     0.720 -76.03   0
       177    886.7120    455.0608 300.3224688 +22.7745187     253.9154       70.021      1.089     2.09    -3.530583     19.73496     63.31578         7     0.768     0.578  64.29   0
       178    713.9528    449.9827 300.2702864 +22.7212830      630.136      69.9854      1.295     2.32    -3.434567     19.73496     113.6429        13     1.018     0.770  29.24   0
       179    218.0298    448.6128 300.1164259 +22.5721591     513.3449     69.94978      1.330     2.89    -3.466794     19.73496     70.77876         9     0.900     0.654  67.92   0
       180    280.5336    444.3175 300.1372507 +22.5896802     2170.521     70.05659      1.273     2.24    -3.352546     19.73496     279.0422        23     1.051     0.986  39.07   0
       181   1013.3813    442.3875 300.3660822 +22.8088290     2419.111     69.91413      1.086     2.07    -2.822809     19.73496     387.7445        16     0.912     0.793  59.36   0
       182    227.8445    439.2362 300.1225223 +22.5724142     4259.062      70.0032      1.270     2.29    -3.414162     19.73496     647.6733        25     1.082     0.929  66.63   0
       183    368.4757    433.3611 300.1681558 +22.6129177     2680.933     69.91413      1.240     2.30    -3.237167     19.73496      352.273        22     1.043     1.002 -85.99   0
       184    993.4841    433.6057 300.3627296 +22.8003448      1065.25     69.87847      1.093     2.11    -2.905288     19.73496     153.5294        14     0.859     0.800  54.53   0
       185    612.6782    430.0101 300.2452359 +22.6851876     10696.42     69.91413      1.332     2.36    -2.855809     19.73496      1483.12        42     1.172     1.061  53.56   0
       186    629.9055    429.8788 300.2506424 +22.6903147      420.456     70.05659      1.819     6.09    -2.883376     19.73496     44.08582        10     1.445     0.722 -26.78   0
       187    809.4357    420.1834 300.3097144 +22.7413423     247.6319     69.94978      1.357     2.28    -3.631373     19.73496     37.81367         5     0.697     0.455  68.19   0
       188    946.2555    412.1085 300.3549854 +22.7800186      408.299      70.0032      1.216     3.61     -3.28601     19.73496     66.59964         9     0.972     0.667 -48.72   0
       189    167.3246    410.3216 300.1131052 +22.5459605     1151.081     70.05659      1.181     2.26    -3.400361     19.73496     168.6945        15     0.944     0.848  25.43   0
       190    553.2821    399.4128 300.2366837 +22.6585948     3794.983     69.93195      1.280     2.37    -2.831251     19.73496     451.7711        26     1.057     0.992  54.81   0
       191    966.7141    399.4085 300.3654899 +22.7824982     640.6302     69.87847      1.054     2.12    -3.045479     19.73496     117.0214        10     0.801     0.697  27.56   0
       192    268.3866    398.5482 300.1483403 +22.5729040      349.058      69.9854      1.272     2.68    -3.305387     19.73496     52.33742         7     0.830     0.609  62.98   0
       193    125.8868    392.0682 300.1061579 +22.5282904     264.4898     70.05659      1.203     3.43    -3.421979     19.73496     47.73228         7     0.936     0.577  13.55   0
       194    757.2847    388.2245 300.3038456 +22.7165332     749.9411     69.91413      1.392     3.15    -3.326602     19.73496     87.40421        12     0.953     0.866  72.02   0
       195    666.4075    389.3037 300.2751882 +22.6896054      225.184     69.84279      1.023     3.40    -2.815691     19.73496      35.7549         5     0.758     0.440  69.32   0
       196    459.8917    385.7175 300.2120679 +22.6266602     3446.449     70.09216      1.302     2.27    -2.919132     19.73496     498.0856        25     1.069     0.952  62.15   0
       197    949.2225    380.1153 300.3663021 +22.7717140     377.9867      69.8963      1.247     3.36    -3.251648     19.73496     56.83951         7     0.846     0.645  38.34   0
       198    851.7454    379.8549 300.3359989 +22.7424350     881.1677      69.9854      1.244     2.38    -3.509184     19.73496     122.4559        11     0.844     0.766  50.54   0
       199    824.4710    367.2487 300.3315928 +22.7306410     301.0768     69.93195      1.163     3.39    -3.467403     19.73496     49.76011         5     0.770     0.431  66.80   0
       200    347.4924    365.0222 300.1838249 +22.5870118     1469.147     69.87846      1.344     2.53    -2.960741     19.73496     187.8525        17     0.974     0.895 -68.06   0
       201     65.9358    362.6492 300.0970875 +22.5018620     596.7562      69.9854      1.182     3.01    -3.687992     19.73496     74.60165         9     0.911     0.679  87.46   0
       202    316.8253    354.4448 300.1777230 +22.5747782     17370.54     69.96759      1.341     2.39    -3.017611     19.73496     2217.043        51     1.200     1.108  58.41   0
       203    851.4079    351.4609 300.3451150 +22.7341759     866.7628     69.93195      1.366     2.92    -3.465004     19.73496     103.4695        12     0.989     0.778 -79.59   0
       204     13.2591    342.3645 300.0873138 +22.4802359     2956.565     69.96759      1.331     2.44    -3.983181     19.73496     341.5951        28     1.092     1.042  49.04   0
       205    191.0144    340.9997 300.1429783 +22.5331806     245.8909     69.80709      1.364     2.63    -3.219313     19.73496     38.42544         5     0.623     0.587  90.00   0
       206    415.6201    339.7442 300.2132234 +22.6001875     328.6748     69.93195      1.447     2.94     -2.89039     19.73496     35.72325         6     0.703     0.633 -36.06   0
       207    727.0656    333.9297 300.3120636 +22.6918808     1063.135      69.9854      1.352     2.43    -2.814373     19.73496     149.7588        15     1.039     0.831  58.01   0
       208    942.1743    326.6807 300.3814571 +22.7542465     262.6392     69.93195      1.234     3.20     -3.14366     19.73496     50.07893         8     0.989     0.558  56.53   0
       209    389.0127    318.7761 300.2117547 +22.5861897     1281.266     69.94978      1.592     3.17    -2.894702     19.73496     135.1039        22     1.301     0.979  64.62   0
       210    827.8259    311.0130 300.3508992 +22.7154886     272.0678     69.94978      1.196     2.74     -3.03562     19.73496      53.8644         6     0.744     0.544  54.67   0
       211    464.8941    298.0776 300.2420816 +22.6029999     666.7497     70.05659      1.303     2.60    -2.916678     19.73496     84.69168        11     0.947     0.694   8.41   0
       212    709.6577    289.9665 300.3209150 +22.6740350     1196.985     69.96759      1.251     2.34    -2.753057     19.73496     176.6589        16     0.959     0.849  57.11   0
       213    970.8145    284.1584 300.4041939 +22.7506029     1816.562     69.96759      1.222     2.06    -2.849076     19.73496     314.9961        17     0.929     0.812  64.49   0
       214    418.3170    273.8184 300.2354655 +22.5820701     357.1971     69.91413      1.414     3.02    -2.954959     19.73496      62.0117         8     0.979     0.555  21.33   0
       215     92.9090    268.0792 300.1361680 +22.4828267     798.9243     70.09216      1.462     3.12    -3.148312     19.73496     88.55547        16     1.102     0.983 -54.16   0
       216    123.0862    268.1408 300.1455232 +22.4918977     335.2097     70.05659      1.351     3.28    -3.103097     19.73496     36.54309         8     0.832     0.729  -1.11   0
       217    986.7606    264.0309 300.4157009 +22.7495928     167.5141     69.94978      1.159     1.94    -2.838277     19.73496     49.19822         5     0.818     0.630  52.46   0
       218    830.2146    261.2749 300.3677911 +22.7019119     147.2969     69.94978      1.043     3.27    -2.827442     19.73496     37.93003         6     0.746     0.575  45.29   0
       219    177.0600    260.0340 300.1649258 +22.5057624     293.8845     69.96758      1.255     3.63    -3.083521     19.73496     43.41502         5     0.788     0.514 -64.46   0
       220    781.1307    251.0042 300.3558295 +22.6842559     333.9445     69.91413      1.230     2.23    -2.786031     19.73496     61.33565         8     0.781     0.644  56.87   0
       221    879.2808    240.0859 300.3899623 +22.7105199     1289.509     70.09216      1.350     2.62    -2.877422     19.73496     153.3459        15     1.070     0.794  68.27   0
       222    298.0721    237.7053 300.2097895 +22.5356475     1367.228     70.05659      1.423     2.71    -3.058894     19.73496     153.1683        18     1.032     0.903  81.04   0
       223    376.2593    232.8260 300.2356882 +22.5576912     638.5345     69.94978      1.544     4.03     -3.06037     19.73496     59.63965        10     1.069     0.688  60.81   0
       224    777.8042    232.0158 300.3609564 +22.6778030     347.5498     69.84279      1.218     3.89    -2.786031     19.73496     48.43305         7     0.874     0.622  16.70   0
       225    192.8076    224.8347 300.1812439 +22.5003845     375.5789     69.94977      1.448     2.64    -3.087243     19.73496     67.27639         8     0.899     0.591 -84.31   0
       226    795.5192    221.5955 300.3698584 +22.6801155     386.7747     69.87847      1.348     3.03     -2.77251     19.73496     56.70398         5     0.743     0.435  65.88   0
       227    730.5455    221.7437 300.3495669 +22.6606930     1002.723      70.0032      1.369     2.65    -2.777886     19.73496     123.8257        13     0.954     0.779  37.30   0
       228    214.2697    218.5220 300.1899631 +22.5050096      259.105     70.05659      1.165     2.37      -3.0411     19.73496     54.24974         5     0.707     0.481  15.26   0
       229   1001.8107    214.0971 300.4366027 +22.7397443     432.9026     69.84279      1.238     2.11    -2.763458     19.73496     90.27558         9     0.828     0.632  19.89   0
       230    734.3927    213.0887 300.3535743 +22.6593587     428.5937     69.86063      1.245     2.93    -2.753453     19.73496     51.43157         7     0.815     0.617  24.19   0
       231    655.1127    212.5456 300.3290571 +22.6354487     654.8149      69.9854      1.279     2.47    -2.802258     19.73496     100.3457        10     0.818     0.802  34.14   0
       232    850.5374    203.7841 300.3927851 +22.6914768     804.4488     69.93195      1.237     2.56    -2.835138     19.73496     110.5142        11     0.899     0.763  76.71   0
       233    581.1464    204.1274 300.3087584 +22.6108654     664.8387     69.94978      1.397     2.96    -2.926739     19.73496     68.51705         9     0.796     0.730  60.57   0
       234    862.6229    202.6138 300.3969319 +22.6947603     538.3687     69.93195      1.408     2.71    -2.870206     19.73496     76.62863         9     0.948     0.596 -85.57   0
       235   1023.2492    193.6373 300.4499295 +22.7402807     901.8019     56.70496      1.118     2.37    -2.585227     19.73496      147.192        10     0.854     0.670  76.21  24
       236    979.1570    193.1750 300.4363278 +22.7269457     689.9059      69.9854      1.191     2.70    -2.707965     19.73496     97.18238         9     0.804     0.716  81.66   0
       237      2.8978    190.0143 300.1335454 +22.4334254     155.7714     62.23743      1.223     3.82    -2.684193     19.73496     37.03595         5     0.862     0.779  89.30  16
       238    213.3025    186.3788 300.2000930 +22.4954938     450.8901     69.87847      1.481     3.32    -2.761319     19.73496     54.45918         8     0.994     0.608  79.32   0
       239     75.3473    181.5815 300.1587832 +22.4527401     1338.052     69.93195      1.284     2.56    -2.740571     19.73496     149.3021        16     1.019     0.846  67.82   0
       240    898.2513    177.8624 300.4160704 +22.6983160     345.4396      70.0032      1.309     4.26    -2.859829     19.73496     47.74975        10     1.104     0.637  44.43   0
       241    232.6240    174.6428 300.2099068 +22.4979193     3309.555      70.0032      1.339     2.38    -2.708976     19.73496     456.6915        26     1.135     1.000  87.06   0
       242     16.7642    169.1302 300.1446276 +22.4315936     708.3817     69.94978      1.238     2.66      -2.4698     19.73496     101.2864        12     0.937     0.761  42.28   0
       243    215.5914    165.4919 300.2075815 +22.4901849     436.3803     69.87847      1.355     3.87    -2.578916     19.73496     42.33596         8     0.832     0.790 -73.14   0
       244    876.6180    155.9658 300.4164318 +22.6855428     2080.063     69.94978      1.263     2.31    -2.843355     19.73496      290.545        19     0.989     0.889  79.70   0
       245    980.2183    154.6899 300.4491472 +22.7161982     1590.445     69.87846      1.216     2.19    -2.558896     19.73496     231.7472        17     0.953     0.830  50.65   0
       246    426.2017    151.7294 300.2775397 +22.5493766     374.1117     69.87846      1.237     4.10     -3.04654     19.73496     41.41933         6     0.748     0.643  60.92   0
       247    541.0293    149.8677 300.3138768 +22.5832567     244.3191     69.93195      1.838     4.56    -2.899514     19.73496     27.44214         5     1.199     0.493  68.14   0
       248    116.4021    140.3682 300.1849086 +22.4532272     316.9909     69.91413      1.314     3.18    -2.584596     19.73496     43.28728         7     0.934     0.475 -81.18   0
       249    477.2353    138.5284 300.2977015 +22.5608812     1084.501     69.94978      1.448     2.77    -2.980232     19.73496     125.2008        15     1.008     0.874  16.67   0
       250    405.6047    139.0638 300.2752413 +22.5395654     266.4832     69.93195      1.065     3.38    -3.063819     19.73496     37.77773         5     0.758     0.436 -69.14   0
       251    251.5487    118.6409 300.2339583 +22.4875172     3500.567     69.94978      1.329     2.43    -2.596307     19.73496     472.3356        27     1.127     0.990  66.07   0
       252    102.7325    117.9791 300.1879246 +22.4427018     454.2686     69.93195      1.485     2.97    -2.535362     19.73496     40.94187         7     0.704     0.687  66.82   0
       253    497.5140    103.8398 300.3152654 +22.5569944     3696.035     69.93195      1.356     2.53    -2.919419     19.73496     486.6695        26     1.118     0.989  53.52   0
       254    382.9378    103.7782 300.2796370 +22.5226376     380.0949     69.93195      1.226     3.02     -3.06637     19.73496     60.30913         7     0.983     0.617  31.12   0
       255    749.8593     93.1743 300.3973005 +22.6295302     553.3462     69.94978      1.541     3.80    -2.587457     19.73496     56.33779        10     1.072     0.722  51.15   0
       256    842.6042     91.8087 300.4266440 +22.6569132     231.4717     69.78923      0.994     3.35    -2.582672     19.73496     43.55247         5     0.919     0.435  74.02   0
       257    549.1359     86.6030 300.3369236 +22.5675110     340.8264     69.94978      1.271     4.10     -2.71495     19.73496      36.7339         6     0.763     0.628  40.87   0
       258    625.8646     83.8682 300.3616987 +22.5897136     3646.789      70.0032      1.338     2.50    -2.671444     19.73496     495.1167        27     1.115     1.020  57.93   0
       259    400.9701     83.0141 300.2919814 +22.5220789     948.6487     69.96758      1.389     2.90    -3.063157     19.73496     110.5828        14     1.076     0.775  68.39   0
       260    666.9539     80.9407 300.3754440 +22.6011813     549.6927      69.9854      1.465     3.65    -2.585884     19.73496     62.84867        10     1.011     0.751  52.92   0
       261    683.0503     77.0838 300.3817083 +22.6048945     412.5583     69.94977      1.175     2.90    -2.571464     19.73496     52.07462         7     0.865     0.511  50.50   0
       262    149.6013     75.5140 300.2162608 +22.4445682     422.0619     69.87847      1.354     2.87    -2.454715     19.73496     54.49174         7     0.823     0.629  70.40   0
       263    952.8325     74.5993 300.4665901 +22.6849690     332.5646     69.91413      1.193     3.31    -2.475678     19.73496     56.27831         8     0.914     0.731  35.66   0
       264    721.1974     72.2228 300.3951673 +22.6149236     348.8241      69.8963      1.258     2.99    -2.568397     19.73496     42.09537         6     0.761     0.536  42.61   0
       265    670.1187     68.7360 300.3803883 +22.5986218     1628.336     70.05659      1.314     2.59    -2.568873     19.73496      221.011        20     1.070     0.914  46.42   0
       266    685.0288     67.2728 300.3855067 +22.6026675     526.7136     69.96759      1.876     5.14    -2.563089     19.73496     43.08614         9     1.188     0.628  42.44   0
       267    756.5572     59.9852 300.4101524 +22.6219964     838.8576     69.96759      1.254     2.78    -2.558265     19.73496     126.3801        13     0.957     0.824  -8.14   0
       268    694.2555     53.4229 300.3928725 +22.6014505     417.9424      69.9854      1.215     3.08    -2.551407     19.73496     62.44157         7     0.837     0.600  78.96   0
       269    500.0633     52.8072 300.3326111 +22.5430977     579.5399     69.93195      1.282     2.44    -2.944842     19.73496     97.76923        10     0.861     0.732  34.89   0
       270     73.1051     52.8133 300.1998563 +22.4151130     253.3117     69.87846      1.285     4.05    -2.496202     19.73496     48.55806         9     0.935     0.830 -19.31   0
       271    404.1124     51.0985 300.3033100 +22.5138537     433.5998     70.10994      1.277     3.23    -3.067452     19.73496     66.04443         7     0.908     0.562 -71.57   0
       272    743.4789     40.9424 300.4122538 +22.6126056     402.0978      69.9854      1.397     4.30    -2.541457     19.73496     55.76101        10     1.131     0.738  85.47   0
       273    175.3683     41.1055 300.2354269 +22.4424162      2193.26     69.87846      1.342     2.42    -2.395771     19.73496     272.6806        22     1.055     0.971  52.04   0
       274    291.5651     33.0828 300.2741490 +22.4749467     691.1744     69.91413      1.335     2.80    -2.491254     19.73496     85.47067        12     0.975     0.758  31.27   0
       275    736.4575     33.0315 300.4126319 +22.6082288     522.5866     69.96759      1.317     3.23     -2.53438     19.73496     70.21641         9     0.917     0.634  24.76   0
       276    774.4203     28.2012 300.4260260 +22.6182089     412.9529     69.87846      1.626     5.10    -2.529958     19.73496     47.48425         9     1.183     0.622  62.42   0
       277    794.4198     24.5211 300.4334513 +22.6231397     1313.193     69.94978      1.304     2.48    -2.527304     19.73496     153.6333        13     0.918     0.793  57.27   0
       278    500.0333     22.9173 300.3422948 +22.5345011      270.724     69.91413      1.319     3.62    -2.970604     19.73496     37.53498         5     0.995     0.379  30.37   0
       279    177.8162     20.1211 300.2429922 +22.4371254     522.6946     69.94978      1.257     2.44     -2.36684     19.73496     82.53246         8     0.783     0.643  47.91   0
       280    969.1058     17.7118 300.4901148 +22.6734802     318.4648     70.12772      1.143     1.90    -2.470193     19.73496     69.16819         7     0.689     0.599  15.40   0
       281    743.0771     17.1703 300.4198377 +22.6056517     507.8991     69.93195      1.204     2.80    -2.520227     19.73496     79.80432         9     0.971     0.603  34.18   0
       282    450.2632     15.5803 300.3291863 +22.5174806     260.8449     69.93195      1.636     3.49     -3.12849     19.73496     28.99645         5     0.751     0.469 -15.26   0
