#   1 NUMBER                 Running object number                                     
#   2 X_IMAGE                Object position along x                                    [pixel]
#   3 Y_IMAGE                Object position along y                                    [pixel]
#   4 ALPHA_J2000            Right ascension of barycenter (J2000)                      [deg]
#   5 DELTA_J2000            Declination of barycenter (J2000)                          [deg]
#   6 FLUX_APER              Flux vector within fixed circular aperture(s)              [count]
#   7 FLUXERR_APER           RMS error vector for aperture flux(es)                     [count]
#   8 FLUX_RADIUS            Fraction-of-light radii                                    [pixel]
#   9 FWHM_IMAGE             FWHM assuming a gaussian core                              [pixel]
#  10 BACKGROUND             Background at centroid position                            [count]
#  11 THRESHOLD              Detection threshold above background                       [count]
#  12 FLUX_MAX               Peak flux above background                                 [count]
#  13 ISOAREA_IMAGE          Isophotal area above Analysis threshold                    [pixel**2]
#  14 A_IMAGE                Profile RMS along major axis                               [pixel]
#  15 B_IMAGE                Profile RMS along minor axis                               [pixel]
#  16 THETA_IMAGE            Position angle (CCW/x)                                     [deg]
#  17 FLAGS                  Extraction flags                                          
         1    165.3450     19.2893 300.2567538 +22.4137796     730.8985     70.26796      1.846     4.02    -2.245123     19.81463     52.05989        15     1.143     0.922 -80.08   0
         2    429.0548   1023.1882 300.0124248 +22.7809843     262.1262     57.28589      1.239     3.35    -5.511176     19.81463     49.41664         5     0.795     0.497 -48.91  24
         3    103.1345   1017.7520 299.9129203 +22.6814745     1177.693     70.25008      6.947    10.06     3.440461     19.81463     33.77205        15     2.178     1.294  49.06  19
         4    102.9654   1023.5751 299.9109713 +22.6830917     752.6596     55.16303      4.302     5.12     3.974745     19.81463     53.69192        11     1.503     0.492  -1.76  25
         5     79.9830   1022.4411 299.9042047 +22.6758574     784.3694     60.98274      5.989     9.06     1.792204     19.81463     39.14586        18     1.702     1.347 -49.00  27
         6     73.4725   1022.3610 299.9022095 +22.6738770     1044.198     61.41386      5.393    11.48    0.9636208     19.81463     46.66828        23     2.375     1.544 -30.47  27
         7     81.8133   1016.9774 299.9065524 +22.6748425     1388.936     70.21429      7.493     9.96     1.677815     19.81463     52.60051        27     2.196     1.259  -5.13  19
         8     90.8744   1002.5143 299.9140760 +22.6734235     1070.503     70.33944      8.048    11.73     1.542333     19.81463     47.46286        23     4.049     0.946 -25.83  19
         9     86.1734   1019.7594 299.9070002 +22.6769503     1568.072     70.05307      8.603    14.43     2.351785     19.81463     48.07495        54     3.902     1.484 -59.84  19
        10     92.5844   1018.9037 299.9092694 +22.6786326     2224.265     70.14268      9.940    22.55     3.078323     19.81463     66.00618       101     5.692     2.482 -70.32  19
        11     83.3470   1012.3051 299.9085503 +22.6739652     1856.949     70.30371      9.781    15.44     1.432329     19.81463     57.09202        46     2.823     2.349 -27.90  19
        12     88.6242   1007.4362 299.9117745 +22.6741570     1521.897     70.25008      9.454    12.16     1.670501     19.81463     54.80273        34     3.577     1.151 -26.87  19
        13    942.8600   1014.4987 300.1752087 +22.9327802     1270.791     70.30371      1.110     2.08    -5.581998     19.81463     207.8724        13     0.885     0.746  51.79   0
        14    441.3567   1011.0453 300.0202053 +22.7811991     279.1382     70.26796      1.761     4.20    -5.507028     19.81463     30.48504         5     1.137     0.442  23.25   0
        15    731.6089   1003.9174 300.1128465 +22.8663292     417.5952      70.1785      1.577     4.88    -5.457616     19.81463     48.71616         9     1.498     0.451  72.10   0
        16     98.1658   1002.7645 299.9162585 +22.6756872      1124.18     70.30371      6.806     8.79        2.107     19.81463     43.49912        16     1.998     1.081  38.92   1
        17    105.7239   1001.7258 299.9189436 +22.6776618     880.3385     70.32158      4.723     7.40     2.014489     19.81463     41.81905         9     2.330     0.658  41.18   8
        18    766.4306    997.7198 300.1257086 +22.8750060     467.9145     70.23219      1.113     3.03    -5.388603     19.81463     101.4462        10     0.949     0.763 -40.24   0
        19    788.8126    991.4336 300.1347266 +22.8799218     6475.501     70.21429      1.157     1.94    -5.319184     19.81463      1079.74        30     0.994     0.983  66.66   0
        20    834.3779    991.2286 300.1489863 +22.8935413     339.7335     70.23219      0.892     2.54    -5.278457     19.81463     62.22698         7     0.895     0.465 -79.65   0
        21    100.3889    983.6217 299.9231826 +22.6708714     222.6524     70.21429      1.003     2.55    0.4116366     19.81463     58.14613         5     0.693     0.468 -74.52   0
        22    840.5125    978.8477 300.1549297 +22.8918301      228.325     70.23219      1.030     2.18    -5.190335     19.81463     57.18351         5     0.707     0.483  75.46   0
        23    797.2994    973.4398 300.1432302 +22.8773067     874.1087     70.23219      1.169     2.23     -5.28912     19.81463     136.8295        14     0.876     0.847 -72.59   0
        24    980.5390    972.4886 300.2006360 +22.9320299     195.5378     70.30371      1.106     2.70    -5.099966     19.81463     58.90709         6     0.852     0.497  -4.52   0
        25    649.3142    970.7330 300.0980341 +22.8321000     382.2184     70.32158      1.194     3.84    -5.124633     19.81463     40.57449         5     0.859     0.492 -43.85   0
        26    835.5268    966.9152 300.1572626 +22.8869094     383.4525     70.33944      1.289     3.92    -5.126452     19.81463      47.4245         9     0.913     0.678 -28.42   0
        27    883.7113    958.0617 300.1751579 +22.8988310     269.2008     70.30371      1.212     2.67     -4.89885     19.81463     53.12384         7     0.720     0.649 -50.95   0
        28    734.9496    957.3380 300.1290566 +22.8539691      467.178     70.28584      1.365     3.23    -5.339811     19.81463     66.76089        10     1.013     0.733  -7.36   0
        29    447.9172    953.7740 300.0408966 +22.7667499     2517.297     70.21429      1.276     2.14    -5.435486     19.81463     385.0313        21     1.007     0.920 -33.53   0
        30    746.3270    954.1461 300.1336388 +22.8564690     439.8647     70.21429      1.254     2.39    -5.328984     19.81463     71.40418         7     0.797     0.604  30.39   0
        31    226.5254    942.2938 299.9758174 +22.6969413     208.8883     70.37515      1.026     2.45    -4.183044     19.81463     44.90836         5     0.690     0.493 -80.62   0
        32    173.1866    939.6088 299.9601219 +22.6801420     505.8105     70.12477      1.424     2.64    -3.527671     19.81463     66.14568         7     0.789     0.601  24.02   0
        33    150.1904    936.7729 299.9539026 +22.6724178     787.3759     70.23219      1.245     2.79    -3.653968     19.81463     130.1612        15     1.076     0.798 -78.23   0
        34   1021.7160    925.3142 300.2288353 +22.9308424     1155.113      64.2923      1.100     2.15    -4.353141     19.81463      224.032        15     1.010     0.803 -80.61  16
        35     24.7367    926.4374 299.9183145 +22.6317465     242.1073     70.23219      1.454     4.34     -4.51003     19.81463     30.40545         7     0.959     0.559 -59.01   0
        36    975.9964    923.5534 300.2151558 +22.9166194     1083.886     70.21429      1.128     2.09     -4.45874     19.81463     205.4708        14     0.917     0.804  65.89   0
        37    182.4895    918.2197 299.9699752 +22.6768083     227.2372      70.1785      1.060     4.12    -4.435062     19.81463     37.85919         7     0.986     0.492 -84.11   0
        38    759.5197    917.4152 300.1497074 +22.8498902     364.6124     70.21429      1.332     4.77    -5.144216     19.81463     47.66936         9     0.925     0.810 -22.32   0
        39    627.7439    911.8763 300.1104852 +22.8087398     2780.992     70.25008      1.305     2.38    -4.653559     19.81463       368.89        22     1.056     0.959  76.65   0
        40    430.1282    909.1738 300.0498860 +22.7486179     267.8409     70.23219      1.197     4.09    -5.381474     19.81463     50.71542         7     1.109     0.684   8.83   0
        41    178.0912    905.8854 299.9726244 +22.6719516      830.887     70.39301      1.328     2.49    -4.486976     19.81463     117.0415        14     0.962     0.843  85.35   0
        42    648.3337    904.2619 300.1193728 +22.8127374     353.0483     70.26796      1.294     3.17    -4.770995     19.81463      62.8744        10     1.002     0.671 -35.17   0
        43    803.7947    891.4152 300.1719619 +22.8557184     2349.935     70.12477      1.294     2.42    -4.838509     19.81463     329.7089        22     1.027     1.000  75.83   0
        44   1020.6039    891.3737 300.2395395 +22.9207639     564.8232     68.08858      1.029     2.39       -4.381     19.81463     99.37666        10     0.856     0.716 -23.72  16
        45    520.5972    884.4373 300.0860776 +22.7686952     309.1468     70.26796      1.235     3.25    -4.946069     19.81463      48.5791         7     0.816     0.679 -27.12   0
        46    167.3552    882.3702 299.9769443 +22.6619859     669.9409     70.26796      1.173     2.06    -4.601861     19.81463     136.9582        11     0.899     0.739 -44.12   0
        47    316.8419    874.3826 300.0259918 +22.7046118     30746.71     70.25008      1.375     2.44    -4.648551     19.81463     3837.483        64     1.252     1.186  79.20   0
        48    582.6676    877.1724 300.1077549 +22.7852499     129.6116     70.21429      1.110     4.20    -4.559886     19.81463     28.42866         6     0.756     0.667  22.20   0
        49    574.7820    873.2880 300.1065656 +22.7817679     890.2554      70.1785      1.367     3.43    -4.556269     19.81463     103.1762        16     1.078     0.964 -33.23   0
        50    245.2157    872.8815 300.0042213 +22.6826622     233.8909     70.21429      1.320     3.12    -4.662859     19.81463     35.59942         6     0.750     0.558 -49.08   0
        51    987.3345    871.9366 300.2354955 +22.9052021     479.3492     70.28584      1.158     2.42      -4.4253     19.81463     82.21289         9     0.844     0.668  14.69   0
        52      2.8845    869.1691 299.9301732 +22.6087705     505.0154     62.50881      1.307     4.22    -4.662083     19.81463     76.20747        12     1.300     0.689 -55.50  24
        53    603.7198    868.9080 300.1169966 +22.7892001     345.7033     70.33944      1.215     4.28    -4.512333     19.81463     63.94409         8     0.857     0.721  -8.41   0
        54    614.6084    867.1760 300.1209490 +22.7919723     207.9135     70.23219      1.171     2.80    -4.523203     19.81463     40.64717         6     0.713     0.625  10.05   0
        55    757.8025    854.0024 300.1698168 +22.8311774     371.5452     70.01719      1.251     3.45    -4.628097     19.81463     64.14087         9     0.990     0.618 -58.40   0
        56    366.5277    851.5212 300.0488778 +22.7129824     18060.12      70.3573      1.388     2.49    -4.705896     19.81463         2151        52     1.222     1.145  68.54   0
        57    380.7946    851.9856 300.0531622 +22.7174009      1161.21     70.10686      1.444     3.26    -4.824806     19.81463     129.9331        16     1.076     0.837  57.11   0
        58    889.6021    847.1343 300.2131093 +22.8687586     1547.533     70.23219      1.268     2.42    -4.459014     19.81463     216.9301        18     1.028     0.914 -36.69   0
        59    647.6578    843.4060 300.1389727 +22.7950746     543.6628      70.1964      1.366     3.01    -4.585659     19.81463      65.8646        11     0.925     0.776  75.31   0
        60    249.1035    843.5750 300.0149680 +22.6754291     466.8325      70.1606      1.371     2.82    -4.649284     19.81463     55.46741         9     0.867     0.672  66.43   0
        61    494.2619    838.2254 300.0929273 +22.7475320     484.3215     70.23219      1.454     4.80    -4.861895     19.81463     61.90781        12     1.151     0.865  56.28   0
        62     53.5164    838.9755 299.9557171 +22.6153378     242.4522      70.1964      1.238     2.44    -4.674716     19.81463     42.18887         6     0.751     0.499 -86.93   0
        63    895.7426    834.5475 300.2191197 +22.8669877     251.3884     70.28584      1.107     2.84    -4.449217     19.81463     43.86367         5     0.707     0.476  16.24   0
        64     82.4494    832.8679 299.9666878 +22.6222831     257.0437     70.23219      1.169     3.13    -4.678391     19.81463     41.89548         6     0.775     0.491  82.51   0
        65    246.5523    827.7761 300.0193170 +22.6701334     207.1043     70.25008      1.377     4.32    -4.630515     19.81463     44.12651         5     0.862     0.617  50.86   0
        66    539.5935    816.1166 300.1142251 +22.7548016     368.1674      70.1606      1.481     3.02    -4.472201     19.81463     53.63928         7     0.843     0.606 -11.57   0
        67    955.8082    812.3594 300.2450610 +22.8786379     2465.765     70.25008      1.238     2.33    -4.399201     19.81463     351.9273        20     0.969     0.931  36.60   0
        68    561.2685    813.5560 300.1218023 +22.7605748     687.1631      70.1964      1.492     3.21    -4.467955     19.81463     80.20553        13     0.997     0.861 -68.33   0
        69    944.4159    803.7702 300.2443056 +22.8727540     923.2348     70.23219      1.304     2.48     -4.39257     19.81463     139.1012        15     1.178     0.772  -6.90   0
        70    307.7812    798.0267 300.0480259 +22.6799971        482.3     70.25008      1.391     3.07    -4.351957     19.81463     57.69569         7     0.768     0.600 -79.17   0
        71    770.8353    795.1696 300.1930238 +22.8182030     1670.695     70.25008      1.578     2.79    -4.604284     19.81463     190.7113        22     1.308     1.001   3.98   0
        72    975.4268    793.9806 300.2571576 +22.8792455     997.3809     70.25008      1.281     2.23     -4.33421     19.81463     148.3868        14     0.900     0.875  40.55   0
        73    156.0789    781.9655 300.0061172 +22.6298186      346.009      70.1785      1.396     3.10    -4.690955     19.81463     41.81091         7     0.870     0.526 -45.90   0
        74    853.1296    781.0501 300.2232531 +22.8388435     315.9772     70.23219      1.558     4.65    -4.395985     19.81463     37.96861         6     0.907     0.676  45.03   0
        75    889.1111    772.0512 300.2373925 +22.8470550     83432.91     70.25008      1.356     2.50     -4.28304     19.81463     10477.89       108     1.287     1.262 -48.00   0
        76    741.5352    772.2111 300.1913700 +22.8028203     325.5267      70.1606      1.429     3.62    -4.621369     19.81463     43.42764         7     0.861     0.606 -15.22   0
        77    921.5921    764.4531 300.2499869 +22.8546174     233.0529     70.23219      1.142     3.29    -4.193173     19.81463     40.67327         7     0.845     0.653 -21.61   0
        78    803.3127    764.2424 300.2132033 +22.8190709     1212.285     70.23219      0.720     1.53    -4.507005     19.81463     507.6335         5     0.609     0.377 -55.61   0
        79    575.3932    760.8890 300.1433355 +22.7497043      969.213     70.14268      1.495     3.67    -4.224801     19.81463     107.6881        15     1.149     0.901 -76.18   0
        80    756.5522    758.2251 300.2005974 +22.8033122     5416.661     70.23219      1.446     2.70     -4.58211     19.81463     582.1506        33     1.229     1.097  67.59   0
        81    258.1579    753.7229 300.0470192 +22.6523876     2835.495      70.1964      1.484     2.84    -4.380655     19.81463     313.7349        28     1.231     1.090 -59.55   0
        82    340.0844    751.6017 300.0731721 +22.6763862     746.5154      70.1606      1.477     4.06    -4.087372     19.81463     82.06708        16     1.192     1.070  68.67   0
        83    216.0004    750.3142 300.0350292 +22.6387466     262.2455     70.10686      1.773     4.27    -4.667449     19.81463     27.65428         5     1.120     0.463  66.37   0
        84    548.5731    747.0882 300.1394804 +22.7376930     470.3592     70.21429      1.428     2.90    -3.968688     19.81463     64.68157         8     0.874     0.636 -29.02   0
        85    540.1804    739.2144 300.1394309 +22.7329143      1884.79      70.1964      1.491     3.12    -3.882151     19.81463     165.5916        23     1.124     1.087 -84.40   0
        86    530.3337    733.1361 300.1383448 +22.7282143       757.84     70.28584      1.526     3.38    -3.874983     19.81463      80.4464        17     1.077     1.001 -26.51   0
        87    923.9721    730.3099 300.2618379 +22.8455267     301.8779     70.21429      1.662     4.08     -4.01842     19.81463     37.23498         5     0.997     0.543  72.25   0
        88    194.3885    729.2577 300.0351650 +22.6262171     348.5568      70.1964      1.413     2.89    -4.594285     19.81463     49.81753         5     0.762     0.406  65.24   0
        89    233.9663    724.6017 300.0489758 +22.6367707     380.1053      70.1964      1.430     4.11    -4.459795     19.81463     42.87044         6     0.943     0.512  75.09   0
        90    977.1196    723.8988 300.2804893 +22.8596266     327.1849      70.3573      1.142     3.89    -3.865778     19.81463     42.11714         6     0.744     0.582 -33.41   0
        91    455.2070    722.7914 300.1183407 +22.7026917     1005.615     70.08893      1.578     3.47     -3.92977     19.81463     90.23279        18     1.172     0.943   1.53   0
        92    109.2443    717.9828 300.0123867 +22.5974055        11580     70.25008      1.444     2.67    -4.416051     19.81463     1247.061        51     1.291     1.212 -74.12   0
        93     30.0717    719.6502 299.9872621 +22.5740948     433.2313     70.23219      1.455     2.30    -4.030692     19.81463     59.36471         7     0.692     0.651 -71.33   0
        94    540.1609    718.2085 300.1462585 +22.7268812     508.9284     70.25008      1.393     3.39    -3.784095     19.81463     52.91707        10     0.884     0.813  41.41   0
        95    957.9734    703.7217 300.2810853 +22.8480891     552.9423     70.23219      1.378     3.03     -3.87892     19.81463     81.46117        13     0.984     0.890 -47.41   0
        96     55.1695    701.9634 300.0008066 +22.5765664     855.7386     70.25008      1.762     5.07     -4.09967     19.81463     77.15459        14     1.490     0.699 -84.43   0
        97    824.6755    702.1195 300.2400694 +22.8076446     209.9275     70.33944      1.169     4.31    -4.164317     19.81463     31.91893         6     0.789     0.670  37.89   0
        98    898.1367    696.5944 300.2647551 +22.8280949     550.9244      70.1964      1.907     4.81    -3.969915     19.81463     56.53577         9     1.319     0.581  14.54   2
        99    460.1557    690.9932 300.1302234 +22.6950546     372.0349     70.25008      1.410     4.47    -3.883088     19.81463     43.16128         9     0.938     0.725  69.23   0
       100    626.2317    687.7950 300.1829363 +22.7439874     365.0759     70.21429      1.566     3.24    -4.035262     19.81463     47.68555         5     0.862     0.436 -44.22   0
       101    504.6917    686.6901 300.1454762 +22.7071898     436.7129     70.39301      1.498     3.69    -3.792611     19.81463     64.32703         8     1.027     0.764  86.94   0
       102    937.9962    682.0651 300.2819035 +22.8358774     1826.069     70.25008      1.375     2.69    -3.849728     19.81463     211.1883        22     1.065     1.014 -82.42   0
       103    469.9336    682.2973 300.1360931 +22.6954951     852.4711     70.32158      1.548     3.79    -3.870775     19.81463     81.35697        17     1.077     1.059 -47.14   0
       104     32.0044    676.1700 300.0020038 +22.5622125     2812.976      70.1964      1.423     2.72    -3.955198     19.81463     324.8833        27     1.148     1.049  86.03   0
       105    333.3836    669.0905 300.0979288 +22.6507080     5208.826      70.1606      1.576     2.96    -3.971511     19.81463     546.9864        37     1.320     1.192 -84.59   0
       106    455.6853    666.0142 300.1369574 +22.6865456     5062.254      70.1785      1.572     3.16    -3.826293     19.81463     472.5056        37     1.299     1.204 -84.65   0
       107    867.2368    659.5514 300.2671758 +22.8081882     1138.026     70.23219      1.577     3.96    -3.905116     19.81463     127.4423        19     1.297     0.940  76.22   0
       108    951.8923    657.1519 300.2943382 +22.8328892      7142.37     70.25008      1.410     2.69    -3.777395     19.81463     795.3901        40     1.182     1.152 -52.39   0
       109    516.2606    655.5590 300.1592004 +22.7017292     6647.717     70.21429      1.666     3.29    -3.658869     19.81463     587.0995        42     1.341     1.277 -53.13   0
       110    686.2625    651.8544 300.2133132 +22.7516851     376.3845     70.28584      1.732     5.69    -4.044163     19.81463     37.13408         7     1.141     0.800 -60.67   0
       111    243.9936    651.3804 300.0759066 +22.6187844     573.3345      70.1964      1.273     2.98    -4.033774     19.81463     71.11219        12     0.977     0.763  82.88   0
       112    490.2413    648.4631 300.1534139 +22.6918829     253.8096     70.21429      1.708     4.45    -3.709096     19.81463      29.7823         7     1.095     0.513  47.74   0
       113    447.9289    643.7997 300.1417696 +22.6778432     2446.036     70.10686      1.607     3.38    -3.759704     19.81463     221.8555        25     1.188     1.124  43.82   0
       114    790.8113    643.5485 300.2485717 +22.7806674     460.6693     70.23219      1.404     4.04    -3.911182     19.81463     51.98075         9     0.908     0.758  35.42   0
       115    426.3285    642.1276 300.1355957 +22.6708789     617.3956     70.28584      1.514     3.15    -3.785922     19.81463     69.02411        11     1.061     0.679  17.88   0
       116    180.6354    641.6904 300.0593730 +22.5969767     473.3217     70.21429      1.592     4.55     -4.09212     19.81463     43.03311        12     1.070     0.827  49.92   0
       117    867.5773    639.0469 300.2739506 +22.8024016     838.5275     70.25008      1.464     3.46    -3.785291     19.81463     88.15283        16     1.087     0.926 -86.47   0
       118    564.5165    631.3120 300.1821000 +22.7092541       116580     70.33944      1.680     3.35    -3.590637     19.81463     9817.565       150     1.536     1.515 -39.07   0
       119    748.1969    636.0515 300.2377376 +22.7657304     364.3828     70.23219      1.470     4.47    -4.043783     19.81463      39.3384         9     0.990     0.715   0.75   0
       120    250.7317    631.5907 300.0844357 +22.6151321      1883.22     70.23219      1.545     2.85    -4.062436     19.81463     213.7027        23     1.201     1.043  42.72   0
       121    455.3097    611.9053 300.1544366 +22.6709067      1550.83     70.41085      1.679     3.66    -3.638608     19.81463      155.968        27     1.428     1.156 -83.60   0
       122    852.0733    597.4628 300.2826428 +22.7858082     891.8279     70.26796      1.527     3.45     -3.62012     19.81463     91.62943        16     1.067     0.958  87.55   0
       123    723.3155    595.2662 300.2432520 +22.7465551     1455.911     70.33944      1.562     3.40    -3.770715     19.81463     127.3136        18     1.122     1.010  65.02   0
       124    510.7426    591.2582 300.1783930 +22.6816195     384.9814     70.30371      1.767     4.29    -3.438728     19.81463     38.94277         7     1.110     0.696  59.30   0
       125    980.7031    589.3680 300.3253626 +22.8220562     685.5681      70.1964      1.304     3.08    -3.553926     19.81463     90.65349        11     0.983     0.765  45.22   0
       126    966.1835    587.9916 300.3212840 +22.8173072     564.2319      70.1606      1.867     5.84    -3.567986     19.81463     46.89482        11     1.120     0.858 -81.75   0
       127    852.4626    588.0954 300.2858100 +22.7832344     1264.429     70.32158      1.655     3.12    -3.614384     19.81463     113.4007        19     1.109     1.009 -53.39   0
       128    606.1320    584.7361 300.2101954 +22.7083732      391.157     70.28584      2.073     5.45    -3.518664     19.81463     31.81687        10     1.348     0.622  74.79   0
       129    890.4474    582.7844 300.2993726 +22.7931006     2437.283     70.26796      1.578     3.19    -3.616675     19.81463     211.2493        25     1.187     1.103   5.16   0
       130    122.8594    573.5624 300.0635779 +22.5600865     483.5233     70.25008      1.581     4.18     -3.86112     19.81463     61.87481        12     1.282     0.742 -53.63   0
       131    982.2088    572.9615 300.3311666 +22.8177940     321.9705     70.25008      1.245     3.04    -3.459794     19.81463     58.57066         9     0.895     0.698 -20.69   0
       132    664.0268    553.4874 300.2383757 +22.7167722     470.6173     70.21429      1.852     7.79    -3.566537     19.81463     37.17726        13     1.345     1.261 -50.01   0
       133    978.4079    545.4803 300.3389163 +22.8087584      284.229      70.1785      1.338     4.84    -3.321262     19.81463     34.56347         8     0.949     0.700  43.97   0
       134    725.0658    545.3107 300.2600385 +22.7327352     494.0938     70.33944      1.796     5.61    -3.453444     19.81463     37.87194        10     1.069     0.828  61.33   0
       135    881.7490    541.7529 300.3100021 +22.7787054     677.6468     70.26796      2.088     5.51    -3.607848     19.81463     47.14975        15     1.254     0.932  42.77   0
       136    610.4478    536.2007 300.2273175 +22.6957341     1840.652     70.23219      1.703     3.94    -3.402901     19.81463     151.5301        25     1.300     1.171 -64.12   0
       137    970.9774    534.5770 300.3401445 +22.8033978      287.213     70.21429      1.776     4.42    -3.326208     19.81463      30.9541         5     1.359     0.409 -12.36   0
       138   1021.6071    514.9301 300.3623157 +22.8129302      724.457     64.62366      1.377     2.98    -2.896769     19.81463     81.73148        12     1.009     0.752  88.08  16
       139    893.9503    514.9050 300.3225317 +22.7746510      382.151     70.28584      1.872     5.02    -3.534887     19.81463     35.44633         7     1.254     0.568 -25.09   0
       140    980.2533    514.0096 300.3497220 +22.8002688     605.5292     70.23219      1.431     3.79    -3.185146     19.81463     60.74069         7     0.724     0.690  49.74   0
       141    720.9668    510.1241 300.2701999 +22.7214007      559.953     70.23219      1.635     5.06    -3.271063     19.81463     52.21984        14     1.146     1.001 -40.91   0
       142    225.3474    509.0504 300.1163846 +22.5723590     284.2712     70.26796      1.336     4.30    -3.529531     19.81463     49.83403        11     1.076     0.950 -49.53   0
       143    287.5155    504.4282 300.1372061 +22.5896973     2161.251     70.23219      1.740     3.59    -3.468777     19.81463     196.5934        26     1.284     1.171  73.78   0
       144   1020.3212    502.3312 300.3660100 +22.8089241     2363.791     68.95037      1.452     2.69    -2.842366     19.81463     248.0751        27     1.180     1.065 -55.02  16
       145    234.8236    499.2092 300.1225274 +22.5723808     4246.277     70.23219      1.651     3.25    -3.408023     19.81463     389.4254        37     1.319     1.272  74.13   0
       146    375.5470    493.3923 300.1681584 +22.6129552     2758.162     70.23219      1.735     3.55    -2.998101     19.81463     220.0127        28     1.285     1.195  46.89   0
       147   1000.3469    493.4818 300.3626587 +22.8003934     993.5836     70.26796      1.512     3.14     -2.94808     19.81463     106.1368        14     0.988     0.900 -66.39   0
       148    619.5718    489.7696 300.2452490 +22.6851399     10387.06     70.23219      1.773     3.72    -3.169402     19.81463     741.7274        53     1.468     1.359  54.11   0
       149    636.9846    489.4199 300.2507826 +22.6902631     456.5097     70.21429      2.253     5.85    -3.143185     19.81463     32.22908         7     1.053     0.915  15.27   0
       150    953.0598    472.6377 300.3546921 +22.7802280      413.184     70.25008      1.338     4.17    -3.227723     19.81463     47.04232         8     1.026     0.580 -20.45   0
       151    174.6332    470.1572 300.1132679 +22.5459747     1225.584     70.28584      1.595     3.11    -3.281431     19.81463     132.2989        20     1.131     1.078  45.72   0
       152    663.0876    470.0081 300.2652171 +22.6925188     310.8407     70.14268      1.367     3.77    -3.020154     19.81463     30.60577         5     0.642     0.637 -84.10   0
       153    560.1204    459.3056 300.2366470 +22.6585569     3733.453      70.3573      1.793     3.98    -2.920657     19.81463     269.6285        33     1.366     1.254  61.45   0
       154    973.5666    459.3445 300.3654046 +22.7825552      620.141     70.25008      1.413     3.37    -3.046277     19.81463     83.37046        15     1.101     0.904 -42.24   0
       155    275.5117    458.8069 300.1483010 +22.5730034     331.4207     70.14268      1.507     4.69    -3.141361     19.81463     33.62406         7     0.902     0.692 -14.24   0
       156    764.4108    448.0874 300.3038909 +22.7166115     664.2394      70.1785      1.995     5.69    -3.013323     19.81463     44.04393        15     1.335     0.892  85.18   0
       157    466.9159    445.7423 300.2120573 +22.6266981     3445.721     70.33944      1.787     3.64    -2.863698     19.81463     261.4117        35     1.372     1.326  39.28   0
       158    858.8477    439.5139 300.3360957 +22.7424653     786.3718     70.21429      1.618     3.62    -3.090552     19.81463     89.66415        15     1.100     1.028  75.55   0
       159    354.2959    424.8485 300.1838243 +22.5869048     1439.251     70.26796      1.830     5.21    -2.833184     19.81463     121.2442        26     1.504     1.236  26.00   0
       160     73.1416    422.5426 300.0972170 +22.5018418     627.6808     70.30371      1.768     4.68    -3.222976     19.81463     54.72348        12     1.084     0.884  71.72   0
       161    323.8448    414.4311 300.1777422 +22.5747760     17215.41     70.28584      1.768     3.61    -2.912185     19.81463     1343.136        65     1.518     1.404  69.46   0
       162    858.3972    411.7110 300.3449892 +22.7343415     692.6347     70.14268      1.500     3.23    -2.910166     19.81463     75.67473        11     0.968     0.756  89.55   0
       163     20.2777    402.4554 300.0873294 +22.4802058     2764.241     70.26796      1.544     3.08    -3.176792     19.81463     270.2999        29     1.247     1.098 -85.50   0
       164    733.8140    393.9500 300.3119522 +22.6918843     912.5812     70.26796      1.694     4.21    -2.790366     19.81463     83.53609        21     1.256     1.151  86.35   0
       165    949.5711    386.5303 300.3815842 +22.7544358     370.7225     70.23219      1.394     2.85    -2.924379     19.81463     51.09868         6     0.830     0.492 -85.67   0
       166    396.1617    378.9798 300.2117428 +22.5863018       1185.7     70.25008      2.006     4.95    -2.561976     19.81463     70.43479        24     1.391     1.213  86.20   0
       167    471.6894    357.9875 300.2420515 +22.6029354     582.3456      70.1785      1.652     5.62    -2.379186     19.81463     56.46776        14     1.141     0.971  54.77   0
       168    716.5839    349.8841 300.3209014 +22.6740582     1197.046      70.1964      1.684     3.84    -2.521246     19.81463     104.5702        20     1.212     1.065 -34.34   0
       169    977.7496    343.8714 300.4042260 +22.7506193     1769.363     70.23219      1.546     3.31    -2.912674     19.81463     161.4811        23     1.205     1.083  86.26   0
       170    100.2153    328.1592 300.1362815 +22.4828934     872.4709     70.25008      1.873     4.52    -3.093919     19.81463      64.9146        19     1.283     1.198 -66.62   0
       171    993.8074    323.9806 300.4156929 +22.7497133      192.619      70.1964      1.278     3.96    -2.864942     19.81463     30.02241         5     0.859     0.523  32.88   0
       172    184.5372    320.6349 300.1649168 +22.5060457     215.9314     70.23219      1.363     3.98    -2.763445     19.81463     26.53853         6     0.941     0.481   0.65   0
       173    788.2955    311.2390 300.3557871 +22.6844545      335.422     70.21429      1.748     4.24    -2.573777     19.81463     29.18402         5     0.947     0.542 -37.92   0
       174    886.3454    299.9470 300.3900027 +22.7105994       1206.4     70.26796      1.702     3.98    -2.718785     19.81463     87.38605        22     1.290     1.102  29.57   0
       175    305.0428    297.6740 300.2098208 +22.5356198     1047.627     70.21429      1.740     4.18    -2.530994     19.81463     91.49771        19     1.201     1.120  78.85   0
       176    382.9867    292.8193 300.2356293 +22.5576122      632.847      70.1964      2.115     5.63    -2.521102     19.81463     53.97263        11     1.416     0.800  15.71   0
       177    785.0936    291.2374 300.3612854 +22.6777468     303.7123     70.21429      1.403     3.88    -2.538567     19.81463     32.13549         5     1.000     0.534  33.30   0
       178    199.9438    285.7145 300.1810428 +22.5006477     318.3681     70.32158      1.511     3.54    -2.485733     19.81463     42.15816         6     1.023     0.536 -26.20   0
       179    737.4058    281.5943 300.3495641 +22.6606797     911.0946     70.08893      1.687     3.57    -2.380589     19.81463     80.04259        17     1.170     0.976 -72.91   0
       180    802.7449    280.9830 300.3701138 +22.6800910     415.7773     70.21429      2.006     4.67    -2.561658     19.81463     42.03005         7     1.085     0.570  69.65   0
       181   1008.8203    273.7657 300.4366814 +22.7397747      484.423     70.25008      1.541     3.81    -2.619611     19.81463     54.36108        13     1.140     0.924 -18.97   0
       182    741.3895    273.0396 300.3535826 +22.6594158     365.7283     70.23219      1.584     5.03    -2.373974     19.81463     35.93117         7     1.121     0.638  18.53   0
       183    662.1245    272.3042 300.3291401 +22.6354400     689.7857     70.37515      1.708     5.30    -2.311015     19.81463     57.80289        17     1.507     0.979  54.02   0
       184    857.2426    263.8340 300.3926611 +22.6914968      728.983     70.28584      1.594     3.81    -2.604892     19.81463     66.96006        15     1.100     0.945 -42.54   0
       185    588.2775    263.9849 300.3088548 +22.6109067     573.3423     70.25008      1.945     4.96     -2.50513     19.81463     44.23305        12     1.238     0.961  13.06   0
       186    869.3690    262.6883 300.3968117 +22.6948018     526.0602     70.21429      1.804     5.68    -2.621756     19.81463      42.6026        10     1.080     1.056 -36.81   0
       187    985.7286    253.0680 300.4362027 +22.7269047     766.9625     70.26796      1.689     4.11    -2.486187     19.81463     59.46716        16     1.115     1.017  28.50   0
       188    220.4578    247.1772 300.1999289 +22.4957426     547.5897     70.23219      2.070     7.07    -2.278054     19.81463     44.00811        10     1.591     0.880 -57.27   0
       189     82.4802    241.4174 300.1589384 +22.4526797     1227.471     70.23219      1.639     3.08    -2.252565     19.81463     132.3968        21     1.429     0.982  82.84   0
       190    905.1288    238.0583 300.4159526 +22.6984381     434.7277     70.26796      1.901     4.96    -2.602287     19.81463     36.06628         8     1.007     0.692 -61.25   0
       191    239.6369    234.7572 300.2099207 +22.4979324     3201.562     70.30371      1.744     3.59    -2.207619     19.81463     265.7061        31     1.339     1.241  77.05   0
       192     23.9748    229.3724 300.1446826 +22.4316617     732.6342     70.21429      1.598     3.96    -2.042225     19.81463     74.95581        13     1.038     1.006  70.44   0
       193    223.0156    225.9046 300.2076295 +22.4904036     343.0807      70.1606      1.722     5.54    -2.157239     19.81463     35.19377        10     1.240     0.765  82.23   0
       194    883.4454    215.9369 300.4163771 +22.6855808     2065.898     70.25008      1.704     3.36    -2.524409     19.81463     156.5476        26     1.225     1.164  58.80   0
       195    986.9418    214.5823 300.4490762 +22.7162020     1683.064      70.1785      1.562     3.18    -2.238582     19.81463     154.1393        23     1.198     1.067 -65.51   0
       196    357.9745    203.4794 300.2568574 +22.5244553      475.118     70.21429      1.900     5.40    -2.195669     19.81463       33.723         9     1.188     0.694 -52.46   0
       197    484.2536    198.3926 300.2977814 +22.5608697     941.5953     70.23219      1.708     4.81    -2.257704     19.81463     80.88148        18     1.224     1.076  65.29   0
       198    258.5456    178.6670 300.2340036 +22.4875026      3373.86     70.26796      1.743     3.41    -2.130593     19.81463     314.9578        33     1.347     1.242 -84.58   0
       199    109.9602    177.7943 300.1881241 +22.4426677     412.5392     70.25008      1.553     3.93    -2.050139     19.81463     41.02379         8     0.915     0.787 -63.78   0
       200    504.4223    163.8394 300.3152711 +22.5569919     3629.271     70.26796      1.882     3.80    -2.137388     19.81463     277.7018        39     1.442     1.419  54.05   0
       201    390.8587    163.0889 300.2801919 +22.5227193     343.4745     70.30371      1.879     5.26    -2.073705     19.81463     32.49306         6     1.290     0.606 -76.27   0
       202    756.9911    153.4788 300.3972550 +22.6297300     584.3364      70.1964      1.983     7.21    -1.947329     19.81463      41.9253        12     1.261     1.154  29.51   0
       203    632.8293    143.8144 300.3617307 +22.5897366      3470.05     70.25008      1.829     3.81     -1.80396     19.81463     241.6547        33     1.389     1.282 -79.45   0
       204    407.7751    142.6540 300.2920843 +22.5219234     969.0402     70.25008      2.142     6.72    -2.029638     19.81463     52.23618        21     1.387     1.174   5.59   0
       205    673.8372    141.0527 300.3753934 +22.6012353     429.3545     70.25008      1.508     5.33    -1.676767     19.81463     41.58384        10     1.073     0.747  11.46   0
       206    157.0269    135.6593 300.2164174 +22.4446963      303.021     70.23219      1.395     4.75    -2.173079     19.81463     30.95903         7     1.119     0.571  64.65   0
       207    960.1779    134.4719 300.4667356 +22.6851467      354.222     70.25008      1.499     2.42    -2.130862     19.81463     45.23771         5     0.708     0.476  16.72   0
       208    676.8117    128.7177 300.3803225 +22.5985817     1534.236      70.1964      1.770     3.86    -1.641779     19.81463     122.8245        25     1.287     1.187  -5.72   0
       209    692.2560    127.3012 300.3855910 +22.6028037     407.5706     70.32158      1.338     3.41    -1.675808     19.81463      34.9805         5     1.183     0.284 -34.65   0
       210    763.1481    120.0356 300.4100259 +22.6219616     876.4142     70.25008      1.759     4.99     -1.89976     19.81463     67.41456        15     1.364     0.825  11.85   0
       211    701.7270    113.6295 300.3929765 +22.6017126     445.2287     70.25008      1.762     4.03    -1.666586     19.81463     39.15276         6     1.051     0.442 -57.98   0
       212    507.0347    113.1513 300.3325330 +22.5432126     588.1487     70.26796      1.981     5.59    -2.013486     19.81463     45.94373        11     1.184     0.773 -51.21   0
       213     80.2804    113.0486 300.1999169 +22.4151768     325.4733     70.26796      1.467     3.71    -2.011577     19.81463     35.88233         5     0.824     0.481  40.27   0
       214    411.2912    110.9580 300.3034630 +22.5138733     470.6457     70.23219      1.769     5.51    -1.983517     19.81463     40.51661        10     1.182     0.806 -72.85   0
       215    182.4093    101.3544 300.2354338 +22.4424628     2300.812     70.25008      1.807     3.39    -2.219202     19.81463     212.6559        30     1.372     1.194  85.92   0
       216    743.5369     93.4047 300.4125593 +22.6084289     545.6124      70.1964      2.003     4.44    -1.784959     19.81463      57.6555         9     1.091     0.909 -84.32   0
       217    298.2428     93.3257 300.2740353 +22.4749045     674.4749     70.21429      1.873     5.20    -2.112025     19.81463      53.9443        17     1.309     0.971  37.35   0
       218    781.0659     88.4516 300.4258555 +22.6182508     411.2846     70.26796      1.610     5.39    -1.927414     19.81463     32.08995         7     1.302     0.630 -34.21   0
       219    801.2448     84.4130 300.4334517 +22.6231360     1163.845     70.23219      1.761     4.43    -1.994957     19.81463      88.9781        20     1.321     1.038  57.34   0
       220    185.0282     79.9532 300.2431908 +22.4371037     602.2755     70.26796      1.678     4.04    -2.240432     19.81463     52.07166         9     0.968     0.863  49.68   0
       221    976.2271     77.8059 300.4901267 +22.6736563     423.0376     70.23219      1.638     5.04    -2.147657     19.81463     40.77838         8     1.147     0.627   0.20   0
       222    750.3899     77.2020 300.4199507 +22.6058244      440.518     70.05307      1.553     4.22    -1.857169     19.81463     45.42836         6     0.766     0.662 -43.70   0
       223    602.4661     62.2040 300.3787600 +22.5571809     625.4052     70.23219      1.982     5.07    -2.103034     19.81463     43.57071         9     1.104     0.658  21.75   0
       224    212.1469     59.6040 300.2582182 +22.4393955     254.0028     70.21429      1.402     4.05    -2.295576     19.81463      32.2498         7     0.867     0.614 -78.10   0
       225    765.5636     57.1421 300.4311848 +22.6046039     407.0182     70.23219      1.577     3.96    -1.943379     19.81463     37.59599         9     1.079     0.574 -28.33   0
       226    574.0640     55.1543 300.3722073 +22.5466414     983.4477     70.25008      1.851     4.64    -2.050568     19.81463      71.7103        21     1.361     1.152  48.70   0
       227    297.1898     52.4361 300.2869734 +22.4628448     365.7204     70.23219      1.709     5.36    -2.193647     19.81463     36.98922         8     1.323     0.613  80.19   0
       228     11.8097     51.4655 300.1986354 +22.3769531     398.1996      70.1964      1.610     2.59    -1.384623     19.81463     39.84694         5     0.713     0.466 -19.26   0
       229    531.5513     49.1053 300.3609403 +22.5321594     775.5056     70.28584      1.674     3.46    -1.995317     19.81463     72.78164        15     1.051     0.952  73.08   0
       230    636.7106     45.5989 300.3948064 +22.5626719     805.6053      70.1606      1.918     5.61    -1.913426     19.81463     66.44604        17     1.316     1.249 -88.96   0
       231    280.4461     42.5428 300.2849781 +22.4549815     302.3387     70.28584      1.829     5.75    -2.231444     19.81463     25.84222         6     1.403     0.663 -31.90   0
       232    457.2818     39.5032 300.3409492 +22.5071349     1254.367     70.37515      1.818     3.59    -2.108204     19.81463     95.20943        22     1.208     1.111  67.03   0
       233    104.3087     37.8420 300.2317770 +22.4007962     760.7003     70.23219      1.607     3.88    -1.591649     19.81463     83.95751        15     1.192     1.012  42.80   0
