#   1 NUMBER                 Running object number                                     
#   2 X_IMAGE                Object position along x                                    [pixel]
#   3 Y_IMAGE                Object position along y                                    [pixel]
#   4 ALPHA_J2000            Right ascension of barycenter (J2000)                      [deg]
#   5 DELTA_J2000            Declination of barycenter (J2000)                          [deg]
#   6 FLUX_APER              Flux vector within fixed circular aperture(s)              [count]
#   7 FLUXERR_APER           RMS error vector for aperture flux(es)                     [count]
#   8 FLUX_RADIUS            Fraction-of-light radii                                    [pixel]
#   9 FWHM_IMAGE             FWHM assuming a gaussian core                              [pixel]
#  10 BACKGROUND             Background at centroid position                            [count]
#  11 THRESHOLD              Detection threshold above background                       [count]
#  12 FLUX_MAX               Peak flux above background                                 [count]
#  13 ISOAREA_IMAGE          Isophotal area above Analysis threshold                    [pixel**2]
#  14 A_IMAGE                Profile RMS along major axis                               [pixel]
#  15 B_IMAGE                Profile RMS along minor axis                               [pixel]
#  16 THETA_IMAGE            Position angle (CCW/x)                                     [deg]
#  17 FLAGS                  Extraction flags                                          
         1    595.7015      4.3462 300.3787211 +22.5570411     476.6941     67.77264      1.332     3.12    -2.055298     19.73875     65.20686        11     0.975     0.782  39.59  16
         2    205.2479      1.7202 300.2581153 +22.4392901     253.5696     56.60582      1.169     3.60     -1.64703     19.73875     40.38808         6     0.736     0.639  64.28  24
         3      5.3221   1010.0448 299.8683432 +22.6684480     1081.758     69.78477      6.679     8.60    -14.91203     19.73875     32.96711        12     2.383     0.867  25.66  26
         4    644.0460   1023.4713 300.0625503 +22.8641203     4567.312     55.51608      0.950     2.33    -5.848403     19.73875     1126.313        23     1.379     0.659  -2.53  24
         5    207.7110   1021.6807 299.9274161 +22.7325895     2563.862     64.16277     15.053    35.05     11.39967     19.73875     74.69804       253     7.118     5.073  14.45  27
         6    243.8911   1013.6177 299.9412854 +22.7411473     5883.817     69.89188     10.371    36.29     2.648566     19.73875     136.1687       660    10.286     5.671  49.76  27
         7    172.5335   1016.3728 299.9182145 +22.7205013     1632.079     69.94538      6.094    12.03     20.50007     19.73875     46.68506        26     2.878     1.401 -82.50  26
         8     79.1544   1020.8018 299.8877661 +22.6937147      1567.35     67.25556     33.352    56.62     18.41207     19.73875      50.1263       321    14.070     6.322   9.80  27
         9     66.6525    971.4808 299.8999435 +22.6758313     1736.317     69.98103     16.495    31.67     3.681713     19.73875     52.51205       175     6.249     4.455 -67.62   3
        10     63.8990   1009.5774 299.8866837 +22.6859160     2137.808     69.89188     13.088    26.02      9.53992     19.73875     53.38545       161     6.442     2.917 -18.56  19
        11     85.6723    960.2394 299.9095104 +22.6783255      2388.19     69.94538     24.316    40.89     4.856651     19.73875     69.62486       273     7.521     6.171 -15.09   3
        12     66.2449    997.8391 299.8912345 +22.6832588     2439.979     70.03445     15.257    26.64     8.243038     19.73875     58.24721       159     5.183     3.800 -22.75  19
        13    182.3679   1022.9016 299.9191438 +22.7253260     823.1005     58.53329      5.457     6.12     19.47259     19.73875     38.21197        11     1.270     0.830 -26.43  25
        14     82.8565    981.2559 299.9017931 +22.6834998     2939.379     70.03445     23.728    29.99     9.839823     19.73875     66.31341       242     5.558     4.491 -79.10  19
        15    503.2219   1015.1000 300.0214463 +22.8194478     198.4122     69.90972      1.131     2.70    -5.166583     19.73875     58.39573         7     0.949     0.727  15.26   0
        16     87.8865    996.2526 299.8984722 +22.6893068     3172.367     69.99884     20.981    44.26     15.48379     19.73875     71.51939       517     9.412     5.775  36.40  19
        17      2.1293    997.7313 299.8713616 +22.6639621      560.689      58.7459      4.506     5.30    -14.48443     19.73875      32.3482         7     1.915     0.414  61.26  25
        18    149.9807    995.7994 299.9179074 +22.7078322     840.7878     69.89188      3.390     6.84     18.45474     19.73875     36.04612        12     1.249     1.053  52.34   0
        19    657.0062    993.1216 300.0764697 +22.8593061     3927.566     69.89188      1.130     1.86    -5.781289     19.73875     821.7445        22     0.942     0.839  53.67   0
        20    248.1022    987.6936 299.9510362 +22.7349839     358.5605     70.14118      1.099     2.64    0.1093811     19.73875     62.86797         6     0.839     0.467 -37.63   0
        21    536.3063    987.5426 300.0407156 +22.8214788     230.5432     70.01665      1.154     3.34     -5.21059     19.73875     45.95094         5     0.755     0.429  24.01   0
        22    931.6540   1009.4969 300.1567020 +22.9464067     380.6293     70.05225      1.003     1.83    -5.942382     19.73875     79.78249         5     0.624     0.482 -19.51   0
        23    168.0679   1006.2597 299.9201204 +22.7162625     648.0702     69.99884      2.589     4.58     19.35663     19.73875     32.94298         6     1.266     0.471 -53.75   0
        24    225.4372   1021.5139 299.9329789 +22.7378665      3821.34     64.70456      6.823    21.39     6.266139     19.73875     85.78377       184     5.111     3.387  25.18  27
        25    117.4196    977.6921 299.9136886 +22.6928629      1233.57     69.89189     12.513    14.98      12.9005     19.73875     41.19324        34     3.789     1.648 -18.52   3
        26    459.3198    980.4478 300.0190723 +22.7963332     593.1164     69.98103      0.991     2.02    -5.098089     19.73875      105.062        10     0.813     0.633  81.54   0
        27    565.4932    983.8488 300.0510018 +22.8291806     882.2125     69.99884      1.099     2.01    -5.222799     19.73875     161.8555        14     0.924     0.818  -9.96   0
        28    390.0344    978.5200 299.9981494 +22.7749781     3820.014     69.90972      1.041     1.73    -5.051054     19.73875     749.2298        22     0.880     0.836  63.02   0
        29     81.8476    948.6328 299.9121013 +22.6738515     2165.091     69.99884     14.110    29.39     1.368923     19.73875     82.81055       210     8.039     2.982 -24.20   3
        30    422.4438    965.1877 300.0125705 +22.7808872     219.4716      69.9632      1.029     2.46    -5.091876     19.73875     60.92205         6     0.739     0.486 -79.26   0
        31    936.2314    956.9797 300.1752320 +22.9327084     1234.886      69.9632      1.022     1.59    -5.850655     19.73875     320.8822        13     0.780     0.723 -51.58   0
        32    586.4684    954.2714 300.0671614 +22.8269945     311.6516     69.99884      1.038     2.22    -5.186084     19.73875     50.30074         5     0.691     0.461 -68.10   0
        33    724.6016    945.1262 300.1131481 +22.8658230     442.6605      69.8562      1.390     1.99    -5.350184     19.73875     58.58512         6     0.690     0.565  34.64   0
        34    759.8491    940.1082 300.1257609 +22.8749586     551.9756     69.99884      0.955     1.67    -5.367799     19.73875     152.7693         6     0.624     0.544 -37.58   0
        35    782.0603    933.7919 300.1347366 +22.8798099     6667.541     69.94538      1.035     1.60    -5.387756     19.73875     1628.879        25     0.887     0.819 -79.13   0
        36    827.4951    933.7737 300.1488984 +22.8934343     209.6079     69.90972      0.881     2.69    -5.489377     19.73875      60.8867         5     0.719     0.452 -67.62   0
        37     93.7750    925.5549 299.9233185 +22.6708233     695.3375     69.98103      1.666     2.64    -3.628347     19.73875     72.91745         8     0.747     0.738 -27.48   0
        38    833.7760    921.4308 300.1548741 +22.8917765     257.6022      69.9632      0.888     1.82    -5.409398     19.73875     64.11123         5     0.641     0.479 -16.98   0
        39    486.7073    922.0585 300.0466039 +22.7878139     241.7624     70.01665      1.104     2.16    -5.080986     19.73875      52.9813         5     0.739     0.403 -70.14   0
        40    790.5637    915.8707 300.1432204 +22.8772187     830.7296      69.9632      0.967     1.81    -5.263652     19.73875     174.0846         7     0.674     0.565 -85.94   0
        41    973.6204    914.7477 300.2006396 +22.9317994     237.5277     69.94538      1.022     3.40     -5.64152     19.73875     48.34871         5     0.738     0.452  72.43   0
        42    828.7799    909.2711 300.1572762 +22.8867886     458.9008     69.98103      0.988     1.90    -5.312573     19.73875     98.10205         7     0.671     0.609 -37.22   0
        43    877.0231    900.4520 300.1751814 +22.8987275     278.8675     69.98103      1.032     2.34    -5.411572     19.73875     59.97456         8     0.749     0.671 -65.28   0
        44    728.4650    899.5864 300.1291778 +22.8539172     365.8386     69.92756      0.910     2.02    -5.013761     19.73875     79.80756         5     0.648     0.475 -17.00   0
        45    739.9399    896.6771 300.1336990 +22.8565250     367.2254     70.01665      1.108     2.25     -5.00247     19.73875     63.85823         7     0.686     0.658   1.70   0
        46    441.2129    896.0743 300.0409093 +22.7667071     2403.285     69.98103      1.084     1.82    -5.050043     19.73875     522.4133        19     0.918     0.818 -58.46   0
        47    166.2973    881.8441 299.9600750 +22.6800824     471.2496     69.98103      1.051     1.98    -3.142834     19.73875     90.88352         6     0.694     0.526 -52.95   0
        48    143.8434    878.9720 299.9540339 +22.6725156     966.5278     69.98103      1.222     2.35    -3.516066     19.73875     165.2537        14     1.002     0.883  29.63   0
        49     74.7184    880.2134 299.9321585 +22.6521084     311.5859     69.94538      0.988     2.40    -4.354729     19.73875     47.00963         5     0.728     0.430 -76.87   0
        50   1015.1407    867.7073 300.2289004 +22.9307445     1226.444     70.03445      1.041     1.74    -4.529239     19.73875     260.8634        13     0.838     0.713  58.20   0
        51    969.4434    866.0630 300.2151861 +22.9165713     1120.191      69.9632      0.994     1.80    -4.887018     19.73875     249.7131        11     0.766     0.678  31.25   0
        52    675.2192    866.1934 300.1234655 +22.8283622     142.5583     69.92756      0.859     2.21    -4.820212     19.73875     47.27186         6     0.730     0.527  42.59   0
        53    752.7116    859.8741 300.1496570 +22.8497963     478.9831     70.10562      0.938     2.04    -4.811382     19.73875     80.73496         5     0.710     0.427  74.44   0
        54    175.2622    860.4901 299.9698103 +22.6766552     199.5399     70.05225      0.963     2.20    -4.194117     19.73875     55.87894         5     0.683     0.453  24.52   0
        55    621.0981    854.1747 300.1105265 +22.8086762      2748.26     69.92756      1.057     1.70    -4.960007     19.73875     626.2338        18     0.850     0.777  72.85   0
        56    110.6202    855.1843 299.9514551 +22.6557206     362.5287     69.94538      1.030     1.70    -4.421503     19.73875      57.4425         5     0.629     0.474 -75.45   0
        57    423.2327    851.3062 300.0498877 +22.7484731     373.3182     69.90972      1.081     2.39    -4.966761     19.73875      72.8268         8     0.879     0.577 -69.98   0
        58    171.2014    848.0060 299.9726114 +22.6718579     847.2885     69.78477      1.243     2.01    -4.298263     19.73875     145.8147        12     0.997     0.785 -87.55   0
        59    642.0084    846.6810 300.1194755 +22.8128002     597.3331     69.90972      1.295     2.69    -4.856994     19.73875     86.28673        10     0.866     0.746 -10.97   0
        60    439.6363    846.3165 300.0566141 +22.7519660     188.0813     69.94538      1.138     3.81    -4.903404     19.73875     28.97079         5     1.045     0.399 -73.89   0
        61    190.4098    845.4041 299.9794265 +22.6768806     314.7683     69.80264      1.437     3.65    -4.314133     19.73875      41.0907         6     0.956     0.402  70.92   0
        62   1013.9951    833.9149 300.2395422 +22.9206987     779.3641     69.89188      1.063     1.74    -4.537509     19.73875     180.7113        10     0.781     0.662  81.06   0
        63    797.0878    833.8048 300.1719663 +22.8556257     2542.061     69.87405      1.045     1.66    -4.794808     19.73875     576.9262        15     0.822     0.730  86.94   0
        64    205.3148    828.3997 299.9895916 +22.6764826     331.2958     69.83835      1.098     2.35     -4.43774     19.73875     49.39165         5     0.664     0.487   7.17   0
        65    514.1564    826.5175 300.0862423 +22.7686528       501.11     69.92756      1.265     2.74    -4.732605     19.73875     82.07188         8     0.948     0.575  52.90   0
        66    160.5449    824.5776 299.9769244 +22.6619432      717.372     69.98103      1.106     2.19    -4.507425     19.73875     98.85542        12     0.825     0.793 -78.36   0
        67    575.4968    819.8224 300.1075111 +22.7851390     332.3179     69.89188      1.029     2.02    -4.767729     19.73875     59.38337         5     0.684     0.457 -66.48   0
        68    310.2133    816.6379 300.0260238 +22.7046061     31095.26     69.98103      1.105     1.85    -4.763285     19.73875     5607.903        65     1.075     1.037  85.59   0
        69    567.9639    815.4946 300.1065748 +22.7816372     944.4498      69.9632      1.049     1.94    -4.724433     19.73875     167.4058         9     0.768     0.644  69.37   0
        70    238.5088    814.9276 300.0042912 +22.6825879     161.1366     70.12341      1.117     2.53    -4.565924     19.73875     46.39522         6     0.758     0.497 -84.22   0
        71    980.7834    814.4032 300.2355358 +22.9051397      497.821     69.87405      0.902     1.80    -4.699462     19.73875     113.2043         7     0.698     0.575  27.12   0
        72    596.8644    811.6000 300.1168380 +22.7891914     595.2521     69.98103      1.149     1.59    -4.803032     19.73875     108.6511         7     0.631     0.591  55.93   0
        73    607.6711    809.7972 300.1207887 +22.7919165      315.718     69.90972      0.980     2.23    -4.830059     19.73875     87.20672         6     0.810     0.466  85.07   0
        74    713.4020    805.9662 300.1549574 +22.8225358     218.2112     69.92756      0.915     1.86    -4.705422     19.73875     60.83211         5     0.670     0.438 -64.30   0
        75    750.7997    796.4527 300.1697015 +22.8310229     352.8186     69.90972      0.934     1.72    -4.748406     19.73875     88.15204         6     0.677     0.497  -2.72   0
        76    359.9174    793.8810 300.0488831 +22.7130017     18387.78     70.10562      1.154     1.78    -4.603526     19.73875     3868.122        42     0.994     0.955  83.43   0
        77    374.2159    794.3101 300.0531899 +22.7174165     1096.042     69.89188      1.100     2.00    -4.618021     19.73875     194.2573        12     0.800     0.769  48.08   0
        78    248.7445    793.3166 300.0145043 +22.6794660     196.7842     70.05225      1.188     4.77    -4.581672     19.73875     33.34198         5     1.346     0.480 -43.26   0
        79    882.9472    789.4691 300.2131498 +22.8686477     1721.533     69.98103      1.010     1.72    -4.694943     19.73875     325.4568        14     0.793     0.745  85.42   0
        80    371.0554    788.1861 300.0541996 +22.7147118     461.4462     69.94538      1.100     2.13    -4.573599     19.73875     65.61478         6     0.702     0.545  60.10   0
        81    640.7973    785.5656 300.1389866 +22.7949024     611.6086     69.94538      1.134     2.69    -4.612714     19.73875     109.7448        11     0.949     0.721  55.45   0
        82    242.3574    785.6171 300.0150242 +22.6753411     448.8469     69.98103      1.103     2.29    -4.509853     19.73875     74.70159        10     0.846     0.685  35.65   0
        83     47.1729    781.2873 299.9557946 +22.6154890     301.1206     69.94538      1.121     2.23    -4.634346     19.73875     74.17108         6     0.785     0.596  18.85   0
        84    888.9144    777.1577 300.2190156 +22.8669025     327.7203     69.92756      1.251     1.53    -4.593085     19.73875     84.37249         6     0.662     0.501 -42.57   0
        85    642.4523    774.8010 300.1430044 +22.7923101      223.761     69.92756      0.973     2.42    -4.559286     19.73875     42.66221         5     0.702     0.458 -68.64   0
        86    434.0340    775.3232 300.0779725 +22.7299249     123.1963      69.9632      0.924     2.20    -4.637508     19.73875     48.84119         5     0.753     0.456  57.26   0
        87     75.5799    775.0175 299.9666564 +22.6222238     280.7183     69.94538      0.999     3.02    -4.637329     19.73875      48.9533         6     0.777     0.643 -59.20   0
        88    866.5869    771.8325 300.2137894 +22.8586791     191.8629     69.94538      1.016     3.20    -4.550645     19.73875     43.22639         5     0.730     0.460  71.94   0
        89    488.1650    780.5188 300.0931225 +22.7476595     590.4777     69.90972      1.321     2.14    -4.632129     19.73875     84.00458         9     0.798     0.671  20.75   0
        90    563.2669    760.2118 300.1231006 +22.7643685      331.539     69.94538      1.284     2.09    -4.478622     19.73875     58.40504         5     0.701     0.431  79.44   0
        91    532.8781    758.8003 300.1141021 +22.7548459     266.9978     69.83835      1.128     3.05    -4.484553     19.73875     63.40886         5     0.791     0.505 -50.48   0
        92    554.8715    756.1265 300.1218167 +22.7606776     813.7006     70.01665      1.135     2.32    -4.454387     19.73875     164.7459         9     0.856     0.612  61.97   0
        93    949.2411    754.7725 300.2451048 +22.8785618     2677.902     69.98103      1.018     1.59    -4.458058     19.73875     614.7987        17     0.860     0.784  79.00   0
        94    937.7251    746.0787 300.2443430 +22.8726132     951.5231     70.07005      1.116     1.72    -4.361631     19.73875     203.7965        12     0.833     0.692 -84.92   0
        95    300.8445    740.4270 300.0479060 +22.6799423     415.8925     69.98103      0.959     2.08     -4.10911     19.73875     88.17971         9     0.913     0.533 -65.93   0
        96    763.8621    737.5868 300.1929232 +22.8180451     1500.348     69.92756      1.092     1.75    -4.346506     19.73875     289.4457        14     0.821     0.802  -4.71   0
        97    968.8329    736.2574 300.2572369 +22.8791182     976.9622     69.98103      0.977     1.77    -4.426521     19.73875     218.8779        10     0.733     0.692 -87.31   0
        98    846.6466    723.1137 300.2234252 +22.8387137     491.3022     69.94538      1.676     4.35    -4.154174     19.73875     60.08018        11     1.199     0.841  43.02   0
        99    882.4619    714.4636 300.2374013 +22.8469680     86230.81     69.99884      1.033     1.82     -4.18794     19.73875     13569.28       102     1.134     1.038  83.56   0
       100    644.8500    717.9744 300.1622380 +22.7767226      166.052     69.98103      1.152     3.08    -4.234484     19.73875     46.23003         6     0.898     0.454  54.66   0
       101    734.7479    714.9215 300.1912272 +22.8028084     551.0388      69.9632      1.250     2.00    -4.345176     19.73875     91.86591         8     0.734     0.656 -12.50   0
       102    915.4500    707.0916 300.2500820 +22.8547405     277.8539     69.98103      1.084     2.26    -4.177304     19.73875     50.01582         6     0.743     0.492 -82.40   0
       103    215.1978    705.4008 300.0326773 +22.6441897      221.731     69.74903      1.110     3.73    -4.175612     19.73875     23.90353         5     1.028     0.389 -84.96   0
       104    568.7455    703.3414 300.1433058 +22.7496949       1062.5     70.01665      1.171     1.95    -4.074572     19.73875     159.7504        14     0.887     0.782  84.42   0
       105    749.9747    700.6490 300.2006127 +22.8032778     5431.847     69.98103      1.128     1.83    -4.163476     19.73875     1036.281        28     0.958     0.920 -72.42   0
       106    251.6178    696.0095 300.0470510 +22.6524295     2757.433     69.90972      1.138     1.99    -4.052922     19.73875     496.5111        18     0.939     0.787  75.72   0
       107    333.6555    693.8896 300.0732443 +22.6764446     670.5154     69.99884      1.165     2.22    -4.010465     19.73875     133.2817        12     0.835     0.785  59.98   0
       108    541.8337    689.3591 300.1394776 +22.7376098     429.6539     70.01665      1.113     2.04    -3.915546     19.73875     78.97034         7     0.765     0.545  27.99   0
       109    533.5278    681.6478 300.1394006 +22.7329055     1766.926     69.94538      1.138     2.09    -3.864157     19.73875     274.5609        17     0.923     0.855 -36.83   0
       110    523.5477    675.1869 300.1383960 +22.7280577     854.4753     69.99884      1.222     2.31    -3.815343     19.73875     132.7097        14     1.065     0.788  57.09   0
       111    186.9599    671.8498 300.0348136 +22.6260932      454.615     69.98103      1.357     2.35    -4.449028     19.73875     67.06516         8     0.785     0.640 -35.25   0
       112    201.1637    670.0837 300.0398017 +22.6298506     272.9457     69.94538      1.111     2.59    -4.298279     19.73875     70.44404         9     0.889     0.652  72.80   0
       113    227.2253    666.8692 300.0489464 +22.6367519     293.8306      69.9632      1.186     1.89    -4.058055     19.73875     73.77751         6     0.716     0.508 -42.48   0
       114    970.5948    666.2084 300.2805720 +22.8595289     226.7188      69.8205      0.987     1.59    -4.095486     19.73875     66.29192         5     0.636     0.458 -66.50   0
       115    448.5342    665.1985 300.1183042 +22.7026870     1024.077     69.94538      1.185     1.99    -3.823281     19.73875     193.9136        13     0.850     0.777  57.85   0
       116    102.6226    660.2164 300.0123947 +22.5974389     11751.31     69.94538      1.147     1.96    -4.622192     19.73875      1920.32        43     1.079     0.998  66.42   0
       117     23.4186    661.6799 299.9873206 +22.5740769     365.5041      69.9632      0.929     1.79    -3.967746     19.73875     78.60451         5     0.641     0.465 -68.22   0
       118    533.3320    660.5123 300.1462133 +22.7267822     584.6484     70.08784      1.083     2.64    -3.706513     19.73875     90.40266        11     0.986     0.680 -17.46   0
       119    951.3135    646.3441 300.2810205 +22.8480447     589.2525     70.03445      1.047     2.11    -4.083805     19.73875     115.0359         9     0.794     0.617 -66.22   0
       120    114.7931    644.9944 300.0211249 +22.5967289     269.1788      69.8205      1.384     4.01     -4.42575     19.73875      39.7688         6     1.092     0.420  63.01   0
       121     48.4531    644.2610 300.0007585 +22.5766011     917.1653     70.01665      1.616     4.81    -4.077825     19.73875     84.48362        18     1.556     0.753 -82.53   0
       122    818.2723    644.6949 300.2400891 +22.8076916     238.6583     70.07005      1.185     1.93    -3.942976     19.73875     51.23317         5     0.684     0.435 -79.82   0
       123    496.5818    640.9422 300.1411411 +22.7101423     276.9514     69.92756      0.869     2.02    -3.652734     19.73875     60.44153         6     0.734     0.492 -86.69   0
       124    891.4796    639.0934 300.2647258 +22.8280283      403.484     70.08784      0.918     1.99      -4.0579     19.73875     73.34631         6     0.713     0.499 -87.46   0
       125    453.7520    633.5319 300.1302249 +22.6951673     490.9129      69.9632      1.118     2.48    -3.629958     19.73875     64.12258         7     0.793     0.584  78.09   0
       126    601.4002    631.8502 300.1767205 +22.7389738     279.2241     69.90972      1.066     1.85    -3.696663     19.73875     57.02636         5     0.659     0.464 -70.47   0
       127    648.7551    630.3386 300.1919554 +22.7527418     175.2787     69.99884      0.846     2.17    -3.761621     19.73875     58.56902         5     0.692     0.454 -14.79   0
       128    497.6806    629.0970 300.1453346 +22.7070731     667.2445     70.08784      1.330     1.91    -3.576138     19.73875     89.93474         7     0.681     0.609 -67.85   0
       129    931.4387    624.4999 300.2819277 +22.8358140     1826.115     69.98103      1.037     1.90    -4.069885     19.73875     287.3395        17     0.921     0.828 -75.08   0
       130    463.3682    624.5565 300.1361350 +22.6954770      952.808     70.01665      1.072     2.01    -3.574258     19.73875     150.8473        12     0.785     0.770  84.04   0
       131     25.3459    618.4727 300.0019674 +22.5622708     2929.626     69.94538      1.122     2.06    -3.815476     19.73875     453.4629        22     0.994     0.858  76.46   0
       132    326.7161    611.4365 300.0978985 +22.6507128     5347.153     69.94538      1.169     2.05    -3.862239     19.73875     839.7218        30     1.044     0.947  80.05   0
       133    449.1341    608.4795 300.1369339 +22.6865939     5195.479     70.07005      1.205     2.17    -3.471811     19.73875     737.9728        27     1.025     0.932 -89.86   0
       134    860.7974    602.2213 300.2671523 +22.8082425     1023.432     69.90972      1.148     1.98    -3.977691     19.73875     195.8021        14     0.900     0.826 -49.01   0
       135    945.3300    599.5914 300.2943577 +22.8328227      7325.27     69.94538      1.066     1.86    -4.005974     19.73875     1326.127        29     0.921     0.908  46.07   0
       136    509.7055    598.0530 300.1591700 +22.7017719     6681.129     70.03445      1.208     2.00    -3.413782     19.73875      1152.75        30     1.025     0.949  74.10   0
       137    237.3398    593.7083 300.0758775 +22.6188069     896.4462     70.03445      1.274     2.44    -3.857582     19.73875     123.1345        12     0.933     0.772  56.46   0
       138    679.2096    593.7965 300.2133201 +22.7513844     220.6976     69.78477      1.173     3.93    -3.638568     19.73875      37.6442         6     0.771     0.574 -49.04   0
       139    441.5048    586.2332 300.1417929 +22.6779220     2591.607     69.94538      1.206     2.19    -3.459033     19.73875     384.1076        22     1.009     0.943  82.17   0
       140    784.1034    586.0107 300.2485243 +22.7805975     417.8786     69.87405      1.035     2.18    -3.789505     19.73875     103.8458         9     0.871     0.618   9.94   0
       141    419.6992    584.7350 300.1354968 +22.6709507      647.829     70.05225      1.154     2.14    -3.467399     19.73875     122.4132        13     0.979     0.729 -19.64   0
       142    174.1257    584.2084 300.0593208 +22.5971102     358.2511     69.94538      1.034     2.30    -3.825694     19.73875     83.21245         8     0.821     0.629  -6.76   0
       143    861.1376    581.4069 300.2740257 +22.8023667      1024.86     69.94538      1.378     2.67    -3.855411     19.73875     122.6985        13     1.014     0.745 -44.31   0
       144    381.9323    579.6071 300.1254170 +22.6581490     127.8855     69.92756      1.109     4.73    -3.585384     19.73875      30.1314         5     1.021     0.622  75.94   0
       145    741.3917    578.4564 300.2376744 +22.7656239       576.11     69.94538      1.300     2.33    -3.757537     19.73875     75.17175        11     0.857     0.755 -66.04   0
       146    557.9720    573.7156 300.1821034 +22.7092638     119600.8      69.9632      1.252     2.15    -3.288547     19.73875     19296.08       129     1.258     1.222  85.63   0
       147    244.1152    573.7936 300.0844573 +22.6151285     2111.171     69.89188      1.199     2.09    -3.729026     19.73875     334.4698        17     0.942     0.820  73.87   0
       148    448.6116    554.3066 300.1543823 +22.6708926     1556.966     69.90972      1.358     2.38    -3.433748     19.73875     217.6159        20     1.360     0.867  86.18   0
       149    765.1986    542.1651 300.2568881 +22.7623398     298.8461     69.92756      1.553     3.95    -3.643448     19.73875      30.8394         5     1.018     0.439  44.28   0
       150    845.4826    539.9554 300.2826220 +22.7857692     908.2127     69.92756      1.088     1.92    -3.642001     19.73875     155.5613        11     0.853     0.651  51.29   0
       151    716.6124    537.7518 300.2431880 +22.7465075     1492.615     69.98103      1.229     2.19    -3.488311     19.73875     233.7529        14     0.915     0.797  63.45   0
       152    621.7998    534.4387 300.2147399 +22.7171298     326.0637      69.9632      1.294     4.73    -3.049438     19.73875     44.28462         6     0.940     0.675  88.48   0
       153    504.2854    533.8501 300.1783538 +22.6817206     431.4261     69.94538      1.639     3.14    -3.276265     19.73875      56.8469         9     0.911     0.666  19.34   0
       154    973.9034    531.5555 300.3253850 +22.8218400      760.347     69.98103      1.072     1.89    -3.668885     19.73875     138.5425        10     0.775     0.682  80.82   0
       155    959.7890    530.6646 300.3212736 +22.8173550     392.1618     69.89188      1.082     2.26    -3.660978     19.73875      68.1115         6     0.728     0.513  46.25   0
       156    845.8270    530.4708 300.2858122 +22.7831482     1337.393     69.94538      1.283     2.04    -3.629238     19.73875     207.7147        14     0.908     0.827  82.66   2
       157    599.0865    528.2950 300.2096657 +22.7085555      421.477     70.14118      1.247     2.91    -3.042392     19.73875     47.72878         7     0.738     0.646   3.57   0
       158    883.8707    525.2768 300.2993576 +22.7930577     2542.897     70.07005      1.143     1.86    -3.626734     19.73875     482.1054        17     0.900     0.823  69.74   0
       159    544.8593    520.8443 300.1952078 +22.6901557     246.0343     69.98103      1.338     5.42    -3.164915     19.73875     33.06688         8     1.114     0.745 -87.91   0
       160    975.5643    515.3771 300.3311615 +22.8176895      465.288     69.98103      1.083     2.80    -3.657911     19.73875     87.17152         9     0.947     0.647  62.78   0
       161    116.1207    515.8204 300.0635273 +22.5600888     494.9467      69.9632      1.148     2.20    -3.555519     19.73875     89.42481         8     0.739     0.672  60.14   0
       162    776.6326    508.9556 300.2712444 +22.7562299     195.5836     70.01665      1.244     2.35    -3.585885     19.73875     49.95862         5     0.832     0.472  81.59   0
       163    108.6414    505.8609 300.0644404 +22.5549878      140.152     69.94538      0.990     2.95    -3.551853     19.73875     41.54496         5     0.719     0.459  75.42   0
       164    657.4560    495.9207 300.2383607 +22.7167616     451.2701     69.99884      1.326     3.35    -3.067166     19.73875     57.78945        10     1.031     0.692 -66.46   0
       165    972.0137    488.0675 300.3389302 +22.8087789     305.3168      69.9632      1.172     2.09    -3.636697     19.73875     66.57545         7     0.809     0.515 -44.78   0
       166    718.0749    488.1449 300.2597663 +22.7327009     424.6755     69.98103      1.224     2.11    -3.369786     19.73875     78.90109         8     0.759     0.634 -40.42   0
       167    875.2792    484.1763 300.3100377 +22.7786764      591.332     69.92756      1.241     1.82    -3.577241     19.73875     94.72589         8     0.707     0.629 -45.77   0
       168    859.6003    480.1983 300.3064437 +22.7728353     403.6308     69.74903      1.208     3.03    -3.566275     19.73875     60.86383         5     0.730     0.451 -70.61   0
       169    603.9395    478.6089 300.2273240 +22.6957462     1961.165     69.92756      1.245     2.28    -3.025716     19.73875     283.6123        20     0.983     0.931 -19.20   0
       170    964.2606    477.0786 300.3400839 +22.8032986     315.2855     70.01665      1.295     2.84    -3.601097     19.73875     60.84219         6     0.891     0.524  26.77   0
       171    443.9086    465.6588 300.1817290 +22.6440411      309.001     70.03445      1.477     4.67    -3.024343     19.73875      38.8399         7     1.015     0.609 -87.45   0
       172   1015.2589    457.4344 300.3623710 +22.8129316     811.6798     69.98103      1.086     1.94    -3.334645     19.73875     155.1562        11     0.782     0.717 -32.83   0
       173    887.1812    457.4563 300.3224305 +22.7745665     246.0057     69.94538      0.947     1.73    -3.547635     19.73875     53.63549         5     0.655     0.447  27.20   0
       174    973.5671    456.1338 300.3497921 +22.8000684     573.3275      69.9632      1.035     2.06    -3.435212     19.73875     108.5926         6     0.685     0.597 -79.27   0
       175    714.4899    452.4842 300.2702378 +22.7213852     513.0289     70.10563      1.101     2.48    -3.202565     19.73875     88.55536         9     0.931     0.577 -83.99   0
       176    510.2791    453.0147 300.2064883 +22.6603152     214.0259     69.98103      1.345     4.10    -3.058449     19.73875     35.29022         5     1.018     0.516  50.92   0
       177    218.5776    451.1567 300.1163747 +22.5722869     270.8441     70.01665      1.033     3.30    -3.232402     19.73875     62.26696         7     0.938     0.483  82.51   0
       178    280.8790    446.6465 300.1372056 +22.5896842     2145.391     69.98103      1.273     2.29    -3.210443     19.73875     322.7296        21     1.049     0.945  60.16   0
       179   1013.8184    444.7998 300.3660272 +22.8088691     2570.921     69.89188      1.115     1.91    -3.178678     19.73875     488.6889        19     0.891     0.857 -72.30   0
       180    228.1278    441.4736 300.1224888 +22.5723743     4484.367     70.01665      1.263     2.37    -3.182439     19.73875     593.1959        27     1.080     0.951  87.63   0
       181    368.8994    435.6437 300.1681494 +22.6129298     2749.931      69.9632      1.290     2.21    -2.837863     19.73875     431.0609        23     1.039     0.934  76.40   0
       182    993.9135    435.8248 300.3627359 +22.8003273     1047.108     69.90972      1.126     2.00     -3.16842     19.73875     221.3288        10     0.821     0.673 -88.34   0
       183    613.0977    432.1947 300.2452564 +22.6851651      10786.6     69.87405      1.270     2.32    -3.041502     19.73875     1396.137        41     1.119     1.064  62.20   0
       184    630.7202    432.1597 300.2507545 +22.6904380     579.0568     69.94538      2.255     6.31      -3.0435     19.73875      42.1608        13     1.567     0.715 -39.18   0
       185    946.6801    414.6245 300.3548957 +22.7800856     480.4717     69.94538      1.100     2.30    -3.330384     19.73875     81.79659        10     0.873     0.683  81.75   0
       186    167.8684    412.6389 300.1131295 +22.5460223      1109.65     69.92756      1.286     2.59    -3.097309     19.73875     171.4639        15     0.988     0.861 -82.82   0
       187    553.7099    401.7244 300.2366683 +22.6586119     3955.066     70.12341      1.320     2.33     -3.09967     19.73875     570.0725        28     1.119     0.996  67.79   0
       188    967.2405    401.9651 300.3654192 +22.7826067     656.7504     70.01665      1.047     1.74    -3.134149     19.73875     144.6727        10     0.758     0.732  79.61   0
       189    268.8913    400.9280 300.1483312 +22.5729697     458.4753     70.12341      1.376     3.58     -3.02003     19.73875     65.64468        11     1.026     0.832  72.60   0
       190    126.2596    394.4692 300.1061036 +22.5283255     342.2281     69.98103      1.272     3.61    -3.070795     19.73875     48.40079         8     0.924     0.689  43.57   0
       191    667.1259    391.9935 300.2751393 +22.6898157     305.9851     69.90972      1.316     4.58    -3.051702     19.73875     44.03022         8     0.923     0.709   0.38   0
       192    757.9197    390.5464 300.3038890 +22.7166110     722.9574     69.99884      1.308     2.53    -3.145897     19.73875     102.6099        11     0.939     0.698  72.81   0
       193    460.3679    387.9355 300.2121003 +22.6266667     3514.476      69.9632      1.300     2.45    -2.969762     19.73875      457.806        24     1.060     0.968  64.81   0
       194    852.2288    382.1472 300.3360037 +22.7424567     875.6597     69.98103      1.294     2.21    -3.267123     19.73875     121.3751        13     0.934     0.756  83.60   0
       195    949.3796    382.1197 300.3662971 +22.7715531     342.2968     69.94538      1.102     2.07    -3.134398     19.73875     66.61556         7     0.680     0.634  79.59   0
       196    445.2424    376.5584 300.2110900 +22.6188652     266.2785     70.07005      1.355     3.76    -2.918552     19.73875     40.53876         6     0.950     0.428 -89.00   0
       197    824.6925    370.0010 300.3313677 +22.7307166     272.6414      69.8562      1.158     3.57    -3.189212     19.73875     47.26519         7     0.818     0.703  12.00   0
       198    347.9056    367.2534 300.1838364 +22.5870051     1456.058     70.03445      1.322     2.40    -2.758552     19.73875     194.3593        19     1.026     0.939  54.49   0
       199     66.4204    364.7202 300.0971778 +22.5018366     529.1774      69.9632      1.271     3.11    -3.021009     19.73875     72.85868        12     0.987     0.821  20.69   0
       200    317.2546    356.6825 300.1777386 +22.5747785     17140.43     70.01665      1.295     2.37    -2.795474     19.73875     2229.826        50     1.174     1.088  83.98   0
       201    851.6923    354.0526 300.3449622 +22.7342234     799.8171     70.01665      1.179     2.20    -3.085331     19.73875      127.131        11     0.927     0.717  -1.66   0
       202     13.6956    344.5947 300.0873395 +22.4802424     2922.194     69.87405      1.209     2.18     -2.92417     19.73875     445.5165        24     1.002     0.982 -51.04   0
       203    415.8339    341.9108 300.2131944 +22.6001006     195.0854     69.94538      1.302     4.67    -2.816443     19.73875     36.79962         7     0.916     0.677  79.03   0
       204    727.5989    336.2987 300.3120638 +22.6919411       1094.9     69.87405      1.251     2.57    -3.008233     19.73875     128.8607        14     0.969     0.799 -85.48   0
       205    942.6526    328.9686 300.3814635 +22.7542624      385.514     69.98103      1.265     3.41    -2.982975     19.73875     51.13843         9     0.892     0.685  23.61   0
       206    389.4143    321.0126 300.2117631 +22.5861793     1332.396     69.89188      1.573     3.36    -2.720083     19.73875     140.3699        21     1.337     0.912  83.03   0
       207    828.3669    313.7820 300.3507717 +22.7156637     393.1623     69.94538      1.316     2.95    -3.039666     19.73875     60.65303         9     0.894     0.699  -5.34   0
       208    465.0269    300.2643 300.2420226 +22.6028925     808.8735     69.94538      1.495     3.91    -2.982696     19.73875     81.80838        13     1.103     0.832  46.08   0
       209    848.5580    293.2229 300.3637404 +22.7158042     243.5204     69.99884      1.228     3.36    -2.986782     19.73875     31.15843         5     0.756     0.433 -66.85   0
       210    710.0181    292.1452 300.3209261 +22.6739883      1162.87     69.94538      1.221     2.45    -2.879019     19.73875     172.8278        16     0.996     0.830  74.65   0
       211    971.2730    286.4026 300.4042105 +22.7505989     1889.856     69.87405      1.158     2.03    -3.032824     19.73875     287.7968        16     0.878     0.849  67.27   0
       212    418.1979    276.0402 300.2353190 +22.5818978     320.3909      69.9632      1.172     3.77    -2.786142     19.73875     50.06351         6     0.747     0.591  41.81   0
       213     93.1539    270.3014 300.1361401 +22.4827703      812.827     69.98103      1.438     2.47    -2.883201     19.73875     109.7152        12     0.982     0.745 -82.43   0
       214    124.1133    270.4812 300.1456995 +22.4921092     470.5531     70.08784      1.334     2.22    -2.944953     19.73875     68.58421         7     0.723     0.615  38.66   0
       215    986.8136    266.5956 300.4154880 +22.7495587     186.1347      69.8205      1.091     1.83    -3.053993     19.73875     50.34902         5     0.665     0.456  21.90   0
       216    781.5616    253.5149 300.3557560 +22.6843235     404.9849     69.94538      1.340     2.90    -2.646164     19.73875     58.66902         8     0.989     0.498   2.55   0
       217    372.0231    253.4161 300.2283015 +22.5615584     249.6505      69.9632      1.102     2.66    -2.535934     19.73875     40.30912         6     0.772     0.493  -1.59   0
       218    879.7112    242.4644 300.3899307 +22.7105470     1194.103     70.08784      1.236     2.32    -2.688606     19.73875     177.0127        14     0.894     0.811  83.36   0
       219    298.4055    240.0424 300.2097504 +22.5356457     1299.636     69.98103      1.327     2.62    -2.497908     19.73875     174.5571        17     1.017     0.893 -56.01   0
       220    376.4175    235.1414 300.2356007 +22.5576289     609.7955     69.92756      1.472     3.84    -2.539953     19.73875     58.22268        11     1.093     0.745 -65.15   0
       221    777.9568    234.1020 300.3609352 +22.6776649      316.602      69.9632      1.222     2.86     -2.43957     19.73875     44.77317         5     0.622     0.594  82.49   0
       222    885.5342    231.1832 300.3954081 +22.7090483     132.9935     69.94538      1.300     3.00    -2.661561     19.73875     33.92395         5     0.808     0.668  33.02   0
       223    193.2449    227.5507 300.1811166 +22.5005245     355.8965     69.99884      1.211     2.75    -2.673529     19.73875     59.15007         6     0.696     0.630  47.59   0
       224    730.8436    224.0681 300.3495150 +22.6606677     1054.944     69.94538      1.347     3.05    -2.339305     19.73875      124.881        15     1.101     0.769  75.61   0
       225    796.0179    223.5534 300.3699870 +22.6800436     368.2388     69.99884      1.461     5.31    -2.358196     19.73875     42.48543         8     0.917     0.869  11.88   0
       226   1002.2843    216.5129 300.4365721 +22.7397920     468.0599     70.08784      1.139     2.50    -2.995347     19.73875     76.66597        12     0.962     0.730 -57.14   0
       227    735.0816    215.6794 300.3535583 +22.6595267     398.8643     70.08784      1.201     2.86    -2.326179     19.73875     54.51377        10     0.898     0.717  89.66   0
       228    655.3649    214.6958 300.3290493 +22.6353610     746.0173      69.9632      1.275     2.45    -2.426877     19.73875     97.65885        13     0.912     0.827 -47.27   0
       229    850.8731    205.9188 300.3928058 +22.6914054     793.2779     70.08784      1.227     2.43    -2.468679     19.73875     126.2199        13     0.980     0.749  75.49   0
       230    581.6301    206.3721 300.3087937 +22.6108755     601.3777      69.9632      1.484     3.49    -2.713444     19.73875     69.78249        12     1.075     0.756  87.66   0
       231    862.9003    205.2112 300.3967841 +22.6948041     404.1292     69.87405      1.174     2.50    -2.487544     19.73875     62.04115        10     0.867     0.704  77.70   0
       232   1023.4811    195.9638 300.4498534 +22.7402295      820.968     55.44867      1.019     2.13    -2.774177     19.73875     168.8718        10     0.860     0.644  80.02  24
       233    979.5193    195.3967 300.4363271 +22.7269044     702.5697     69.87405      1.192     2.37    -2.735841     19.73875     89.47133        11     0.842     0.777 -19.84   0
       234      3.6492    191.9759 300.1337655 +22.4334464     281.9704     65.35641      1.254     3.89     -2.76283     19.73875      40.0892         6     1.027     0.422 -76.28  16
       235    213.8005    188.7746 300.2000905 +22.4955590     313.3441     69.90972      1.257     3.07    -2.558731     19.73875     65.97179         8     1.065     0.551  62.98   0
       236     75.6428    183.6215 300.1588357 +22.4526452     1366.405     69.99884      1.267     2.25    -2.717419     19.73875     205.1973        16     1.056     0.762  59.04   0
       237    898.3618    180.0227 300.4160133 +22.6981829      433.854     69.98103      1.263     2.39    -2.546564     19.73875     66.30704         9     0.831     0.660  31.75   0
       238    233.0900    176.9938 300.2099093 +22.4979613     3248.615     69.87405      1.336     2.37    -2.522443     19.73875     451.8555        27     1.148     0.984  76.51   0
       239     17.1190    171.3614 300.1446381 +22.4315723     659.7393     69.92756      1.157     2.61    -2.762512     19.73875     94.80016        10     0.800     0.785  48.06   0
       240    216.3978    167.9806 300.2076459 +22.4903687     259.4527     69.89188      1.023     2.10    -2.545817     19.73875     58.18609         7     0.700     0.617 -66.71   0
       241    435.8255    166.8421 300.2762482 +22.5558242     2042.026     70.01665      0.802     3.06    -2.543049     19.73875      800.245         8     0.845     0.324 -12.35   0
       242    877.0135    158.2440 300.4164270 +22.6855290     2145.492     69.98103      1.246     2.15    -2.495322     19.73875     311.7357        21     1.015     0.912  73.58   0
       243    980.5562    156.9438 300.4491308 +22.7161580     1616.039      69.9632      1.162     2.02    -2.398922     19.73875     256.3126        16     0.910     0.786  89.42   0
       244    426.8632    153.6313 300.2777471 +22.5493438     409.4746     69.98103      1.465     3.19    -2.534896     19.73875     50.04761         6     0.723     0.648 -50.92   0
       245    477.9144    140.8954 300.2977635 +22.5609859     1014.962     70.14118      1.421     2.80    -2.558769     19.73875     139.5914        15     1.134     0.830  75.94   0
       246    116.7976    142.7115 300.1848956 +22.4532476       302.11     69.89188      1.238     3.73    -2.628073     19.73875     52.69477         8     0.948     0.624 -82.94   0
       247    405.8481    141.6934 300.2750836 +22.5396164     202.8448     69.98103      1.129     2.51    -2.524135     19.73875     43.99812         6     0.718     0.608 -56.42   0
       248    221.3871    136.1196 300.2195353 +22.4827182      219.086     69.94538      1.288     3.48    -2.523924     19.73875     33.33919         5     0.768     0.456  73.84   0
       249    251.9631    120.8865 300.2339821 +22.4875120     3522.467     69.94538      1.321     2.31    -2.489993     19.73875     513.3224        26     1.171     0.938  84.61   0
       250    758.3632    121.3630 300.3914207 +22.6393940     115.4304     70.03445      1.095     4.17    -2.290988     19.73875     38.86135         6     1.077     0.461  -8.09   0
       251    102.9340    120.2609 300.1878729 +22.4426462     439.4516     69.99884      1.356     3.02    -2.569781     19.73875     63.57124         9     0.937     0.668 -27.06   0
       252    881.2857    117.7692 300.4308930 +22.6751717     363.1531     69.94538      1.545     4.08    -2.621679     19.73875     34.00387         6     1.071     0.443  84.83   0
       253    497.9136    106.0507 300.3152928 +22.5569693     3670.565      69.9632      1.383     2.76    -2.626525     19.73875     433.4268        27     1.133     1.055  74.06   0
       254    383.5132    105.9081 300.2797472 +22.5226444     474.6409     70.12341      1.413     3.60    -2.507782     19.73875     59.93673        10     0.978     0.719   7.95   0
       255    750.3710     95.8876 300.3971965 +22.6296777     454.8089      69.9632      1.313     2.02    -2.247516     19.73875     60.40612         7     0.690     0.616 -69.11   0
       256    843.3455     94.2989 300.4266827 +22.6570633     194.9887     70.05225      1.107     2.75     -2.56913     19.73875     36.38486         5     0.722     0.450  74.29   0
       257    190.7587     89.4015 300.2251732 +22.4601225     257.7358      69.9632      1.209     4.83    -2.438692     19.73875     35.51117         6     1.093     0.605  47.38   0
       258    626.2604     86.1862 300.3616895 +22.5897150     3637.891     69.92756      1.316     2.34    -2.320612     19.73875      443.584        27     1.132     0.993 -87.45   0
       259    549.5545     88.3020 300.3371232 +22.5673432     349.2193     69.99884      1.759     4.99    -2.757891     19.73875     37.32561         7     1.190     0.704  89.10   0
       260    401.2121     85.1441 300.2919888 +22.5219850     944.9171      69.9632      1.379     2.90    -2.536131     19.73875     107.8431        16     1.088     0.835  52.79   0
       261    667.3296     83.4849 300.3753547 +22.6012409     507.3904     70.07005      1.282     2.73    -2.195564     19.73875      69.4415         9     0.826     0.755 -19.59   0
       262    683.1961     79.3498 300.3816375 +22.6048049     258.3203      69.9632      1.032     2.54    -2.167293     19.73875     52.98199         6     0.690     0.639 -75.07   0
       263    150.2906     77.3775 300.2164981 +22.4445370     365.0546     69.89188      1.223     3.20    -2.338902     19.73875     50.82129         8     0.955     0.557 -69.26   0
       264    953.5979     76.5598 300.4668075 +22.6849714     368.9223      69.9632      1.459     3.24    -2.652224     19.73875     51.96686         7     0.869     0.624 -67.72   0
       265    670.3602     71.1224 300.3803090 +22.5985955     1639.067     69.94538      1.312     2.46    -2.146536     19.73875     227.6273        20     1.062     0.934 -67.90   0
       266    310.8700     71.9884 300.2681598 +22.4911294     208.1574     69.98103      1.211     4.01    -2.189061     19.73875     40.60117         6     1.108     0.441 -16.20   0
       267    685.1323     69.2729 300.3855096 +22.6024885     553.4446     70.03445      2.028     6.92    -2.135114     19.73875     43.60524        14     1.593     0.844  30.53   0
       268    756.8817     62.6657 300.4100027 +22.6220775     869.6968     70.07005      1.157     2.43     -2.16851     19.73875     145.6749        13     0.965     0.720  79.85   0
       269    694.8981     55.6082 300.3929840 +22.6014858     435.8118     69.83835      1.383     2.70    -2.094748     19.73875     53.81921         9     0.843     0.682  60.60   0
       270    500.7360     55.2698 300.3326449 +22.5432257     646.0421     69.99884      1.393     2.83    -2.770833     19.73875     79.95986        11     0.948     0.743 -48.27   0
       271     73.5404     55.3176 300.1998094 +22.4151906     273.7188     70.05225      0.979     2.32    -2.283223     19.73875     51.60349         5     0.670     0.496 -83.87   0
       272    404.2949     53.1039 300.3033413 +22.5137054     479.8058     70.14118      1.358     3.01    -2.574127     19.73875     78.98246        10     1.040     0.597  69.06   0
       273    786.5988     51.7918 300.4227889 +22.6278503      221.017     69.78477      1.140     4.12    -2.209833     19.73875     36.78768         6     0.735     0.661 -27.51   0
       274    175.8748     43.4329 300.2354587 +22.4424621     2282.012      69.9632      1.389     2.33    -2.020112     19.73875     305.7839        20     1.084     0.903  85.18   0
       275    743.9005     43.4050 300.4122065 +22.6126531      332.943      69.8562      1.178     2.63    -2.079944     19.73875      67.5183         9     0.942     0.678  80.78   0
       276    736.9767     35.6886 300.4125525 +22.6083614     506.9181     69.89188      1.260     2.47    -2.041259     19.73875     74.91567         8     0.744     0.713 -86.38   0
       277    291.8922     35.5510 300.2740780 +22.4749767     728.6169     69.99884      1.429     2.47    -1.784495     19.73875     110.8204        14     1.006     0.817 -22.69   0
       278    774.6406     30.8128 300.4258679 +22.6182381     341.6843      69.9632      1.433     4.13     -2.12636     19.73875     46.71395         7     1.147     0.623  57.82   0
       279    698.4153     30.2089 300.4023181 +22.5952382     329.6342     69.89188      1.523     3.32    -2.012565     19.73875      38.0118         7     0.854     0.613  15.65   0
       280    794.9551     26.8050 300.4334976 +22.6231685     1271.083      69.9632      1.306     2.34    -2.169586     19.73875     203.3077        16     1.039     0.877 -87.89   0
       281    500.5654     25.0642 300.3423892 +22.5344957     465.0709      69.9632      1.693     2.92    -2.865507     19.73875     35.74461         6     0.782     0.495  88.62   0
       282    178.3454     22.3594 300.2430611 +22.4371520     587.2299     69.92756      1.270     2.60    -1.829022     19.73875     75.08334        10     0.819     0.798  23.70   0
       283    969.8431     19.8135 300.4902808 +22.6735132     600.9603     69.98103      1.412     2.79    -2.927919     19.73875     66.51025        11     0.902     0.782  54.87   0
       284    743.3964     19.3456 300.4198531 +22.6055854     644.9308     69.92756      1.448     3.26      -2.0065     19.73875     73.79355        10     0.989     0.693 -58.28   0
       285      2.3640   1018.9834 299.8645141 +22.6701188     799.7046     59.79765      5.033     7.43    -17.40855     19.73875     31.51894         9     1.889     0.818  90.00  27
