#   1 NUMBER                 Running object number                                     
#   2 X_IMAGE                Object position along x                                    [pixel]
#   3 Y_IMAGE                Object position along y                                    [pixel]
#   4 ALPHA_J2000            Right ascension of barycenter (J2000)                      [deg]
#   5 DELTA_J2000            Declination of barycenter (J2000)                          [deg]
#   6 FLUX_APER              Flux vector within fixed circular aperture(s)              [count]
#   7 FLUXERR_APER           RMS error vector for aperture flux(es)                     [count]
#   8 FLUX_RADIUS            Fraction-of-light radii                                    [pixel]
#   9 FWHM_IMAGE             FWHM assuming a gaussian core                              [pixel]
#  10 BACKGROUND             Background at centroid position                            [count]
#  11 THRESHOLD              Detection threshold above background                       [count]
#  12 FLUX_MAX               Peak flux above background                                 [count]
#  13 ISOAREA_IMAGE          Isophotal area above Analysis threshold                    [pixel**2]
#  14 A_IMAGE                Profile RMS along major axis                               [pixel]
#  15 B_IMAGE                Profile RMS along minor axis                               [pixel]
#  16 THETA_IMAGE            Position angle (CCW/x)                                     [deg]
#  17 FLAGS                  Extraction flags                                          
         1    163.4319      7.1078 300.2567228 +22.4138012     616.4457     70.15784      1.489     3.65    -2.220378      19.8088     68.96724        13     1.035     0.895 -58.75  16
         2     94.4579   1015.7855 299.9074710 +22.6824118     1585.069     70.17574      6.283    11.24     6.468103      19.8088     50.46642        35     2.213     1.590  58.18  19
         3    394.7237   1023.4317 299.9983043 +22.7748240      2820.71     55.93803      0.986     2.03    -4.747774      19.8088     654.2354        16     0.954     0.696   9.48  24
         4    120.5596   1023.2356 299.9131522 +22.6923910     1020.544     57.02733      6.107     8.08     7.790798      19.8088     42.73206        19     2.712     0.674   5.50  27
         5    108.5475   1021.9529 299.9098387 +22.6884133     995.9592      63.2692      7.964     8.90     7.667877      19.8088     35.95774        10     2.616     0.846 -23.56  27
         6    100.5343   1022.5452 299.9071568 +22.6861746     889.5131     60.57219      6.055     8.09     7.790798      19.8088     40.24594        16     1.492     1.226 -11.02  25
         7    102.5972   1011.5288 299.9113854 +22.6836386     1410.965     70.15784     14.809    16.55     6.438667      19.8088     70.90067        44     3.382     2.250  17.99  19
         8     69.9790   1020.4670 299.8983436 +22.6763953     1411.679     68.41811      7.619    12.57     3.100547      19.8088     52.20199        36     2.423     1.816 -74.84  27
         9     72.8074   1013.5267 299.9014824 +22.6752574     1494.639     70.15784      7.956    12.83     3.058196      19.8088     48.15326        32     2.493     1.838 -83.97  19
        10     96.4117   1001.4385 299.9127503 +22.6788889     1511.113     70.21151     11.537    14.04     4.954852      19.8088     54.26372        37     2.812     1.950  33.70   3
        11     86.5116    995.4177 299.9116360 +22.6741885      2015.01     70.13994      9.605    29.79      3.12174      19.8088     52.37664       183     7.480     3.294 -33.95  19
        12     82.7294   1009.0210 299.9060313 +22.6769488     1943.501     70.21151     11.166    15.29     4.059073      19.8088     44.41854        60     3.382     1.923 -49.04  19
        13     90.5361   1006.4164 299.9093042 +22.6785490     2109.904     70.19363     11.554    13.48     4.866233      19.8088     55.06119        65     2.682     2.246 -37.09  19
        14    940.8322   1002.3279 300.1752281 +22.9327188      1287.66     70.21151      1.121     1.82    -5.492315      19.8088     233.3076        15     0.884     0.805 -46.03   0
        15    591.1301    999.6694 300.0671547 +22.8269949     322.0069     70.26514      1.487     2.45    -5.387681      19.8088      40.5116         5     0.739     0.425 -19.45   0
        16    729.8894    991.4672 300.1130325 +22.8662985     394.2083     70.33659      1.579     5.44     -5.37441      19.8088     47.77795         8     1.435     0.582  62.27   0
        17     86.3157   1021.0250 299.9032357 +22.6814655     2607.451     66.72714     12.839    23.39     5.767925      19.8088     56.31416       157     5.687     2.672  -0.35  27
        18    764.6733    985.4863 300.1258154 +22.8750229     586.9735     70.33659      1.064     2.23    -5.325293      19.8088     85.00852         9     0.777     0.704  23.46   0
        19    786.7634    979.1876 300.1347487 +22.8798455     6538.689     70.19363      1.142     1.86    -5.239943      19.8088     1235.286        28     1.000     0.888 -56.19   0
        20    832.4062    979.1418 300.1489851 +22.8935300     210.2609     70.17574      1.006     2.35    -5.332173      19.8088     55.12473         5     0.708     0.448  68.57   0
        21     98.3026    971.0352 299.9232381 +22.6707467     173.2618     70.21151      1.094     2.98      1.39891      19.8088     49.35881         7     0.712     0.679  40.55   0
        22    795.3065    961.2511 300.1432517 +22.8772627     776.2495     70.28301      1.047     1.94    -5.025021      19.8088     150.2336        12     0.939     0.640 -51.15   0
        23    978.6948    960.3546 300.2007036 +22.9320301     189.7957     70.22939      0.969     2.94    -5.282514      19.8088     50.89014         5     0.711     0.473  -7.46   0
        24    647.4493    958.7191 300.0980244 +22.8321575      299.276     70.24727      1.183     3.23    -5.243309      19.8088      35.6642         5     0.717     0.472 -73.11   0
        25    833.2489    954.7102 300.1572042 +22.8867717     475.1829     70.21151      1.121     1.72    -5.142714      19.8088     101.8766         6     0.643     0.575  35.39   0
        26    881.6619    945.8745 300.1751694 +22.8987626     328.5919     70.24727      1.142     2.66    -5.322995      19.8088     78.59585         8     0.872     0.740 -82.23   0
        27    733.1229    945.0322 300.1291618 +22.8539466      588.302     70.19363      1.284     1.97    -5.270264      19.8088     85.54963         8     0.750     0.613 -58.50   0
        28    445.8790    941.5982 300.0408660 +22.7667264     2432.762     70.12203      1.219     2.04    -5.112207      19.8088     376.7517        19     0.938     0.907   3.47   0
        29    744.5320    942.0007 300.1337027 +22.8565009        363.3     70.17574      1.365     2.40    -5.201608      19.8088     58.92553         5     0.699     0.585   0.12   0
        30    488.2453    929.6075 300.0579510 +22.7760099     286.2237     70.22939      1.493     4.52    -5.084519      19.8088     29.25214         5     0.816     0.711  62.39   0
        31    223.8513    930.4877 299.9754476 +22.6968519     98.51736     70.24727      0.964     4.21    -4.144297      19.8088     29.99108         6     1.023     0.495   4.66   0
        32    148.2568    924.6696 299.9538523 +22.6724723      916.771     70.22939      1.206     2.33    -3.818906      19.8088      140.232        15     1.278     0.828 -79.07   0
        33    171.0809    927.3566 299.9600688 +22.6801001     437.3333     70.19363      1.271     1.88    -3.856073      19.8088     75.44884         7     0.652     0.642 -82.47   0
        34   1019.8091    913.1083 300.2289100 +22.9307987      1370.29     69.83495      1.152     1.81    -5.392042      19.8088     263.8889        15     0.936     0.754  68.70  16
        35    974.0185    911.5600 300.2151347 +22.9166194     1084.496     70.22939      1.064     1.78     -5.21735      19.8088     222.3239        13     0.870     0.723 -78.86   0
        36    757.4129    905.2732 300.1496738 +22.8498278     300.1684     70.22939      1.094     2.11    -4.860707      19.8088     59.21564         6     0.668     0.589 -33.24   0
        37    625.7281    899.6131 300.1105066 +22.8086814     2723.577     70.22939      1.237     2.26    -4.860671      19.8088     385.0736        23     1.008     0.967 -46.76   0
        38    427.8919    897.0704 300.0497679 +22.7485564     319.1876     70.33659      1.313     4.65    -5.083917      19.8088     49.01336         7     1.226     0.500 -73.54   0
        39    175.9224    893.5561 299.9725767 +22.6718677       693.64     70.19363      1.269     2.97    -4.290379      19.8088     102.3699        12     1.104     0.631  29.55   0
        40    646.2447    892.0822 300.1193462 +22.8126790     343.1295     70.17574      1.323     3.45     -4.86012      19.8088     45.41895         8     0.835     0.668 -46.26   0
        41    195.2906    890.9970 299.9794280 +22.6769529     229.9681     70.12203      1.061     4.13    -4.425053      19.8088     37.35851         7     0.750     0.667 -62.77   0
        42   1018.6082    879.1685 300.2395856 +22.9206932     647.3667     70.21151      1.163     2.68    -5.559015      19.8088      106.316        11     0.931     0.748 -52.63  16
        43    801.7332    879.1413 300.1719891 +22.8556274     2377.755     70.24727      1.185     2.02    -4.481431      19.8088     392.5075        22     1.070     0.908 -80.73   0
        44    518.7930    871.6970 300.0863095 +22.7685724     353.0438     70.10413      1.170     2.50    -4.918691      19.8088     59.06657         6     0.721     0.585  84.74   0
        45    165.3648    870.1705 299.9769085 +22.6619933     750.3226     70.22939      1.324     3.14    -4.534756      19.8088     91.61112        12     0.984     0.825 -10.02   0
        46    314.9257    862.0372 300.0260406 +22.7045864     30437.85     70.15784      1.328     2.17    -4.932593      19.8088     4550.019        67     1.237     1.153  50.11   0
        47    572.7143    861.0906 300.1065439 +22.7817167      907.835     70.37228      1.222     2.39    -4.761609      19.8088     128.3845        13     0.932     0.765 -81.03   0
        48    985.3509    860.0759 300.2354298 +22.9052366     451.4964     70.21151      1.039     2.26    -5.105343      19.8088     85.34763         8     0.812     0.604 -78.06   0
        49    288.8188    859.8223 300.0186451 +22.6961105     203.1672     70.21151      0.736     3.58    -4.925056      19.8088     34.83747         5     1.125     0.328 -79.18   0
        50    242.8794    860.5148 300.0041397 +22.6825108     298.9469     70.35443      1.373     4.18    -4.855007      19.8088     39.93646         7     1.064     0.469 -10.48   0
        51    601.7828    857.0366 300.1169120 +22.7892790     528.9819     70.21151      1.453     2.81    -4.652924      19.8088     68.25716         9     0.989     0.619  49.46   0
        52      1.4216    856.9071 299.9303055 +22.6089327     373.6087     55.07844      1.082     3.01    -5.397936      19.8088     69.14326         6     0.786     0.474 -77.37  24
        53    612.6238    855.3740 300.1208281 +22.7920560      251.477     70.17574      1.154     3.52    -4.622412      19.8088     44.16708         7     0.967     0.455  78.83   0
        54    932.4877    851.8379 300.2216291 +22.8870158     203.9057     70.19363      1.154     3.42    -4.425741      19.8088      37.6873         5     0.965     0.358   5.67   0
        55    755.7068    841.8368 300.1697931 +22.8311106     301.5012     70.17574      1.160     3.16    -4.448215      19.8088      57.6581         6     0.753     0.543  52.09   0
        56    364.5839    839.2983 300.0488827 +22.7129791     18055.37     70.12203      1.331     2.34    -4.878926      19.8088     2358.171        57     1.207     1.175  75.56   0
        57    378.7632    839.8839 300.0531017 +22.7174048     1260.339     70.19363      1.455     2.60    -4.899406      19.8088     155.5098        17     1.015     0.947  85.47   0
        58    887.5048    834.8026 300.2131518 +22.8686320     1571.876     70.12203      1.217     2.25    -4.308683      19.8088     222.9369        18     0.974     0.913   5.24   0
        59    645.5817    831.1163 300.1389849 +22.7949875     521.5775     70.15784      1.293     2.74    -4.485698      19.8088     63.60883        10     0.949     0.648  30.23   0
        60    481.9361    831.2262 300.0880137 +22.7458989     279.0884     70.19363      1.484     3.78    -4.661589      19.8088     39.62421         5     0.801     0.511  62.23   0
        61    246.9050    830.9305 300.0150195 +22.6752386     515.9246     70.31873      1.350     3.52    -4.750161      19.8088     75.09367        12     1.154     0.723  37.77   0
        62    492.6627    825.9000 300.0930847 +22.7475912     404.9126     70.30087      1.199     2.32    -4.605961      19.8088     60.79812         7     0.724     0.602 -85.07   0
        63     52.0052    826.5628 299.9558879 +22.6154373     349.4206     70.24727      1.409     1.92     -4.81577      19.8088     49.26503         6     0.727     0.495  -3.89   0
        64    893.4882    822.1282 300.2191421 +22.8667879     212.1237     70.37228      1.226     2.87    -4.242877      19.8088     43.97775         6     0.772     0.498  85.85   0
        65    394.9060    822.1363 300.0638983 +22.7171623     150.7382     70.31873      1.328     3.92    -4.840352      19.8088     39.03207         5     0.819     0.537  52.72   0
        66    438.6833    820.6342 300.0780044 +22.7298754     351.0111     70.17574      1.376     3.95    -4.758777      19.8088     34.21987         6     0.963     0.463  87.18   0
        67    244.7726    815.8156 300.0192756 +22.6702647     348.1659     70.22939      1.445     3.39    -4.689848      19.8088     52.87995         8     0.950     0.625 -27.92   0
        68    568.0437    805.8651 300.1230642 +22.7644709     163.7739     70.19363      1.045     3.18    -4.342017      19.8088     40.17067         5     0.953     0.375 -59.27   0
        69    537.8139    803.7767 300.1143351 +22.7547982       425.27     70.19363      1.229     3.35    -4.343029      19.8088     62.52277         6     0.836     0.627  58.33   0
        70    559.6450    801.4410 300.1218898 +22.7606808     714.8246     70.28301      1.306     2.68    -4.302561      19.8088      96.6963        11     0.884     0.789  84.20   0
        71    953.8228    800.1385 300.2451080 +22.8785701     2502.155     70.19363      1.176     1.95    -4.132818      19.8088     459.4657        20     0.915     0.878  55.26   0
        72    479.6103    801.2026 300.0970609 +22.7365884     214.0786     70.03245      1.224     3.38    -4.434393      19.8088     32.13764         5     0.773     0.429 -68.81   0
        73    942.3411    791.4932 300.2443417 +22.8726442     948.3088     70.26514      1.082     2.01    -4.119329      19.8088     159.9773        12     0.805     0.758  27.50   0
        74    305.8761    785.5149 300.0481303 +22.6799269     513.0276     70.31873      1.694     5.59    -4.626155      19.8088     62.85283        11     1.507     0.745  14.20   0
        75    768.4625    782.9664 300.1929264 +22.8180402     1508.935     70.21151      1.383     2.49    -4.138367      19.8088     201.0038        19     1.053     0.918  -0.16   0
        76    973.3656    781.6960 300.2572033 +22.8791348     888.9071     70.21151      1.174     2.37    -4.083088      19.8088     117.3302        12     0.887     0.768 -69.94   0
        77    153.9996    769.6863 300.0060770 +22.6297758     458.0272     70.08621      1.452     4.29    -4.418244      19.8088     53.18578         9     1.097     0.640 -41.59   0
        78    851.3104    769.0223 300.2232787 +22.8388895     360.3565     70.13994      1.459     5.61    -4.082591      19.8088     38.61387         9     1.283     0.692  12.93   0
        79    887.0772    759.8398 300.2374143 +22.8469807      86162.2     70.19363      1.287     2.20      -4.0871      19.8088     12969.74       101     1.215     1.199  83.30   0
        80    739.6301    760.0832 300.1913906 +22.8028215     477.4386     70.22939      1.466     3.12    -4.108287      19.8088     55.80787         8     0.838     0.705  51.79   0
        81    919.7326    752.5237 300.2499743 +22.8546734     274.7806     70.30087      1.241     3.43    -4.078653      19.8088     42.94145         5     0.769     0.441 -21.80   0
        82    573.4255    749.0617 300.1432228 +22.7497874     954.3531     70.21151      1.491     3.49    -3.894546      19.8088     102.6799        16     1.137     0.958  52.53   0
        83    754.6085    746.0677 300.2006167 +22.8032918      5333.53     70.21151      1.375     2.60    -4.031362      19.8088     636.9055        35     1.203     1.097  62.77   0
        84    256.3200    741.4730 300.0470539 +22.6524163     2863.723     70.31873      1.427     2.60    -4.260155      19.8088     314.7046        26     1.188     1.001  81.02   0
        85    338.4579    739.4487 300.0732489 +22.6764988     584.2482     70.26514      1.260     2.81    -4.228346      19.8088     70.91266        10     0.905     0.724  32.51   0
        86    214.4182    737.1688 300.0354306 +22.6385989     304.0936     70.19363      0.981     1.80    -4.233333      19.8088     50.86191         5     0.672     0.440  63.97   0
        87    546.5912    735.1632 300.1393923 +22.7377460     385.1479     70.21151      1.439     4.33    -3.660521      19.8088     50.77338        10     1.148     0.774  79.12   0
        88    538.0740    727.0536 300.1393798 +22.7328629      1810.86     70.22939      1.424     2.85    -3.615945      19.8088     192.7198        23     1.143     1.047  -1.38   0
        89    528.4109    720.7023 300.1384386 +22.7281404     848.0133     70.10413      1.566     3.53    -3.597738      19.8088     88.09352        17     1.187     0.902  66.62   0
        90    191.9189    717.0917 300.0349695 +22.6260853     342.5781     70.33659      1.174     3.18     -4.14806      19.8088     50.59726         6     0.738     0.562 -26.44   0
        91    206.1018    715.4189 300.0399212 +22.6298649     284.7706     70.13994      1.238     2.93    -4.144489      19.8088     53.94719         6     0.744     0.619 -67.69   0
        92    975.2179    711.6338 300.2805774 +22.8595680     257.0045     70.19363      1.033     2.77    -3.923487      19.8088     49.60447         6     0.700     0.632  83.95   0
        93    453.1682    710.5569 300.1183262 +22.7026466     1135.393     70.26514      1.502     2.96    -3.788292      19.8088     112.4163        16     1.067     0.906  28.39   0
        94    107.3331    705.6972 300.0123954 +22.5974144     11282.23     70.30087      1.357     2.46    -4.225381      19.8088     1343.716        41     1.174     1.130  53.47   0
        95     28.3306    707.4734 299.9872807 +22.5741929     442.2534     70.28301      1.103     2.78    -4.508353      19.8088      58.6305         9     0.856     0.718 -28.17   0
        96    537.9567    705.9152 300.1462198 +22.7267620     535.8284     70.17574      1.380     3.27    -3.503714      19.8088     66.10793        12     1.069     0.722  11.55   0
        97    955.7341    691.7137 300.2809824 +22.8480044     484.6813     70.30087      1.245     2.55    -3.868259      19.8088     75.23452        10     0.828     0.772 -79.18   0
        98     53.1414    689.9603 300.0006818 +22.5766256     910.8182     70.21151      1.653     4.96    -4.388518      19.8088     67.89681        19     1.460     0.935 -76.19   0
        99    500.9504    687.1553 300.1408055 +22.7102730     199.9893     70.24727      1.332     5.00    -3.476829      19.8088     37.41725         6     1.003     0.704 -77.55   0
       100    896.2698    684.3073 300.2648533 +22.8280468     464.0248     70.33659      1.527     4.36     -3.81365      19.8088     47.42812        10     0.917     0.839  19.05   0
       101    458.5431    679.1727 300.1302069 +22.6952552     423.2006     70.21151      1.500     4.36    -3.618921      19.8088     46.13395         8     1.052     0.568 -68.72   0
       102    623.8188    675.0913 300.1829737 +22.7436797     303.8036     70.13994      1.483     4.96    -3.511226      19.8088     33.97376         7     1.073     0.650  26.65   0
       103    502.3557    674.8601 300.1452419 +22.7071666     483.7246     70.24727      1.232     2.35    -3.418708      19.8088     70.69733         7     0.790     0.579  56.90   0
       104    936.0399    669.7740 300.2819787 +22.8357976     1997.657     70.24727      1.316     2.32    -3.751555      19.8088     273.5223        21     1.097     0.944 -26.26   0
       105    467.9354    670.2428 300.1360335 +22.6955118     1086.837     70.19363      1.494     3.67    -3.520608      19.8088     88.96638        16     1.087     0.982  71.84   0
       106     30.1656    663.8810 300.0020281 +22.5622482     2891.495     70.17574      1.374     2.58    -4.479187      19.8088     352.9576        27     1.155     1.056  76.60   0
       107    331.3948    656.9665 300.0978815 +22.6507194     5351.348     70.19363      1.467     2.70    -3.864081      19.8088     637.5527        33     1.213     1.144  31.96   0
       108    453.7182    653.8984 300.1369259 +22.6865551     5164.988     70.35443      1.511     2.90      -3.5112      19.8088      556.874        31     1.177     1.161  41.37   0
       109    865.4302    647.5146 300.2672078 +22.8082322     1150.417     70.21151      1.359     2.84    -3.764552      19.8088     137.3204        16     1.004     0.959  88.64   0
       110    949.9093    644.9135 300.2943888 +22.8328149     7279.238     70.37228      1.319     2.37    -3.756524      19.8088     984.8005        35     1.107     1.080 -89.59   0
       111    514.3743    643.4496 300.1591975 +22.7017593     6668.017     70.22939      1.518     2.92    -3.248899      19.8088     671.0559        42     1.307     1.221  42.48   0
       112    242.1084    639.0256 300.0759578 +22.6187683     739.6357     70.15784      1.272     2.95    -3.745326      19.8088     92.86083        12     0.978     0.759  87.81   0
       113    684.0845    638.6556 300.2135899 +22.7512999     211.5811     70.30087      1.330     4.25    -3.570451      19.8088     45.97281         7     0.952     0.621  49.14   0
       114    488.5143    635.8763 300.1536132 +22.6918259     172.6013     70.31873      1.182     4.82    -3.241862      19.8088     25.85814         6     0.981     0.670 -11.21   0
       115    788.8463    632.0217 300.2483809 +22.7808168     441.0728     70.24727      1.390     4.28    -3.802815      19.8088     50.71968        10     1.132     0.816 -26.42   0
       116    446.0663    631.7635 300.1417436 +22.6779071     2529.211     70.21151      1.507     2.94    -3.424566      19.8088     258.4092        23     1.094     1.057 -37.06   0
       117    424.2381    630.5566 300.1353455 +22.6710099     764.1212     70.30087      1.761     5.14    -3.542278      19.8088     70.94919        13     1.252     0.743 -46.67   0
       118    178.7757    629.9325 300.0592318 +22.5971448     404.1221     70.19363      1.373     3.60    -3.710207      19.8088     60.29684        10     1.052     0.701 -73.33   0
       119    865.9128    626.8035 300.2740939 +22.8024285     847.3524     70.13994      1.566     3.37     -3.74277      19.8088     106.4366        19     1.259     0.937 -47.71   0
       120    562.5811    619.1174 300.1821137 +22.7092402     116589.6     70.17574      1.556     3.06    -3.186942      19.8088     11053.34       152     1.476     1.457   8.20   0
       121    746.3496    623.7870 300.2378192 +22.7657069     458.8428     70.26514      1.541     3.64    -3.783078      19.8088     45.93634        10     0.899     0.778  41.46   0
       122    248.8597    619.3287 300.0844612 +22.6151456     2043.536     70.24727      1.543     2.96    -3.607959      19.8088     209.5451        23     1.165     1.059  11.16   0
       123    813.8911    615.2691 300.2616325 +22.7835164     263.4238     70.33659      1.210     4.39    -3.741922      19.8088     34.11543         5     0.761     0.722   4.28   0
       124    453.2265    599.4941 300.1544641 +22.6707957     1500.094     70.13994      1.603     2.95    -3.179049      19.8088     161.9286        18     1.102     0.965   9.37   0
       125    850.1766    585.4656 300.2826315 +22.7858368     1028.881     70.19363      1.333     2.76    -3.653305      19.8088     107.6429        16     0.996     0.907 -38.50   0
       126    721.3466    583.3171 300.2431902 +22.7465872     1478.028     70.24727      1.503     3.03    -3.439588      19.8088     145.9793        19     1.109     0.989 -75.70   0
       127    965.4157    580.1969 300.3202690 +22.8188714     322.1877     70.06829      1.223     3.45    -3.232513      19.8088     38.50718         5     0.746     0.462  72.89   0
       128    508.6463    579.1854 300.1783113 +22.6815964     441.0287     70.22939      1.708     5.67    -2.885319      19.8088     36.82268        10     1.112     0.815  -1.61   0
       129    978.5934    577.0889 300.3253887 +22.8219286     736.2028     70.12203      1.349     2.46    -3.080292      19.8088     103.2889        12     0.894     0.815  -8.99   0
       130    850.2816    575.6942 300.2858413 +22.7830615      1226.23     70.35443      1.567     4.04    -3.626342      19.8088     117.0098        18     1.318     0.872  79.20   0
       131    964.6287    575.9601 300.3214012 +22.8174182     380.6166     70.22939      1.124     3.19    -3.165763      19.8088     46.86221         7     0.724     0.672 -70.69   0
       132    603.2805    572.6219 300.2099011 +22.7081032     549.9375     70.17574      2.143     7.04    -3.130743      19.8088     31.87898         9     1.488     0.933  85.75   0
       133    888.4327    570.6004 300.2993886 +22.7930365     2507.874     70.17574      1.417     2.70    -3.574129      19.8088     272.3899        26     1.085     1.062   2.64   0
       134    980.2646    560.9768 300.3311484 +22.8178001     418.5068     70.19363      1.254     4.22    -2.746624      19.8088     46.11359         9     1.059     0.708  26.26   0
       135    120.6847    561.1530 300.0635441 +22.5599771     513.6418     70.19363      1.439     3.74    -3.319517      19.8088     67.27122        10     1.029     0.746  -1.00   0
       136    661.6365    541.0799 300.2383254 +22.7165507     360.3046     70.15784      1.364     4.70    -3.028171      19.8088     59.25119         8     0.878     0.715  12.33   0
       137    722.7172    533.2925 300.2598803 +22.7326326     528.2651     70.35443      1.668     3.31    -3.141479      19.8088     48.43414        10     0.940     0.732  39.97   0
       138    976.3641    533.3458 300.3389150 +22.8086915     264.5591     70.22939      1.368     3.13    -2.481105      19.8088     52.22151         5     0.766     0.463  10.31   0
       139    879.8015    529.8884 300.3099338 +22.7787533     474.9619     70.13994      1.199     3.35    -3.454407      19.8088     78.59175        12     1.075     0.755 -49.84   0
       140    864.2660    525.7274 300.3064440 +22.7729006     411.4833     70.24727      1.349     2.99    -3.500851      19.8088     60.72581         8     0.903     0.795  -5.57   0
       141    608.5009    524.0552 300.2273146 +22.6957253     1875.465     70.30087      1.675     3.34    -2.903684      19.8088     160.5251        26     1.370     1.123 -50.22   0
       142    968.8611    522.8770 300.3399785 +22.8034344     415.7592     70.26514      1.599     2.93    -2.587598      19.8088     53.18378         7     0.931     0.732  23.44   0
       143   1019.7629    502.6395 300.3624310 +22.8128740     616.4116     70.05037      1.324     2.46    -1.811721      19.8088     105.9286        14     1.126     0.795  48.50  16
       144    892.0948    502.6769 300.3226109 +22.7746205     216.7839     70.31873      1.297     5.02    -3.283692      19.8088     43.44156         8     1.024     0.727 -39.31   0
       145    978.2188    501.3910 300.3498806 +22.8000648     381.0936     70.17574      1.135     2.73    -2.450679      19.8088      69.1226         8     0.851     0.621  25.07   0
       146    718.9539    497.7752 300.2702528 +22.7213035     517.2629     70.22939      1.333     3.44    -3.030739      19.8088     56.27483        11     0.936     0.820  47.37   0
       147    223.4536    496.6875 300.1164317 +22.5723373     385.2713     70.24727      1.556     4.03    -3.160634      19.8088     48.53161         7     0.972     0.482  81.39   0
       148    285.5729    492.2968 300.1371687 +22.5897217     2151.954     70.15784      1.637     3.28    -3.195335      19.8088     212.3966        24     1.163     1.111  64.53   0
       149   1018.3788    490.0673 300.3660857 +22.8088459     2457.928     70.19363      1.337     2.49    -1.842147      19.8088     297.1117        23     1.076     0.990  49.55  16
       150    232.7723    486.9524 300.1224919 +22.5723412     4459.083     70.22939      1.587     3.09    -3.166737      19.8088     443.2377        34     1.298     1.190  84.08   0
       151    373.5751    481.1245 300.1681644 +22.6129238      2817.07     70.22939      1.627     3.16    -2.447526      19.8088     252.6167        28     1.237     1.155  83.75   0
       152    998.2195    481.1268 300.3627043 +22.8002352      954.376     70.21151      1.293     2.94    -2.146413      19.8088     123.1174        16     1.066     0.875  66.51   0
       153    617.6602    477.6441 300.2452508 +22.6851458     10550.55     70.22939      1.650     3.36    -2.642491      19.8088     928.0911        48     1.352     1.284  57.85   0
       154    635.3256    478.3236 300.2505303 +22.6906389     502.3739     70.30087      2.010     4.69    -2.692387      19.8088     40.25925         7     0.984     0.634 -20.13   0
       155    950.9633    460.2351 300.3547579 +22.7800693     404.8883       70.283      1.484     1.79    -2.929705      19.8088      66.7888         7     0.662     0.637   7.61   0
       156    172.5895    458.1531 300.1131464 +22.5460146     1252.628     70.22939      1.620     2.97    -3.054734      19.8088     139.7463        18     1.100     0.957 -79.92   0
       157    558.2679    447.1246 300.2366792 +22.6585694     3816.897       70.283      1.737     3.50    -2.577767      19.8088     297.3731        34     1.319     1.254  37.50   0
       158    971.6224    447.1465 300.3654532 +22.7824989     707.8845     70.22939      1.466     3.51    -2.769151      19.8088     69.90139        13     0.979     0.950 -45.84   0
       159    273.1139    446.8743 300.1480556 +22.5729485     360.1666     70.33659      1.513     2.71    -2.864072      19.8088     50.54372         7     0.928     0.782  -5.66   0
       160    762.2641    435.9326 300.3038422 +22.7165251     710.6421     70.26514      1.818     3.99    -2.812099      19.8088     64.78098        13     1.046     0.981  89.27   0
       161    464.9555    433.4901 300.2120699 +22.6266658      3498.19     70.21151      1.652     3.33    -2.511832      19.8088     319.0246        31     1.283     1.191  83.32   0
       162    953.9445    427.3007 300.3663897 +22.7714976     290.3563     70.30087      1.496     3.91    -3.017812      19.8088     38.54496         7     1.033     0.515  63.06   0
       163    856.9054    427.4132 300.3361020 +22.7424472     739.0994     70.13994      1.377     3.30     -3.14401      19.8088     93.11813        14     1.065     0.869  65.11   0
       164    352.6227    412.7868 300.1838531 +22.5870229     1456.841     70.19363      1.612     3.18    -2.313025      19.8088     158.8414        22     1.162     1.085  36.76   0
       165     71.0942    410.0152 300.0972540 +22.5017386     703.7043     70.13994      1.658     3.74     -3.14044      19.8088     67.73349        13     0.996     0.961 -49.35   0
       166    321.9191    402.2644 300.1777237 +22.5747906      17023.1     70.31873      1.654     3.23    -2.392499      19.8088      1520.94        58     1.404     1.338  73.13   0
       167    856.4292    399.3327 300.3450772 +22.7342355     855.9534     70.19363      1.564     4.06    -3.089678      19.8088     83.58678        17     1.272     1.000  39.31   0
       168     18.3401    390.2596 300.0872875 +22.4802350     2787.572     70.28301      1.468     2.71    -3.218843      19.8088     302.9175        25     1.171     1.026  87.16   0
       169    772.1158    388.3936 300.3223573 +22.7058206     378.6773     70.13994      1.569     4.27    -2.627005      19.8088     32.34918         6     0.772     0.675 -64.32   0
       170    420.8261    387.6375 300.2132374 +22.6002643     380.7725     70.22939      1.688     4.28    -2.372395      19.8088     31.83731         5     0.941     0.555 -48.23   0
       171    732.0818    381.6774 300.3120671 +22.6918901     952.1221     70.31873      1.671     3.67    -2.415866      19.8088     82.11214        17     1.082     1.030   1.92   0
       172    947.4824    374.3522 300.3815778 +22.7543428      428.323     70.22939      1.804     4.70    -3.088515      19.8088     35.49101         6     0.945     0.692 -22.39   0
       173    394.2483    366.8299 300.2117289 +22.5863180     1066.865     70.22939      1.695     3.77    -2.403561      19.8088     88.79053        21     1.316     0.986  60.64   0
       174    833.2162    359.0616 300.3509253 +22.7157059     245.7542     70.15784      1.310     3.36    -2.790598      19.8088     42.05045         6     0.858     0.512  56.01   0
       175    469.8415    345.8138 300.2420726 +22.6029574     742.2406     70.22939      1.681     4.02    -2.547102      19.8088      65.8924        15     1.162     0.898  10.75   0
       176    714.6932    337.7192 300.3209297 +22.6740482     1185.842     70.35443      1.693     3.57    -2.400824      19.8088     117.9905        20     1.191     1.076  79.11   0
       177    975.7544    331.7321 300.4042381 +22.7505621     1915.836     70.19363      1.482     3.04    -2.847772      19.8088     177.1991        21     1.114     0.998  40.65   0
       178    128.4437    315.5751 300.1457440 +22.4918559     459.4915     70.24727      1.544     6.64     -2.83621      19.8088     35.89822        10     1.226     1.008  22.76   0
       179     97.9367    315.9690 300.1361383 +22.4828137     651.2788     70.22939      1.568     4.23    -2.793706      19.8088     69.39771        13     1.095     0.906 -15.70   0
       180    183.0562    308.3149 300.1650714 +22.5061605     389.5567     70.30087      1.639     4.20    -2.791028      19.8088      38.3366         5     1.135     0.443   7.75   0
       181    786.0223    299.0904 300.3556972 +22.6843276     329.3591     70.13994      1.462     3.76    -2.385485      19.8088     25.53866         5     1.525     0.267  67.67   0
       182    884.1734    287.8038 300.3899516 +22.7104955     1218.079     70.17574      1.573     3.54    -2.659592      19.8088     107.7253        19     1.111     1.051  50.14   0
       183    303.0866    285.5511 300.2097749 +22.5356375     1253.075     70.21151      1.633     3.51    -2.455154      19.8088     144.9443        22     1.206     1.133  86.56   0
       184    380.5060    280.8281 300.2353849 +22.5575035     595.9664     70.12203      1.945     6.48    -2.497936      19.8088     50.81997        11     1.444     0.843  -9.03   0
       185    782.8278    279.9075 300.3609312 +22.6778573     290.5974     70.15784      1.377     4.74    -2.363223      19.8088     38.69204         7     0.954     0.667  76.67   0
       186    198.1559    273.4876 300.1810729 +22.5006952     407.1957     70.19363      1.522     3.41    -2.681127      19.8088     47.31034         5     0.791     0.425 -23.24   0
       187    735.4966    269.5636 300.3495439 +22.6606998     996.7537     70.21151      1.736     4.11    -2.354728      19.8088     86.41389        19     1.203     1.113  84.76   0
       188   1006.8944    261.6761 300.4367010 +22.7397487     464.7195     70.35443      1.323     3.05    -2.511184      19.8088     65.83436         7     0.843     0.609  79.57   0
       189    799.5573    269.7059 300.3694567 +22.6799388     298.7371     70.21151      1.504     4.95    -2.349527      19.8088     34.46058         8     1.368     0.507 -17.52   0
       190    660.2453    260.6208 300.3290092 +22.6355753     734.9159     70.26514      1.639     3.83    -2.502682      19.8088     67.98965        15     1.163     0.896 -25.41   0
       191    855.4437    251.5858 300.3927571 +22.6914765     846.4583     70.22939      1.645     3.90    -2.500011      19.8088     76.78092        18     1.233     0.994 -42.71   0
       192    586.5005    252.1294 300.3088044 +22.6110296     534.3001     70.35443      1.615     4.18     -2.54552      19.8088     49.29833        12     1.037     0.938  57.93   0
       193    867.5535    250.6382 300.3968393 +22.6948324     397.2355     70.26514      1.340     4.13    -2.538953      19.8088     55.10268         9     1.047     0.602  -2.49   0
       194    984.1311    240.7066 300.4364104 +22.7269006     602.4107     70.33659      1.713     5.53    -2.566465      19.8088     62.83586        14     1.403     0.881 -83.40   0
       195    218.5205    234.8218 300.1999555 +22.4957059     445.5977     70.17574      1.539     2.53    -2.625641      19.8088     56.70839         7     0.842     0.592 -14.26   0
       196     80.3918    229.3209 300.1588208 +22.4526840     1259.771     70.15784      1.637     3.54    -2.572381      19.8088     123.3794        22     1.278     1.020  87.11   0
       197    903.1193    225.8783 300.4159649 +22.6983696     462.2365     70.33659      1.448     3.67     -2.54798      19.8088     48.53034         9     0.963     0.758 -28.05   0
       198    237.7064    222.6384 300.2098743 +22.4979637     3247.215     70.22939      1.662     3.27     -2.57539      19.8088     335.6507        31     1.368     1.176  71.02   0
       199     22.0613    216.9860 300.1447076 +22.4316403     759.4398     70.17574      1.516     3.93    -2.362157      19.8088     91.24346        16     1.250     0.883 -75.54   0
       200    221.6176    213.4948 300.2078414 +22.4905125     329.9934     70.13994      1.503     3.85     -2.57496      19.8088     47.62954         6     0.966     0.518 -56.96   0
       201    881.6177    203.6969 300.4164632 +22.6855510      2014.54     70.12203      1.612     3.39    -2.443457      19.8088     198.6252        28     1.289     1.135 -81.56   0
       202    985.1132    202.4356 300.4491416 +22.7161897     1493.243     70.19363      1.504     3.28    -2.515859      19.8088     155.5254        19     1.085     1.053 -74.80   0
       203    431.8640    199.8454 300.2776524 +22.5496483     311.5818     70.22939      1.663     4.24    -2.239909      19.8088     31.80127         6     1.143     0.448 -26.86   0
       204    355.3127    191.1975 300.2566473 +22.5242096      441.263     70.13994      1.895     4.55    -2.103426      19.8088     34.35548         7     1.060     0.556  17.64   0
       205    482.4507    186.4441 300.2977422 +22.5609661     960.8024     70.24727      1.786     3.81    -2.227582      19.8088     98.65506        20     1.307     1.054 -51.39   0
       206    121.5991    188.5587 300.1848535 +22.4533490     289.8298     70.21151      1.190     3.74    -2.633388      19.8088     44.94289         6     0.972     0.414 -18.17   0
       207    256.6267    166.4998 300.2339774 +22.4875210     3307.069     70.15784      1.672     3.18     -2.31852      19.8088      348.602        31     1.354     1.191 -84.44   0
       208    107.8625    166.0543 300.1878896 +22.4427681     554.4339     70.26514      1.998     4.52    -2.617444      19.8088     42.93084         9     1.248     0.662 -19.18   0
       209    228.4633    160.7475 300.2270894 +22.4774221     298.2334     70.26514      1.606     4.28    -2.361792      19.8088      35.0169         5     0.859     0.608  42.75   0
       210    502.4866    151.7693 300.3152314 +22.5570112     3525.185     70.19363      1.722     3.64    -2.085198      19.8088     323.0738        33     1.353     1.236 -77.28   0
       211    388.3159    152.1631 300.2795813 +22.5228952     254.0472     70.19363      1.211     1.93     -1.86133      19.8088     56.24102         5     0.699     0.434  72.17   0
       212    559.5645    146.1741 300.3348127 +22.5725129     119.9048     70.22939      1.115     4.52    -2.110065      19.8088     24.14226         5     0.833     0.697  39.37   0
       213    755.0370    141.3358 300.3972571 +22.6297004     398.2617     70.21151      1.632     4.38    -2.106295      19.8088      39.2071         6     0.860     0.636 -87.87   0
       214    847.3825    139.5276 300.4266202 +22.6568458     221.9896     70.21151      1.313     3.78    -2.159107      19.8088     31.40309         6     0.977     0.597  59.25   0
       215    630.7731    131.5743 300.3617206 +22.5896593     3620.385     70.17574      1.723     3.58    -2.110517      19.8088     324.8757        33     1.310     1.275  35.39   0
       216    405.8174    130.8251 300.2919499 +22.5220136     832.1521     70.22939      1.569     4.00    -1.859551      19.8088     74.69666        13     1.063     0.830  42.64   0
       217    672.1116    129.3501 300.3753157 +22.6014079     521.1243     70.22939      1.716     4.64    -2.134612      19.8088     39.51112        12     1.130     0.792  18.85   0
       218    687.8882    124.7141 300.3817339 +22.6048028     433.0749     70.35443      1.504     4.43    -2.094133      19.8088     33.56308         5     1.117     0.501  55.47   0
       219    155.0426    123.5107 300.2163546 +22.4447086      372.308     70.21151      1.420     4.47    -2.394367      19.8088     42.36383         7     0.953     0.597  56.83   0
       220    957.5994    122.1231 300.4666288 +22.6848526     290.8483     70.10413      1.292     3.47    -2.220988      19.8088     44.66115         7     0.851     0.773  28.32   0
       221    674.9744    116.5689 300.3803549 +22.5985921     1556.692     70.21151      1.732     3.65    -2.075038      19.8088     143.7407        25     1.317     1.176 -52.88   0
       222    689.6746    115.7850 300.3851878 +22.6027715      524.655     70.21151      2.149     5.63     -2.04609      19.8088     34.59891         9     0.976     0.913  73.30   0
       223    761.4975    108.1968 300.4100239 +22.6221093     965.6942     70.12203      1.695     3.98    -1.903104      19.8088     78.37492        16     1.201     0.922  36.70   0
       224    699.9368    101.5732 300.3929957 +22.6017613     387.7251     70.21151      1.685     5.47    -1.957855      19.8088     41.85194        10     1.298     0.651 -89.19   0
       225    505.0740    100.7492 300.3325928 +22.5431279     670.6169     70.22939      1.888     6.00    -1.924039      19.8088     50.68404        15     1.154     1.036  57.56   0
       226     78.0337    101.0362 300.1997208 +22.4151559     413.9364       70.283      1.410     4.21    -2.190344      19.8088     35.93929         7     0.944     0.536  41.93   0
       227    408.8688     98.9124 300.3032543 +22.5137611     430.3583     70.35443      1.680     6.75    -1.825268      19.8088     41.10233        10     1.389     0.920 -89.58   0
       228    180.4464     89.1219 300.2354067 +22.4424547     2201.722     70.21151      1.671     3.32     -2.24386      19.8088      209.035        28     1.314     1.200 -52.85   0
       229    748.0175     89.3077 300.4119533 +22.6126404     307.0797     70.13994      1.417     4.21    -1.876156      19.8088     33.37925         7     0.750     0.687 -12.37   0
       230    296.1166     81.1489 300.2739503 +22.4748530     848.5079     70.22939      1.893     4.94    -2.082132      19.8088     68.94154        15     1.224     1.119  79.45   0
       231    741.5149     81.1461 300.4125756 +22.6083459     481.6074       70.283      1.683     5.59    -1.914404      19.8088     40.35903         9     1.108     0.795 -54.09   0
       232    779.3767     76.2413 300.4259633 +22.6182780     263.1043     70.24727      1.271     4.85    -1.844403      19.8088      40.9878         7     1.144     0.582 -50.57   0
       233    799.4743     72.3725 300.4334809 +22.6231858     1201.932     70.21151      1.631     3.40    -1.797346      19.8088     114.2463        20     1.158     1.085  50.74   0
       234    505.2070     71.6709 300.3420686 +22.5348123      335.568     70.17574      1.219     3.32    -1.916942      19.8088     46.40433         5     0.773     0.417 -19.48   0
       235    182.8656     67.8971 300.2430444 +22.4370857     695.5577     70.31873      1.724     4.11    -2.243844      19.8088     62.93085        13     1.093     0.914  83.66   0
       236    974.5988     65.5847 300.4902755 +22.6736812     437.1015      70.0683      1.464     4.43    -2.038655      19.8088     58.48511         7     0.976     0.571  59.35   0
       237    747.6677     65.1156 300.4196934 +22.6055804     450.7171     70.31873      1.388     3.25    -1.953587      19.8088      55.3997        11     1.045     0.719  -4.84   0
       238    600.5127     50.2099 300.3786980 +22.5572064      485.162     70.15784      1.535     4.06    -2.147591      19.8088      66.6237         6     0.930     0.577  28.54   0
       239    763.2224     44.7928 300.4311326 +22.6043967     450.3175     70.19363      1.862     5.31    -1.954148      19.8088      44.0341        10     1.288     0.900 -81.23   0
       240    572.0814     42.9672 300.3721960 +22.5466051     1104.879     70.19363      1.718     4.11    -2.088829      19.8088     89.36294        20     1.256     1.037  75.56   0
       241     10.1484     39.6502 300.1985496 +22.3771694     334.7708     70.24727      1.515     4.25    -0.980298      19.8088     35.87627         7     0.874     0.590  26.14   0
       242    529.4738     37.0884 300.3608400 +22.5321472     699.8711     70.35443      1.570     3.96    -1.981836      19.8088     63.64566        14     1.087     0.928 -18.60   0
       243    634.5357     33.5054 300.3947106 +22.5625993     758.5592     70.30087      1.597     3.82    -2.216044      19.8088     64.88587        13     1.013     0.887  74.51   0
       244    455.2834     27.5917 300.3408322 +22.5071830      1349.48     70.15784      1.791     3.35    -1.869786      19.8088     117.2429        22     1.182     1.111 -37.78   0
       245    102.2759     25.3845 300.2317928 +22.4007084     826.7104     70.21151      1.595     3.97    -2.222688      19.8088     97.35922        17     1.304     0.998  34.42   0
       246    586.5793     21.9294 300.3835337 +22.5449027     228.8151     70.21151      1.244     4.13    -2.176151      19.8088     42.75801         6     1.019     0.479  82.26   0
