#   1 NUMBER                 Running object number                                     
#   2 X_IMAGE                Object position along x                                    [pixel]
#   3 Y_IMAGE                Object position along y                                    [pixel]
#   4 ALPHA_J2000            Right ascension of barycenter (J2000)                      [deg]
#   5 DELTA_J2000            Declination of barycenter (J2000)                          [deg]
#   6 FLUX_APER              Flux vector within fixed circular aperture(s)              [count]
#   7 FLUXERR_APER           RMS error vector for aperture flux(es)                     [count]
#   8 FLUX_RADIUS            Fraction-of-light radii                                    [pixel]
#   9 FWHM_IMAGE             FWHM assuming a gaussian core                              [pixel]
#  10 BACKGROUND             Background at centroid position                            [count]
#  11 THRESHOLD              Detection threshold above background                       [count]
#  12 FLUX_MAX               Peak flux above background                                 [count]
#  13 ISOAREA_IMAGE          Isophotal area above Analysis threshold                    [pixel**2]
#  14 A_IMAGE                Profile RMS along major axis                               [pixel]
#  15 B_IMAGE                Profile RMS along minor axis                               [pixel]
#  16 THETA_IMAGE            Position angle (CCW/x)                                     [deg]
#  17 FLAGS                  Extraction flags                                          
         1    164.4029     14.1561 300.2567143 +22.4137335     591.2175     70.19939      1.516     3.72    -1.600276     19.80034     69.96241        14     1.181     0.823  34.98   0
         2    428.2716   1017.6390 300.0124846 +22.7808264     411.8933     70.14575      1.431     3.56    -5.130633     19.80034     47.38444         8     0.850     0.743  50.52   0
         3    103.4959   1019.2856 299.9109600 +22.6836936      1219.96     70.36005      6.734     9.60     5.415368     19.80034     64.85268        22     1.881     1.443  62.83  19
         4     94.6537   1022.2795 299.9072371 +22.6818928     1353.814     61.75674     11.909    13.89     5.421267     19.80034     48.38213        44     3.934     1.364 -11.62  27
         5     89.0803   1001.5199 299.9122693 +22.6742712     1924.968     70.30653     11.336    32.49     2.594227     19.80034     49.08226       170     8.002     3.663 -23.97  19
         6     83.8189   1013.5592 299.9067120 +22.6761379     2003.935     70.19939      7.807    19.40     2.930551     19.80034     59.52085        85     4.521     2.312  71.39  19
         7     91.3716   1012.6452 299.9093565 +22.6781467     2332.631     70.21725     12.677    21.99     3.901088     19.80034     56.32235       102     4.492     2.990   5.83  19
         8    941.9541   1009.2952 300.1752274 +22.9326787     1355.376     70.19939      1.111     1.75    -4.963366     19.80034     282.0917        12     0.851     0.703  39.95   0
         9    125.2265   1018.0919 299.9181015 +22.6898843     597.0665     70.12786      4.051     4.48     5.233567     19.80034     27.91252         5     1.367     0.418 -89.30  16
        10    730.7668    997.3872 300.1132742 +22.8658693     432.1603     70.16364      1.528     6.24    -4.743971     19.80034     57.88997         7     1.507     0.726 -83.83   2
        11     78.4410   1018.4377 299.9034516 +22.6759184     1725.414     70.27084     10.133    21.21     2.305388     19.80034     47.13414        75     5.302     2.357 -24.72  19
        12    765.8576    992.3140 300.1258619 +22.8749492     736.3103     70.28869      1.221     2.87    -4.782196     19.80034     114.8893        12     1.059     0.687  48.64   0
        13    787.8679    986.2042 300.1347123 +22.8798040     6573.035     70.16364      1.163     1.92    -4.803371     19.80034     1232.668        30     0.987     0.937  86.65   0
        14    978.8138    985.6298 300.1944356 +22.9369487     258.8931     70.19939      1.032     2.71    -4.754318     19.80034     52.95452         5     0.889     0.380 -83.83   0
        15    839.6240    973.6649 300.1549304 +22.8917424     385.9887     70.16364      1.462     3.34    -4.667288     19.80034     44.07875         7     0.899     0.643  80.61   0
        16     89.2114    969.8995 299.9226115 +22.6652533     154.8593     70.09207      1.301     5.41   -0.3321934     19.80034      35.7566         7     1.150     0.719 -11.09   0
        17    796.5200    968.3057 300.1432407 +22.8772664     892.6354     70.30653      1.167     2.16    -4.791698     19.80034     131.5268        12     0.813     0.788   8.23   0
        18    979.2816    967.1415 300.2006057 +22.9317829     207.6263     70.23512      1.229     2.44    -4.582935     19.80034     50.52464         6     0.724     0.589 -17.52   0
        19    648.8607    965.6213 300.0981079 +22.8321658     236.8874     70.14575      0.919     1.83    -4.613477     19.80034      50.3808         5     0.673     0.448  21.77   0
        20    834.5177    961.8878 300.1571758 +22.8868306     504.0206     70.28869      1.172     2.08    -4.621825     19.80034     74.31484         6     0.723     0.500  89.17   0
        21    883.3182    952.8475 300.1753354 +22.8988832     360.8715     70.19939      1.177     2.60     -4.41166     19.80034     48.33673         5     0.717     0.448 -76.92   0
        22    734.2309    952.1354 300.1290974 +22.8539288     314.1962     70.18151      1.117     2.28    -4.703112     19.80034     75.94271         6     0.738     0.518  53.93   0
        23    447.1241    948.6384 300.0408323 +22.7667100     2440.205     70.14575      1.235     2.25    -4.468513     19.80034     328.0955        20     1.058     0.861  39.68   0
        24    745.4489    949.1291 300.1335724 +22.8564340      441.642     70.16364      1.504     2.64    -4.713087     19.80034     59.75171         5     0.721     0.469  72.28   0
        25    224.8650    937.1367 299.9754454 +22.6966377     165.5063     70.21725      1.410     4.26    -3.334314     19.80034     36.06249         5     1.066     0.486  54.08   0
        26    172.3830    934.6655 299.9599357 +22.6801578     508.9905     70.16364      1.204     2.92     -3.00122     19.80034     60.97379         7     0.948     0.479 -62.05   0
        27    149.5005    931.4500 299.9538710 +22.6723594     1027.193     70.27084      1.229     2.17     -3.39262     19.80034     136.1955        17     1.101     0.900  59.15   0
        28     80.8486    933.0784 299.9320073 +22.6521916     264.1366     70.18151      1.132     2.31    -3.789803     19.80034     49.80588         6     0.721     0.554 -46.68   0
        29   1020.8972    920.0595 300.2289270 +22.9307547     1150.348      67.1859      1.077     1.84    -4.250283     19.80034     258.8652        10     0.757     0.695  81.97  16
        30    975.1554    918.5050 300.2151639 +22.9165849     1235.904     70.19939      1.096     1.87    -4.234583     19.80034     212.5087        15     0.877     0.785  -1.61   0
        31    680.9054    919.0536 300.1232602 +22.8284299      369.329     70.25298      1.569     4.04    -4.507679     19.80034     33.27457         6     0.782     0.598 -46.49   0
        32    758.6317    912.6165 300.1495747 +22.8499160     322.6595     70.16364      1.169     3.09    -4.576509     19.80034     61.51697         5     0.780     0.447  45.27   0
        33    180.7953    912.9342 299.9696286 +22.6764591     217.6844     70.18151      1.161     4.47    -3.594827     19.80034     52.45192         7     1.120     0.507  29.12   0
        34    627.0033    906.6057 300.1105251 +22.8086763     2773.712     70.00253      1.279     2.34    -4.325276     19.80034     380.3882        23     1.010     0.973  -3.26   0
        35    116.5144    907.4587 299.9514338 +22.6555717     264.1703     70.28869      1.341     3.73    -3.945501     19.80034     31.03358         6     0.937     0.426 -18.03   0
        36    429.3946    903.8097 300.0499171 +22.7485322     295.0469     70.03835      1.158     2.16      -4.2018     19.80034     51.85197         6     0.699     0.580  26.50   0
        37    177.3170    900.7589 299.9725128 +22.6719249     768.3872     70.14575      1.196     2.28    -3.610914     19.80034     109.9666        11     0.881     0.726  82.89   0
        38    647.4050    899.1324 300.1193136 +22.8126579     491.2561     70.16364      1.220     2.52    -4.302567     19.80034     62.02752         9     0.823     0.688 -13.90   0
        39    196.2151    898.3538 299.9791705 +22.6769146     258.8199     70.19939      1.229     1.92    -3.619335     19.80034     46.85037         5     0.670     0.459  15.78   0
        40    802.8394    886.2381 300.1719445 +22.8556159     2365.077     70.25298      1.221     2.15     -4.40748     19.80034      378.233        19     0.961     0.875  56.91   0
        41   1019.7045    886.1216 300.2396097 +22.9206540     562.3649     70.12786      1.083     2.50    -4.260391     19.80034     116.9034         9     0.854     0.628  69.03  16
        42    211.5346    880.7458 299.9896672 +22.6764719      370.802     70.21725      1.017     2.04    -3.580751     19.80034     56.98718         5     0.660     0.483  73.73   0
        43    519.9119    879.1592 300.0861183 +22.7686485     341.6973     70.16364      1.304     4.20    -4.291968     19.80034     49.87917         8     0.918     0.724  70.96   0
        44    166.0954    877.1691 299.9767071 +22.6617930     483.8448     70.12786      1.314     3.47    -3.686825     19.80034      66.1497         9     0.888     0.765 -77.97   0
        45    582.0078    872.2101 300.1077149 +22.7853010     202.6708     70.05627      1.281     2.99    -4.187797     19.80034     34.13858         5     0.794     0.486  55.45   0
        46    316.1266    869.2073 300.0259481 +22.7045884     30862.52     70.12786      1.312     2.42    -3.940655     19.80034     3957.708        67     1.219     1.142  67.71   0
        47    574.0341    867.9300 300.1066259 +22.7816792     949.8753     70.18151      1.413     2.65    -4.191516     19.80034     124.4537        18     1.120     0.968 -50.87   0
        48    244.0694    867.4363 300.0041166 +22.6824328     295.8293     70.16364      1.561     4.14    -3.575029     19.80034      41.5623         7     0.958     0.581 -58.35   0
        49    986.6099    866.9638 300.2355251 +22.9052259     529.7614     70.18151      1.155     2.42    -4.224333     19.80034     82.22467         9     0.811     0.700 -16.44   0
        50    602.8524    864.0056 300.1168780 +22.7892060     538.8694     70.16364      1.424     3.51    -4.086196     19.80034     75.06409         8     0.948     0.677  72.54   0
        51      2.5787    863.8862 299.9302263 +22.6088432     472.1151     61.04158      1.363     3.92    -4.201653     19.80034     51.05963        10     1.049     0.728   0.84  24
        52    613.6512    862.3102 300.1207932 +22.7919618     264.5665     70.19939      1.304     4.07    -4.066853     19.80034      40.6923         8     0.954     0.600  13.42   0
        53    933.5305    859.2887 300.2214688 +22.8870983     252.1185     70.34221      1.262     3.16    -4.122962     19.80034      49.2912         5     0.962     0.351  66.66   0
        54    719.3137    858.3062 300.1550117 +22.8225318      216.825     70.36005      1.151     3.44    -4.111933     19.80034     47.28209         5     0.766     0.448  78.66   0
        55    756.6847    849.1005 300.1696546 +22.8311070     546.1048     70.34221      1.468     3.10    -4.174965     19.80034     63.84854        11     0.908     0.823 -60.56   0
        56    365.8410    846.4560 300.0488210 +22.7129994      18020.3     70.16364      1.346     2.44    -4.014804     19.80034     2280.619        50     1.171     1.119  48.61   0
        57    380.1311    846.9254 300.0531138 +22.7174261     1169.423     70.25298      1.314     2.54    -4.022391     19.80034     160.0306        13     0.943     0.769 -10.38   0
        58    888.6307    841.9328 300.2131192 +22.8686449     1738.267     70.18151      1.288     2.22    -4.099657     19.80034     253.0824        17     0.934     0.906 -73.02   0
        59    646.6806    838.1176 300.1389586 +22.7949372     567.7494     70.32437      1.526     3.14    -3.940661     19.80034     64.52737        12     0.922     0.885  10.53   0
        60    248.1440    838.0352 300.0149571 +22.6752297     309.5925     70.19939      1.288     3.77    -3.550515     19.80034     55.24233         7     0.898     0.545  39.90   0
        61    302.3793    834.0298 300.0331271 +22.6903744     9046.391     70.18151      0.657     0.99    -3.688321     19.80034     4233.483        11     0.611     0.427   7.21   0
        62    493.9724    832.8066 300.0931380 +22.7475658     539.8845     70.18151      1.555     4.21    -4.125284     19.80034     70.30846        10     1.174     0.836 -65.69   0
        63    894.7740    829.3322 300.2191380 +22.8668712     260.6096     70.16364      1.169     3.57    -4.051877     19.80034     44.00076         8     0.911     0.622  10.73   0
        64    396.4402    828.9072 300.0640549 +22.7171581     262.6624     70.18151      1.481     4.26    -3.870282     19.80034     42.46102         6     1.126     0.459 -79.45   0
        65     81.6911    827.9241 299.9665118 +22.6223174     295.2191     70.32437      1.539     2.65    -4.123118     19.80034      49.5549         5     0.770     0.398  69.17   0
        66    872.5867    824.2809 300.2138648 +22.8587642     262.8351     70.16364      0.932     2.38    -4.119514     19.80034     41.94857         5     0.677     0.478 -75.60   0
        67    245.9501    822.1065 300.0194612 +22.6700048     240.3886     70.23512      1.289     3.72    -3.528766     19.80034        41.57         5     0.636     0.625  62.96   0
        68    539.2197    811.0564 300.1143055 +22.7549132     311.3125     70.18151      1.327     4.10    -3.753137     19.80034     43.65694         7     0.905     0.671  88.16   0
        69    560.6345    808.4451 300.1218232 +22.7605935      691.207     70.23512      1.368     3.24    -3.776417     19.80034     82.98058        14     1.037     0.866 -85.33   0
        70    954.9175    807.1560 300.2451155 +22.8785482     2625.587     70.14575      1.228     2.11    -3.988452     19.80034     409.1888        20     0.951     0.884  61.26   0
        71    943.5515    798.5610 300.2443690 +22.8726710     1000.315     70.21725      1.191     2.88    -3.886469     19.80034     135.9448        15     1.109     0.787  45.24   0
        72    306.8927    793.0520 300.0478719 +22.6799821     413.9883     70.23512      1.298     2.60    -3.538855     19.80034     71.53738         8     0.808     0.640  54.16   0
        73    769.6313    790.0776 300.1929077 +22.8180542     1339.522     70.16364      1.328     2.71    -4.112351     19.80034     173.4887        16     0.960     0.917  48.77   0
        74    974.5955    788.6778 300.2572698 +22.8791456     949.8098     70.09207      1.275     2.32     -4.10249     19.80034     120.7623        12     0.921     0.766   3.11   0
        75    155.9137    776.9882 300.0061591 +22.6300225     279.6071     70.12786      1.198     2.55    -3.711223     19.80034     61.14444         5     0.637     0.558 -89.39   0
        76    852.0878    775.6735 300.2232996 +22.8386612      301.364     70.32437      1.175     3.36    -3.978438     19.80034     50.54909         6     0.979     0.408  15.08   0
        77    888.2397    766.9335 300.2374167 +22.8469981      84937.8     70.14575      1.306     2.33    -3.843572     19.80034     11405.16       100     1.230     1.216  80.40   0
        78    740.7986    767.3063 300.1913357 +22.8028667     502.6717     70.09207      1.423     2.89    -4.104986     19.80034     58.92936        11     0.913     0.796 -39.99   0
        79    920.9521    759.0699 300.2501777 +22.8545535     335.0405     70.16364      1.568     3.79    -3.733832     19.80034     37.67185         5     1.248     0.330  58.16   0
        80    574.6459    755.9402 300.1432788 +22.7497373     1030.308     70.21725      1.543     3.22    -3.654912     19.80034     113.4435        17     1.082     0.974  61.36   0
        81    755.8024    753.1856 300.2006080 +22.8033163     5504.395     70.02044      1.395     2.66    -4.032946     19.80034     636.9346        35     1.173     1.104   6.30   0
        82    257.5434    748.7000 300.0469619 +22.6524433     2890.179     70.27084      1.400     2.56    -3.475871     19.80034     348.5084        25     1.139     1.022  29.67   0
        83    339.6978    746.6036 300.0731953 +22.6765165     674.2474     70.09207      1.294     2.32    -3.538068     19.80034     103.8536        12     0.905     0.764  63.29   0
        84    215.4817    744.2118 300.0353446 +22.6385222     194.5125     70.16364      0.945     3.11     -3.45319     19.80034     41.02439         5     0.735     0.449  67.94   0
        85    548.0145    741.9567 300.1395382 +22.7377311     394.0902     70.19939      1.334     2.95     -3.60652     19.80034     62.58511         7     0.847     0.731 -76.89   0
        86    539.4396    734.0898 300.1394289 +22.7329001     1854.837     70.18151      1.430     2.73    -3.587661     19.80034     229.8112        20     1.079     1.022  48.40   0
        87    529.4539    727.7566 300.1383813 +22.7280856     810.7748     70.19939      1.473     4.05    -3.543895     19.80034     91.87178        13     1.009     0.956  75.31   0
        88    922.5879    725.0608 300.2617582 +22.8452793     160.6389     70.14575      1.081     3.18    -3.657731     19.80034     40.66417         6     0.904     0.530  19.06   0
        89    193.1469    724.2121 300.0349101 +22.6260796     327.2895     70.19939      1.277     3.65    -3.487161     19.80034     49.78501         6     0.958     0.563  37.48   0
        90    207.3019    722.5598 300.0398483 +22.6298578     281.3215     70.18151      1.318     3.34    -3.472176     19.80034     42.87162         6     0.701     0.669  61.57   0
        91    232.6336    719.2738 300.0487935 +22.6365246     255.9472     70.16364      1.322     4.14    -3.463406     19.80034     47.82026         7     1.206     0.406 -76.79   0
        92    976.1301    718.6354 300.2805495 +22.8594931     361.3149     70.18151      1.344     4.54    -4.055652     19.80034     54.40119         7     0.879     0.708  56.03   0
        93    454.3350    717.7988 300.1182393 +22.7026775      1109.03     70.18151      1.490     2.94    -3.464249     19.80034      125.036        18     1.098     0.975  11.96   0
        94    554.0588    718.2061 300.1491503 +22.7327314      233.928     70.14575      1.221     3.77    -3.497305     19.80034     32.41154         5     0.833     0.490  55.70   0
        95    108.4954    712.8162 300.0123080 +22.5973828     11445.44     70.10997      1.352     2.43     -3.70528     19.80034     1550.889        42     1.171     1.108  56.52   0
        96     29.1677    714.8068 299.9870132 +22.5741189     424.4173     70.18151      1.312     2.65    -3.572994     19.80034     46.15142         8     0.810     0.633  39.23   0
        97    539.6033    713.0916 300.1463141 +22.7269248      625.073     70.09207      1.639     2.98    -3.453888     19.80034     77.48569        12     0.976     0.854 -37.23   0
        98    573.4304    711.5771 300.1573396 +22.7366440      289.993     70.16364      1.856     5.34    -3.486418     19.80034     24.88208         5     1.037     0.777 -86.18   0
        99    956.9818    699.0786 300.2809418 +22.8481341      550.434     70.18151      1.268     2.82    -3.863837     19.80034     82.29725        11     0.889     0.806 -45.88   0
       100     54.5149    696.9592 300.0006953 +22.5766197     895.0284     70.14575      1.658     4.79    -3.623014     19.80034     88.80041        16     1.641     0.637  89.29   0
       101    824.2291    696.8005 300.2402878 +22.8076607     347.0825     70.14575      1.490     3.59    -3.610292     19.80034     42.92314         5     0.936     0.396   3.65   0
       102    897.2205    691.6621 300.2647175 +22.8280804      514.253     70.14575      1.726     4.30    -3.584792     19.80034     45.36708         7     1.127     0.468  -3.68   0
       103    459.1244    685.6093 300.1302053 +22.6948815     481.0507     70.16364      1.658     4.45    -3.202679     19.80034     37.88482         9     0.909     0.709  62.85   0
       104    625.1874    682.4939 300.1829227 +22.7438322     230.4561     70.10997      1.202     4.52     -3.49904     19.80034     34.55798         7     0.915     0.636 -79.46   0
       105    606.6940    683.5943 300.1768048 +22.7385980     173.9957     70.07417      1.329     3.92    -3.486845     19.80034     27.36443         5     1.044     0.421  15.30   0
       106    503.9582    681.6761 300.1454405 +22.7072118     431.4644     70.16364      1.469     3.07    -3.142794     19.80034     47.44156         7     0.746     0.646 -16.26   0
       107    937.0650    676.8997 300.2819476 +22.8357915     1879.467     70.27084      1.343     2.62     -3.63138     19.80034     217.7899        21     1.030     0.994 -73.94   0
       108    469.1365    677.1512 300.1360738 +22.6954607     883.1722     70.21725      1.499     3.35    -3.081447     19.80034     98.12099        17     1.150     0.935  25.53   0
       109     31.2296    671.1409 300.0018620 +22.5622238     3037.414     70.19939      1.363     2.39    -3.581375     19.80034     369.7224        24     1.061     1.028 -65.43   0
       110    332.5829    664.0435 300.0978493 +22.6507031     5200.879     70.19939      1.494     2.82    -3.432867     19.80034     606.0293        35     1.292     1.108  44.94   0
       111    455.0277    661.0057 300.1369361 +22.6865933     5168.938     70.18151      1.491     3.00    -3.092678     19.80034     540.0767        35     1.268     1.158  45.72   0
       112    866.5114    654.7040 300.2671688 +22.8082570     1024.156     70.36005      1.364     2.80    -3.397323     19.80034     114.5405        17     1.008     0.955 -78.38   0
       113    951.0594    651.9938 300.2944170 +22.8328357     7124.781     70.14575      1.363     2.58    -3.490735     19.80034     851.4565        37     1.159     1.129   4.80   0
       114    515.5161    650.5950 300.1591518 +22.7017633     6619.105     70.10997      1.559     3.06     -3.05883     19.80034     664.8998        35     1.228     1.184  53.34   0
       115    243.0448    646.1874 300.0758122 +22.6186949     618.2607     70.18151      1.379     3.39    -3.413232     19.80034      67.8748        13     1.032     0.879 -66.79   0
       116    489.9279    643.9756 300.1533399 +22.6921836     310.7816     70.21725      1.661     4.87     -2.98086     19.80034     28.87577         6     0.900     0.746 -42.42   0
       117    447.1888    638.7850 300.1417261 +22.6778652     2525.338     70.10997      1.542     3.13     -3.06716     19.80034     245.6692        27     1.209     1.123  66.41   0
       118    790.0900    638.7623 300.2485321 +22.7807566     435.0172     70.16364      1.418     3.58    -3.270252     19.80034     45.44345        10     0.914     0.795 -44.64   0
       119    425.8530    637.2557 300.1355838 +22.6710217     681.7348     70.21725      1.529     3.86    -3.127856     19.80034     70.59266        13     1.075     0.873 -50.84   0
       120    180.2344    636.8143 300.0593337 +22.5971436     477.6267     70.16364      1.513     3.78     -3.46851     19.80034      59.5579         9     1.080     0.595  82.17   0
       121    866.8386    634.0538 300.2739899 +22.8024253     802.6036     70.18151      1.439     3.18    -3.230257     19.80034     100.3985        16     1.131     0.875 -49.73   0
       122    747.3698    630.8661 300.2377870 +22.7656741     523.4201     70.18151      1.418     4.64    -3.212477     19.80034     50.65941        11     1.072     0.739  44.75   0
       123    563.8004    626.2632 300.1821014 +22.7092726       118593     70.18151      1.586     3.22    -3.005717     19.80034     10201.69       147     1.480     1.436  14.64   0
       124    249.9530    626.3865 300.0844020 +22.6150911     1932.879     70.18151      1.505     3.03    -3.327245     19.80034      195.592        23     1.157     1.051  32.85   0
       125    454.4290    606.8444 300.1543704 +22.6708745     1567.696     70.21725      1.729     3.65    -2.962506     19.80034     142.1024        26     1.337     1.139  43.74   0
       126    771.9100    595.1728 300.2570470 +22.7627877     363.7521     70.16364      1.862     4.42     -3.02674     19.80034     30.78627         6     0.836     0.665  -8.61   0
       127    851.3732    592.4979 300.2826875 +22.7858533     989.4453     70.12786      1.487     3.07    -3.036949     19.80034     95.92718        17     1.031     1.003 -22.24   0
       128    722.5471    590.3005 300.2432488 +22.7465812     1572.414     70.27084      1.612     3.42    -3.001223     19.80034     128.1105        20     1.221     1.034   2.89   0
       129    510.1412    586.2538 300.1784100 +22.6816873      506.896     70.23512      1.743     3.62    -2.822392     19.80034     54.67822         8     0.950     0.718  75.08   0
       130    979.6782    584.0118 300.3254616 +22.8218903     622.9865     70.16364      1.234     2.97    -2.805709     19.80034     99.96174        12     1.018     0.781  73.04   0
       131    965.2177    583.2286 300.3212056 +22.8173296     440.4164     70.18151      1.538     3.66     -2.83763     19.80034     48.03263         8     1.024     0.535  55.38   0
       132    851.5745    582.6778 300.2859447 +22.7830935     1230.601     70.18151      1.717     4.35    -3.036402     19.80034     102.0401        19     1.318     1.005  88.22   0
       133    605.0081    580.8410 300.2097099 +22.7086017     325.9113     70.19939      1.503     4.66    -2.614998     19.80034     30.17664         7     1.326     0.464  61.34   0
       134    889.6432    577.6215 300.2994594 +22.7930577     2382.313     70.23512      1.454     2.98    -2.991638     19.80034      234.363        22     1.073     1.008 -86.19   0
       135    981.2013    568.4065 300.3310130 +22.8178639     370.1747     70.00253      1.214     3.63    -2.732372     19.80034     48.18406         7     0.875     0.577 -80.28   0
       136    122.0090    568.5214 300.0634500 +22.5600745     603.2463     70.14575      1.444     3.83    -3.325237     19.80034     70.22574        13     1.082     0.980  10.94   0
       137    113.9905    558.0176 300.0643741 +22.5546544     261.5827     70.12786      1.453     3.74     -3.30268     19.80034     26.09141         5     0.661     0.608   0.14   0
       138    663.1188    548.7025 300.2382635 +22.7168105     485.8329     70.30653      2.143     4.62    -2.601279     19.80034     46.96012         9     1.122     0.774  35.51   0
       139    723.7717    540.8148 300.2597260 +22.7327403     431.4724     70.19939      1.379     4.94    -2.803586     19.80034     41.25705         9     0.894     0.772  -6.79   0
       140    977.8442    540.1637 300.3391519 +22.8087437     403.6239     70.23512      1.501     4.54    -2.653972     19.80034     31.82264         8     0.843     0.695  37.81   0
       141    881.3154    536.5555 300.3102196 +22.7787653     605.0541     70.16364      1.660     4.28    -3.042666     19.80034     62.75554        13     1.241     0.749   5.74   0
       142    865.2203    532.8531 300.3064051 +22.7728755     436.2519     70.16364      1.700     4.48    -3.083525     19.80034     34.01417         7     1.096     0.521  69.61   0
       143    609.7386    531.1356 300.2273494 +22.6957529     1884.622     70.21725      1.612     3.38    -2.440157     19.80034     175.8055        25     1.213     1.173  12.61   0
       144    970.2491    530.0361 300.3400765 +22.8035571     271.0533     70.19939      1.378     4.87    -2.723451     19.80034     35.82862         7     0.973     0.691 -79.40   0
       145   1020.9089    509.9475 300.3624142 +22.8129717     636.4134     67.14854      1.315     3.21    -2.316563     19.80034     66.97269        13     1.087     0.795  50.21  16
       146    892.7881    509.9022 300.3224651 +22.7745491     268.3951     70.07417      1.386     2.83    -3.154701     19.80034     40.88913         6     0.749     0.551  43.91   0
       147    979.1256    508.6328 300.3498061 +22.8000688     495.3767     70.18151      1.480     3.68    -2.687378     19.80034     50.81728        10     1.019     0.642  63.16   0
       148    729.4951    506.4820 300.2726747 +22.7245984     1577.211     70.34221      0.821     2.86    -2.563127     19.80034     491.4912         5     0.617     0.391 -49.28   0
       149    720.3699    505.1304 300.2702707 +22.7214733     624.7393     70.18151      1.549     3.68    -2.538758     19.80034     60.59075        12     0.948     0.912  -5.75   0
       150    224.3186    503.4734 300.1164062 +22.5721408     348.1596     70.28869      1.520     5.28     -3.01668     19.80034     36.87687         7     1.232     0.639 -79.24   0
       151    286.7479    499.2012 300.1372088 +22.5896573     2178.428     70.14575      1.660     3.10    -3.016986     19.80034     198.2763        27     1.226     1.164 -47.69   0
       152   1019.4772    497.1247 300.3661373 +22.8088580     2413.184     70.28869      1.395     2.76    -2.303416     19.80034     242.1235        23     1.075     1.022 -41.64  16
       153    234.0618    494.0407 300.1225026 +22.5723602      4223.43     70.16364      1.579     3.20    -3.016695     19.80034     394.3507        38     1.324     1.276  26.38   0
       154    374.7234    488.2490 300.1681366 +22.6129217     2810.221     70.18151      1.664     3.49    -2.688898     19.80034     239.7861        30     1.247     1.208 -85.47   0
       155    999.6157    488.1694 300.3628527 +22.8003313     1027.817     70.18151      1.353     2.66    -2.487326     19.80034      124.043        16     1.002     0.918  79.96   0
       156    618.7879    484.7107 300.2452641 +22.6851397     10737.43     70.12786      1.684     3.58    -2.376679     19.80034     838.9241        51     1.374     1.331  33.43   0
       157    636.1100    485.4658 300.2504141 +22.6905528     463.1175     70.30653      2.041     5.38    -2.378798     19.80034     36.77913         7     1.043     0.785  39.71   0
       158    816.0728    474.4016 300.3100900 +22.7413489     238.7821     70.07417      1.422     4.57    -3.054575     19.80034     29.03257         5     0.987     0.600  77.22   0
       159    951.9547    467.2027 300.3548022 +22.7800199     466.9067     70.18151      1.413     4.26     -3.03518     19.80034       47.688         7     0.755     0.687  -9.76   0
       160    173.8504    465.0996 300.1131919 +22.5459813     1181.766     70.27084      1.545     3.22    -2.960975     19.80034     126.3979        23     1.194     1.113 -26.46   0
       161    559.3322    454.2134 300.2366634 +22.6585477     3612.686     70.19939      1.711     3.72    -2.491799     19.80034     314.5599        33     1.366     1.210  41.31   0
       162    973.0322    453.9470 300.3656868 +22.7825292     704.6602     70.19939      1.487     4.78    -2.804063     19.80034     62.82985        14     1.239     0.811 -81.39   0
       163    274.4189    454.0299 300.1480602 +22.5729967      419.828     70.18151      1.604     4.98    -2.757202     19.80034     39.77072         8     0.996     0.705  17.56   0
       164    763.5400    443.2137 300.3038553 +22.7166382     532.0977     70.14575      1.592     4.65    -2.548747     19.80034     53.50716        14     1.248     0.854 -56.65   0
       165    673.6042    444.1180 300.2755371 +22.6899264     207.6298     70.10997      1.309     4.06    -2.435807     19.80034     33.07814         6     0.769     0.613  43.28   0
       166    466.1813    440.4950 300.2121231 +22.6266622     3383.714     70.10997      1.716     3.59    -2.503281     19.80034     297.8458        31     1.323     1.215 -89.57   0
       167    858.0157    434.5843 300.3361115 +22.7424867     885.1925     70.14575      1.674     3.62    -3.227782     19.80034      72.9199        16     1.059     1.010 -11.23   0
       168    955.4363    434.6061 300.3664858 +22.7716973     276.5427     70.19939      1.599     3.76    -3.010002     19.80034     40.66589         6     0.989     0.411 -72.01   0
       169    451.1045    428.9522 300.2111826 +22.6188252     346.5555     70.21725      1.953     5.92    -2.526201     19.80034     35.15078         7     1.245     0.933 -82.42   0
       170    830.5393    422.6220 300.3314337 +22.7308124     304.5931     70.14575      1.382     4.55    -2.920139     19.80034     32.20831         6     1.019     0.578 -28.26   0
       171    353.7297    419.9989 300.1837923 +22.5870357     1453.392     70.10997      1.673     3.47    -2.494436     19.80034     127.5689        24     1.298     1.132 -68.72   0
       172     72.1940    417.5007 300.0970701 +22.5018064     572.1827     70.07417      1.440     3.61    -3.231035     19.80034      63.3338        10     0.957     0.801  41.82   0
       173    323.0631    409.3197 300.1777234 +22.5747677     16925.75     70.28869      1.702     3.43    -2.382298     19.80034     1464.722        58     1.423     1.347  78.09   0
       174    857.5387    406.4044 300.3451231 +22.7342477     808.7598     70.16364      1.586     4.27    -3.084256     19.80034     67.90399        15     1.085     0.973 -67.27   0
       175     19.5034    397.4414 300.0872189 +22.4802318     2830.423     70.18151      1.525     2.94    -3.295629     19.80034     314.6754        28     1.241     1.119 -82.71   0
       176    197.3327    396.2071 300.1428852 +22.5332677     332.2055     70.16364      1.781     4.25     -2.60946     19.80034     28.23131         6     0.761     0.677  -6.77   0
       177    772.4432    395.1729 300.3222464 +22.7055084      292.414     70.19939      1.492     3.46    -2.418972     19.80034     31.53933         5     0.743     0.466  72.63   0
       178    733.1573    388.9760 300.3120170 +22.6919487     1056.559     70.23512      1.655     3.96    -2.407844     19.80034     87.95786        21     1.200     1.137 -63.72   0
       179    948.3333    381.5067 300.3815305 +22.7543094     385.4005     70.32437      1.561     3.91    -2.824768     19.80034     33.60134         6     0.935     0.469  86.76   0
       180    395.1656    373.6900 300.2117355 +22.5861784     1255.677     70.16364      1.922     4.46    -2.399956     19.80034     99.60515        23     1.346     1.158  80.34   0
       181    834.2551    366.4376 300.3508538 +22.7157846     374.0109     70.18151      1.489     5.41    -2.473432     19.80034     30.21391         8     1.002     0.824 -26.89   0
       182    471.1069    352.9712 300.2421028 +22.6030145     675.6151     70.10997      1.662     4.61    -2.405579     19.80034     59.68453        14     1.358     0.861  -0.48   0
       183    715.7934    344.8221 300.3209557 +22.6740590     1185.167     70.16364      1.596     4.31    -2.349125     19.80034     108.5678        23     1.364     1.131 -18.16   0
       184    977.0512    338.8225 300.4043608 +22.7506484     1880.951     70.18151      1.511     3.27     -2.58886     19.80034     186.4063        25     1.172     1.107 -30.79   0
       185    424.3076    329.1263 300.2352851 +22.5821292     339.7318     70.32437      1.477     4.99    -2.214211     19.80034      39.8465         8     1.096     0.641 -80.57   0
       186     99.2934    323.1514 300.1361505 +22.4828788    -640.5181     70.21725     -6.102     4.32    -2.503351     19.80034     75.13247        16     1.309     0.815 -70.40   0
       187    787.5605    305.9751 300.3559449 +22.6844145     460.5805     70.21725      1.669     4.47    -2.016258     19.80034     40.93893        10     1.011     0.924  39.17   0
       188    885.4521    295.2059 300.3899636 +22.7106614     1094.459     70.16364      1.494     3.38     -2.15183     19.80034     102.8325        18     1.119     0.998  35.54   0
       189    304.0721    292.8040 300.2096772 +22.5356286     1241.122     70.12786      1.772     4.16    -2.069803     19.80034     107.1493        24     1.325     1.205  10.54   0
       190    382.3111    287.8872 300.2356147 +22.5576910      533.249     70.34221      1.778     3.99    -1.908034     19.80034     49.66198         9     1.021     0.748 -11.26   0
       191    199.4145    280.1795 300.1812320 +22.5005999     386.5877     70.16364      1.312     3.29     -2.20361     19.80034     56.39816         6     0.779     0.491 -86.16   0
       192    736.7560    276.4397 300.3497064 +22.6606984     977.5658     70.25298      1.702     4.12    -1.933004     19.80034     82.40607        14     1.075     0.912 -33.56   0
       193    221.0300    273.3379 300.1901752 +22.5051232      433.865     70.19939      1.942     4.67    -2.182595     19.80034     37.40422         7     1.036     0.608  19.82   0
       194   1008.0186    268.9420 300.4367273 +22.7398397     511.3474     70.14575      1.474     4.03    -2.454945     19.80034     58.92977        11     1.059     0.829 -46.64   0
       195    661.2683    267.4186 300.3291160 +22.6354754     723.5566     70.18151      1.783     4.60    -1.909022     19.80034     64.84325        16     1.222     1.131 -80.61   0
       196    741.1774    267.4745 300.3539966 +22.6594479     424.8187     70.21725      1.729     3.55    -1.929875     19.80034     43.63945         5     0.980     0.370 -84.11   0
       197    856.4544    258.7484 300.3927656 +22.6914929     872.3719     70.21725      1.781     4.39    -1.977876     19.80034     73.93359        17     1.205     1.037 -75.09   0
       198    587.5392    259.1348 300.3088415 +22.6109888     491.1462     70.21725      1.676     4.27    -1.918308     19.80034     48.74738         8     1.148     0.452 -78.48   0
       199    868.6113    257.9183 300.3968259 +22.6948976     383.5501     70.14575      1.409     5.61    -1.993352     19.80034     38.53169        10     1.030     0.861  28.09   0
       200    985.2355    248.0560 300.4364041 +22.7270091     624.8917     70.19939      1.507     3.77    -2.182755     19.80034     55.61232        14     1.044     0.934  36.88   0
       201      9.1418    245.6174 300.1333255 +22.4335729     264.7179     70.14575      1.558     4.36    -1.875082     19.80034     41.18913         6     0.958     0.564  71.31   0
       202    220.0022    241.6116 300.2001607 +22.4957092     401.7951     70.00253      1.754     4.88    -2.180779     19.80034     32.19272         6     1.030     0.656 -58.95   0
       203     81.6057    236.6035 300.1587675 +22.4527383      1143.31     70.00253      1.549     2.86    -2.095542     19.80034     141.3642        22     1.265     1.031  74.66   0
       204    903.8524    233.0525 300.4158926 +22.6983111     463.8824     70.21725      1.761     5.38     -1.98539     19.80034     37.48307         9     0.926     0.884  78.80   0
       205     31.0498    233.2658 300.1441430 +22.4366058     255.5121     70.18151      1.296     4.30     -1.94675     19.80034     33.30516         7     0.738     0.712  46.51   0
       206    238.7730    229.7594 300.2098468 +22.4979397     3171.234     70.23512      1.684     3.31    -2.165057     19.80034      301.956        32     1.344     1.250  83.18   0
       207     23.1241    224.1278 300.1446484 +22.4316050     667.2838     70.25298      1.373     3.18     -1.93311     19.80034      82.8972        11     1.003     0.703 -89.26   0
       208    222.1599    220.0681 300.2078284 +22.4901732     389.3065     70.14575      1.897     4.98     -2.15973     19.80034     37.75131         7     1.270     0.553   8.59   0
       209    882.6159    210.8152 300.4164927 +22.6855555     2018.818     70.14575      1.607     3.58     -1.98703     19.80034     177.1087        24     1.170     1.146  -0.79   0
       210    986.2366    209.4603 300.4492527 +22.7162126     1634.912     70.19939      1.570     3.09    -2.029013     19.80034     166.4028        25     1.285     1.137  30.48   0
       211    431.9546    206.2050 300.2775944 +22.5491289     259.2701     70.18151      1.411     4.28    -1.861495     19.80034     28.16784         5     1.045     0.500  34.97   0
       212    305.9259    204.6495 300.2388868 +22.5108790     4708.176     70.18151      0.695     1.20    -2.029665     19.80034     1992.164        10     0.597     0.478 -71.44   2
       213    307.3039    201.1106 300.2404646 +22.5102764     2106.169     70.36005      0.587     1.20     -2.01834     19.80034     989.1109         5     0.529     0.336  -6.33   2
       214    357.2080    198.1754 300.2569426 +22.5244037     498.6984     70.18151      2.350     4.97    -1.949512     19.80034     37.92422         6     1.086     0.645 -80.78   0
       215    122.8216    195.9454 300.1847802 +22.4534410     367.0573     70.19939      1.252     3.90    -2.128606     19.80034     39.47475         5     0.829     0.525 -38.02   0
       216    483.6851    193.6239 300.2977818 +22.5610298     989.2258     70.16364      1.717     3.64    -1.845955     19.80034     92.91313        18     1.141     1.042  40.00   0
       217    411.3385    193.5592 300.2752851 +22.5393142     388.9159     70.16364      1.916     5.23    -1.854475     19.80034     33.50925         6     1.376     0.561 -67.80   0
       218    227.5134    189.3061 300.2194827 +22.4829496     141.7822     70.36005      0.909     3.45    -2.031713     19.80034     42.82558         5     0.774     0.445  68.93   0
       219    257.7437    173.5845 300.2339885 +22.4875061     3455.542     70.16364      1.681     3.41    -1.965323     19.80034     321.0839        29     1.281     1.196 -83.80   0
       220    109.2250    173.0529 300.1879877 +22.4427909       397.46     70.19939      1.545     5.18     -2.11641     19.80034      37.8577        11     1.191     0.806  26.44   0
       221     19.2212    164.0358 300.1629485 +22.4131921     277.4031     70.19939      1.415     3.81    -2.306365     19.80034       25.043         5     0.832     0.500  34.13   0
       222    503.6218    158.7413 300.3153154 +22.5569888     3608.727     70.18151      1.824     3.70     -1.76982     19.80034     270.7378        35     1.384     1.310 -89.75   0
       223    389.5829    158.9712 300.2797461 +22.5228566      358.854     70.18151      1.545     3.57    -1.834721     19.80034     42.71557         8     0.830     0.676   2.82   0
       224    756.3102    148.5894 300.3973235 +22.6298199     528.2297     70.12786      1.610     3.50    -1.825553     19.80034     42.50153         5     1.046     0.338  21.16   0
       225    631.9448    138.6959 300.3617853 +22.5897015     3475.715     70.25298      1.735     3.71    -1.569936     19.80034     283.2019        31     1.342     1.250  61.54   0
       226    407.0122    138.1965 300.2919149 +22.5221176     712.4556     70.02044      1.478     3.47    -1.621583     19.80034     81.08109        13     1.069     0.881  56.94   0
       227    673.0358    136.1755 300.3754047 +22.6012941     591.1867     70.19939      1.890     6.00    -1.482431     19.80034     42.46652        10     1.446     0.700  86.06   0
       228    156.1005    130.1047 300.2165015 +22.4445297      294.582     70.36005      1.294     3.22    -1.890774     19.80034     48.01298         7     0.882     0.517 -43.50   0
       229    676.1519    123.4735 300.3804994 +22.5985779     1533.774     70.18151      1.778     4.16    -1.475887     19.80034     115.8488        24     1.297     1.204  19.84   0
       230    691.7466    121.9080 300.3858665 +22.6028020     566.4738     70.23512      1.898     5.18    -1.511762     19.80034     35.40969         7     1.039     0.731 -47.19   0
       231    762.3447    114.9953 300.4101113 +22.6219726     982.1141     70.14575      1.801     4.56    -1.778807     19.80034      85.5835        19     1.222     1.152 -10.37   0
       232    506.3606    107.9114 300.3326704 +22.5432085     559.4327     70.16364      1.869     7.05    -1.993717     19.80034     48.86151        15     1.444     0.964  62.41   0
       233    700.4181    108.1562 300.3930329 +22.6014487     371.9461     70.19939      1.540     5.65    -1.489842     19.80034      38.7635         8     1.242     0.723  18.28   0
       234    410.3672    106.6395 300.3032036 +22.5140602     380.1649     70.21725      1.663     4.06    -1.344432     19.80034     37.83731         6     0.858     0.550  45.14   0
       235    181.5829     96.2704 300.2354064 +22.4424623     2178.674     70.19939      1.700     3.25     -1.54105     19.80034     192.4336        30     1.372     1.203 -50.87   0
       236    742.6945     88.2275 300.4126765 +22.6083900     550.3987     70.09207      1.621     5.18    -1.542098     19.80034     53.87015        11     1.090     0.912  54.26   0
       237    297.8629     88.3119 300.2741496 +22.4750569     618.7196     70.27084      1.444     4.30      -1.4087     19.80034     58.37736        11     1.089     0.813 -67.39   0
       238    780.7529     83.3120 300.4261341 +22.6183811     448.8097     70.16364      2.045     4.95    -1.923949     19.80034     29.14537         6     0.962     0.722  20.45   0
       239    800.4084     79.3682 300.4335413 +22.6231366     1295.449     70.18151      1.658     3.59    -2.107649     19.80034      131.492        21     1.265     1.039  46.63   0
       240    184.0195     75.2536 300.2429855 +22.4371596     627.1955     70.16364      1.551     5.77    -1.542364     19.80034      57.3061        13     1.310     0.957 -87.59   0
       241    975.3504     72.7584 300.4902424 +22.6736421     542.3116     70.19939      2.181     4.98    -1.863778     19.80034     41.55096         9     1.109     0.843  17.45   0
       242    748.9808     71.9260 300.4199271 +22.6055879      466.472     70.18151      1.580     5.19    -1.597232     19.80034     57.01129        11     1.252     0.738  30.89   0
       243    601.4638     57.2304 300.3787360 +22.5571555     444.1404     70.19939      1.487     4.45    -1.549837     19.80034     53.58806        10     0.926     0.862  49.94   0
       244    211.3526     54.4292 300.2582424 +22.4393797     278.2373     70.19939      1.555     4.08    -1.484248     19.80034     34.81509         6     1.013     0.527  33.87   0
       245    764.6400     51.6750 300.4313806 +22.6044584     322.3758     70.14575      1.573     4.59    -1.735617     19.80034     38.03865         7     1.141     0.660 -80.88   0
       246    573.2957     50.3146 300.3722077 +22.5467253     1075.302     70.36005      1.746     3.72    -1.799355     19.80034     97.93851        20     1.221     1.067  12.39   0
       247    296.3061     47.3306 300.2869661 +22.4628212      436.885     70.30653      2.055     4.89    -1.369245     19.80034     29.33776         7     1.013     0.670  88.61   0
       248     10.9140     46.1408 300.1986356 +22.3768667     521.5836     70.28869      1.570     2.42    -1.691642     19.80034     57.69464         8     0.812     0.615  42.21   0
       249    530.4709     43.8858 300.3609586 +22.5320414     797.0312     70.28869      1.919     5.03    -2.102828     19.80034     64.12218        17     1.278     1.102 -29.57   0
       250    635.6270     40.6391 300.3947621 +22.5626264     797.1137     70.19939      1.792     4.60    -1.463281     19.80034     59.74072        16     1.294     0.957  12.78   0
       251    456.2760     34.4732 300.3409150 +22.5070950     1359.674     70.25298      1.806     3.97    -2.205261     19.80034     106.2896        23     1.274     1.175   8.03   0
       252    103.5359     32.4436 300.2318607 +22.4007249     833.2029     70.18151      1.501     4.17    -1.597279     19.80034     93.29505        17     1.161     1.108  -2.26   0
