#   1 NUMBER                 Running object number                                     
#   2 X_IMAGE                Object position along x                                    [pixel]
#   3 Y_IMAGE                Object position along y                                    [pixel]
#   4 ALPHA_J2000            Right ascension of barycenter (J2000)                      [deg]
#   5 DELTA_J2000            Declination of barycenter (J2000)                          [deg]
#   6 FLUX_APER              Flux vector within fixed circular aperture(s)              [count]
#   7 FLUXERR_APER           RMS error vector for aperture flux(es)                     [count]
#   8 FLUX_RADIUS            Fraction-of-light radii                                    [pixel]
#   9 FWHM_IMAGE             FWHM assuming a gaussian core                              [pixel]
#  10 BACKGROUND             Background at centroid position                            [count]
#  11 THRESHOLD              Detection threshold above background                       [count]
#  12 FLUX_MAX               Peak flux above background                                 [count]
#  13 ISOAREA_IMAGE          Isophotal area above Analysis threshold                    [pixel**2]
#  14 A_IMAGE                Profile RMS along major axis                               [pixel]
#  15 B_IMAGE                Profile RMS along minor axis                               [pixel]
#  16 THETA_IMAGE            Position angle (CCW/x)                                     [deg]
#  17 FLAGS                  Extraction flags                                          
         1    162.2177      4.4981 300.2566235 +22.4138119     637.9175     67.99205      1.512     4.12    -1.141981     19.72782     73.77658        13     1.122     0.933  -6.22  16
         2     75.0278   1008.0818 299.9034374 +22.6752966     1296.849      69.9423      9.546    10.75     2.419805     19.72782     45.98381        25     2.733     1.177 -34.85  19
         3    463.0684   1023.2958 300.0190994 +22.7962518     524.3746     56.55248      0.992     1.98     -5.04012     19.72782     123.8791         7     0.686     0.638   9.35  24
         4    393.7888   1021.3795 299.9981739 +22.7748920     3688.586     65.20575      1.088     1.87    -5.014097     19.72782     662.6747        20     0.930     0.824 -79.20  24
         5    119.4234   1021.6083 299.9128221 +22.6925135     1275.531     64.30181      5.348     6.57     7.907445     19.72782      53.2873        22     1.523     1.193 -43.12  26
         6    102.8937   1022.7083 299.9073295 +22.6878599     921.8224     59.59762      7.351     9.86     8.084278     19.72782     39.73528        20     2.314     1.173  -1.90  27
         7    109.0202   1019.6308 299.9102346 +22.6888204     1112.937     69.83538      8.420     8.17     7.669493     19.72782     51.23687        14     1.787     1.281 -17.98  19
         8    101.6721   1008.6701 299.9115212 +22.6834738     1238.923      69.9957      7.516    10.07     6.221242     19.72782     75.22896        24     2.956     0.956 -72.96  19
         9     87.0374    991.6639 299.9125130 +22.6742062      1996.89     69.92449     10.386    31.66     2.613789     19.72782     51.56557       196     6.955     4.002 -13.41  19
        10     86.5636   1004.2606 299.9082643 +22.6776701     2149.487      69.9423     15.307    25.19     3.971799     19.72782     53.87184       144     6.365     2.767  -3.09  19
        11     85.6227   1019.1680 299.9031181 +22.6816550      2805.71     69.92449     15.596    31.61      5.47962     19.72782      58.9567       273     6.963     3.983 -17.84  27
        12    120.6926   1009.3231 299.9172167 +22.6893777     620.7391     70.06683      3.562     4.16     6.192643     19.72782     53.50126         6     1.175     0.711  56.34   0
        13    426.6158   1007.8682 300.0127838 +22.7808822     278.5262     69.90668      1.131     3.80    -5.008079     19.72782     46.03664         8     0.941     0.610  74.86   0
        14    939.8400    999.6981 300.1752639 +22.9326212     1266.462     69.92449      1.086     1.71     -5.27032     19.72782     274.3017        13     0.939     0.756  24.22   0
        15    728.9088    989.0182 300.1130134 +22.8662533     375.3846     69.85321      1.625     5.02    -4.339052     19.72782     54.10141         8     1.512     0.472  47.46   0
        16     70.0702   1016.0534 299.8993021 +22.6760884     1725.203     69.92448      9.009    19.58     2.210001     19.72782     47.24829        71     4.468     2.383 -61.66  27
        17    541.1661    984.2802 300.0561047 +22.8085271     135.2988     69.87103      1.023     2.36    -5.057108     19.72782     63.42878         5     0.871     0.367 -85.71   0
        18    763.4127    982.9816 300.1257267 +22.8748797     507.0923     69.88885      0.990     1.70    -4.319983     19.72782     116.0059         7     0.720     0.560 -65.99   0
        19    920.3401    980.8104 300.1753357 +22.9213526     123.0605     69.88885      1.052     2.78    -5.299798     19.72782      33.6184         5     0.742     0.434 -71.70   0
        20    785.8353    976.7070 300.1347552 +22.8798107     6444.507     69.88885      1.103     1.82    -4.399372     19.72782     1230.861        27     0.961     0.887  43.63   0
        21     97.2434    968.5350 299.9232130 +22.6706517     265.4315     69.90668      1.022     2.20    0.8789303     19.72782     53.22453         5     0.681     0.465 -21.26   0
        22    490.8225    965.0671 300.0466947 +22.7879027     308.7006     69.90668      1.339     4.37    -5.056642     19.72782     36.62756         6     0.945     0.576  25.25   0
        23    794.3988    958.8889 300.1432248 +22.8772715     781.4791     69.83538      1.070     2.17    -4.658047     19.72782     152.3834        11     0.825     0.737  46.28   0
        24    646.8058    955.8708 300.0982385 +22.8321031     281.6529     69.88885      1.097     2.37    -5.167991     19.72782     46.40134         6     0.737     0.535  34.19   0
        25    832.5603    952.1189 300.1573196 +22.8867828     315.6598     69.88885      1.002     2.45      -5.0234     19.72782     81.29914         7     0.724     0.627 -58.66   0
        26    880.9005    943.4952 300.1751923 +22.8988154     307.0293     70.10237      0.991     1.94    -5.299798     19.72782     75.95301         6     0.669     0.587 -69.92   0
        27    732.0237    942.4058 300.1291606 +22.8538238     274.6052     69.90668      1.005     2.43     -5.06602     19.72782     78.35606         7     0.786     0.667  54.06   0
        28    743.3799    939.8038 300.1335449 +22.8564863     393.5912     69.88885      1.190     2.82    -5.070362     19.72782     68.64368         6     0.847     0.514 -51.63   0
        29    444.9209    939.1600 300.0408486 +22.7666935       2447.3     69.90668      1.195     2.00    -5.024099     19.72782     431.2578        18     0.922     0.856 -77.52   0
        30    169.9894    924.9200 299.9600097 +22.6800236     460.4609     69.90668      1.342     3.35    -4.149619     19.72782     61.95113        10     0.957     0.715  63.65   0
        31    147.1547    921.9418 299.9538846 +22.6723092     990.0338      69.9601      1.227     2.29     -4.20671     19.72782     144.8873        10     0.813     0.716  88.27   0
        32     22.0266    911.7515 299.9183381 +22.6317870     297.7379      69.9423      1.374     3.54    -4.799832     19.72782     36.31187         7     0.762     0.654   2.62   0
        33   1018.7233    910.4827 300.2289092 +22.9306930     1214.733     70.01348      1.018     1.79    -4.957668     19.72782     219.8356        14     0.847     0.747 -21.92  16
        34    973.0980    909.0013 300.2151638 +22.9165818      1179.14     69.83538      1.070     1.74    -5.067644     19.72782      293.391        12     0.799     0.729 -48.19   0
        35    756.6238    903.0545 300.1496338 +22.8499230     424.7189      69.9423      1.148     2.54     -5.19453     19.72782     72.71619         7     0.858     0.482  86.23   0
        36    624.7775    897.1633 300.1104918 +22.8086597     2779.698      69.9423      1.196     1.99    -5.136033     19.72782     493.8766        20     0.932     0.875 -20.13   0
        37    114.3452    897.8649 299.9515289 +22.6555550     359.2881      69.9779      1.196     3.38    -4.476417     19.72782     42.10686         5     0.774     0.426 -70.92   0
        38    427.1304    894.3503 300.0499006 +22.7485098     469.8429     69.92449      1.201     3.17    -4.822673     19.72782     61.77476         9     1.009     0.622 -43.73   0
        39    175.0505    891.2056 299.9725557 +22.6718883     798.6129     69.90668      1.172     2.03    -4.331752     19.72782     138.5501        10     0.796     0.675 -85.60   0
        40    645.3191    889.4184 300.1194082 +22.8126054     509.4621     69.92449      1.354     3.00    -5.192721     19.72782     67.28555         8     0.910     0.603 -82.29   0
        41    193.7018    888.3560 299.9792786 +22.6766759     283.3759     69.92449      1.350     4.77    -4.364098     19.72782     37.41648         7     1.174     0.549 -41.99   0
        42   1017.6306    876.8813 300.2395063 +22.9207235      725.011     69.92449      1.137     1.96    -4.784564     19.72782     132.8397        10     0.812     0.706 -52.10   0
        43    800.8044    876.7564 300.1719578 +22.8556391     2415.689      69.9423      1.177     1.97    -4.941264     19.72782     407.3082        22     0.957     0.924  46.19   0
        44    209.7158    871.3951 299.9897748 +22.6766288      150.298     69.85321      0.983     3.40    -4.403443     19.72782     48.82249         6     0.872     0.583  64.48   0
        45    517.8151    869.4918 300.0862053 +22.7686153      248.811     69.85321      1.077     2.54    -4.748157     19.72782      48.2748         7     0.813     0.580 -77.23   0
        46    164.0627    867.4367 299.9768771 +22.6617791      659.951      69.9423      1.224     2.97    -4.455819     19.72782     87.19357        11     1.033     0.661 -39.69   0
        47    313.9872    859.6171 300.0260190 +22.7045765     31032.46     69.85321      1.252     2.15    -4.519773     19.72782     4608.622        65     1.162     1.117  56.44   0
        48    579.5720    862.8593 300.1075843 +22.7852546     299.8015     69.92449      1.175     3.08    -4.916141     19.72782     40.41875         5     0.938     0.341  -4.54   0
        49    571.7990    858.6008 300.1065508 +22.7817002     979.4216     69.71043      1.159     2.08    -4.854282     19.72782     146.0845        14     0.964     0.785 -62.55   0
        50    984.5728    857.5706 300.2354826 +22.9052670     486.1945     69.90668      1.057     2.77    -4.759255     19.72782     86.26176         8     0.921     0.542 -69.04   0
        51    242.4292    857.8156 300.0043608 +22.6825661     242.9774     69.92449      1.243     2.74    -4.439582     19.72782     48.49488         5     0.729     0.437 -66.57   0
        52    600.6216    854.4217 300.1168827 +22.7891543     539.3828     69.92449      1.198     2.93    -4.931571     19.72782     91.91881        11     0.988     0.765  89.87   0
        53    611.3568    852.7475 300.1207695 +22.7918967     335.0315      69.9601      1.506     3.53    -4.958776     19.72782     51.90971         7     0.946     0.560  65.51   0
        54    716.9785    848.9321 300.1549004 +22.8225038     204.5746     69.90668      1.095     3.56    -5.101827     19.72782      52.3241         8     0.957     0.640  67.57   0
        55    754.7903    839.2953 300.1698144 +22.8310869     454.4654     69.85321      1.209     2.68    -4.929713     19.72782     73.85538         8     0.843     0.661  61.10   0
        56    378.1135    837.4161 300.0531836 +22.7174737     1159.921     69.88885      1.307     2.25     -4.52658     19.72782     172.5301        14     1.065     0.772  81.25   0
        57    363.6691    836.8158 300.0488870 +22.7129639     17801.23      69.9423      1.279     2.24    -4.504113     19.72782     2735.538        47     1.154     1.043  64.52   0
        58    886.5603    832.3641 300.2131298 +22.8686340     1535.698      69.9957      1.095     2.10    -4.744575     19.72782     238.4442        15     0.865     0.812  81.34   0
        59    374.9154    831.0601 300.0542573 +22.7146917     413.0704     70.03127      1.690     4.84    -4.515881     19.72782     43.03287         8     0.980     0.814  47.06   0
        60    644.5450    828.4152 300.1390206 +22.7948814     573.2485     69.90668      1.333     2.55    -4.805115     19.72782     75.77464         8     0.823     0.691  73.05   0
        61    246.2426    828.5440 300.0150710 +22.6753254     444.5901     69.92449      1.305     2.97    -4.479385     19.72782     56.04859         9     0.964     0.632  69.00   0
        62     50.8269    824.4027 299.9557061 +22.6154301     236.4892     69.87103      1.177     4.38    -4.666589     19.72782     40.74423         6     0.954     0.574  75.14   0
        63    491.8020    823.6605 300.0930253 +22.7476676     581.3536     69.90668      1.285     2.43     -4.48337     19.72782     85.78603        11     0.882     0.762  36.76   0
        64    892.8334    819.9224 300.2191339 +22.8669462     268.0348     69.90668      1.065     3.98    -4.675749     19.72782     48.04698         6     0.787     0.575  54.73   0
        65    437.5989    818.2175 300.0779329 +22.7298334     224.3621     69.83538      1.187     4.77    -4.501604     19.72782     38.50578         6     0.987     0.654 -11.39   0
        66     79.4529    817.8179 299.9667389 +22.6221457     333.4032     69.90668      1.344     2.89    -4.643969     19.72782     46.96645         7     0.916     0.483  81.13   0
        67    870.1946    814.7084 300.2137743 +22.8586590     200.6684     69.83538      1.359     4.38    -4.687004     19.72782     31.77348         6     0.976     0.560 -67.54   0
        68    243.5366    813.1875 300.0192265 +22.6701128     257.7473     69.88885      0.997     1.62    -4.492689     19.72782      64.4836         5     0.645     0.495  81.19   0
        69    536.6077    801.6280 300.1141370 +22.7548021     375.3024     69.92449      1.101     3.69    -4.461934     19.72782     49.83786         7     0.976     0.533  48.31   0
        70    952.9404    797.6611 300.2451155 +22.8785878     2717.927      69.9601      1.167     1.90    -4.486253     19.72782     450.0322        22     0.977     0.880 -65.66   0
        71    558.4138    798.8492 300.1218279 +22.7605511     804.8838      69.9601      1.267     2.71    -4.465867     19.72782     122.3752        13     1.007     0.770 -13.49   0
        72    941.2932    788.8975 300.2443357 +22.8725796     916.9551     70.10237      1.143     2.06    -4.438156     19.72782     160.2242        11     0.801     0.758 -24.31   0
        73    304.4224    783.3447 300.0478623 +22.6798480     513.8359      69.9423      1.238     2.91    -4.468717     19.72782     82.59129         9     0.952     0.678 -77.78   0
        74    170.4184    784.2507 300.0059181 +22.6398592     214.4102     69.92449      1.392     3.48    -4.450047     19.72782     38.80632         5     0.987     0.659  27.06   0
        75    767.8732    780.4779 300.1930285 +22.8181413      1507.64     70.03127      1.316     2.39    -4.413941     19.72782     197.0394        21     1.158     0.955   3.55   0
        76    972.6609    779.3649 300.2572174 +22.8792517     1016.394      69.9423      1.174     2.20    -4.384714     19.72782     147.7512        14     0.929     0.786  36.75   0
        77    153.4219    767.0421 300.0062352 +22.6298235      262.028      69.9601      1.095     2.56    -4.343878     19.72782     51.32773         7     0.726     0.688  86.00   0
        78    849.9609    765.9177 300.2233432 +22.8385905     326.9279     69.88885      1.398     3.84    -4.280546     19.72782      41.8351         5     0.814     0.518 -63.17   0
        79    886.1830    757.3323 300.2374257 +22.8469921      84061.2     69.92449      1.225     2.14    -4.191978     19.72782     12467.26       108     1.203     1.185 -84.49   0
        80    738.3089    757.8452 300.1911820 +22.8027786      358.576     69.90668      1.159     2.68    -4.181759     19.72782     66.15933         8     0.822     0.696 -73.24   0
        81    919.1993    750.0590 300.2500837 +22.8548075     232.9398     69.88885      1.047     3.72    -4.206174     19.72782     39.47831         5     0.824     0.482  35.53   0
        82    572.5419    746.4014 300.1432879 +22.7497527     980.9206     69.87103      1.381     2.61    -4.266748     19.72782     130.7372        16     1.023     0.897 -22.57   0
        83    753.6751    743.5601 300.2006157 +22.8032909     5370.332     69.88885      1.300     2.38    -4.102479     19.72782     676.6009        31     1.070     1.045  29.86   0
        84    255.3508    739.0217 300.0470254 +22.6524095     2843.708     69.92449      1.343     2.42    -4.128304     19.72782      387.928        22     1.068     0.951  70.62   0
        85    337.1925    736.8790 300.0731662 +22.6763715      551.598     69.85321      1.285     2.68    -4.321071     19.72782      92.1151        10     0.870     0.799  70.02   0
        86    545.5830    732.1165 300.1395436 +22.7375651     545.2448     69.88885      1.548     4.25    -4.210956     19.72782     61.01379         8     0.973     0.607 -19.92   0
        87    537.1617    724.3551 300.1394471 +22.7328119     1874.411      69.9779      1.366     2.63    -4.128588     19.72782      206.724        19     1.024     0.948  -1.78   0
        88    527.3665    718.2394 300.1383879 +22.7281182     844.1881      69.9601      1.448     2.97    -4.066222     19.72782     102.6984        14     0.987     0.899  28.78   0
        89    920.7546    715.4686 300.2618205 +22.8453469     285.1488     69.90668      1.198     1.98    -3.984825     19.72782     49.51925         5     0.665     0.464 -22.62   0
        90    190.7984    714.4104 300.0349676 +22.6259702     382.8159     69.74615      1.312     2.94    -4.080122     19.72782     62.84791         9     0.839     0.752  64.59   0
        91    205.3269    713.0781 300.0399158 +22.6299518     348.7116     70.03127      1.314     4.17    -4.070632     19.72782     39.36887         7     0.764     0.650  69.98   0
        92    231.7622    710.1815 300.0490735 +22.6370607     344.8743     69.92449      1.665     5.01    -4.071189     19.72782     39.39181         7     1.206     0.712  64.92   0
        93    974.2769    709.1406 300.2805661 +22.8595807     265.6329      69.9779      1.316     3.44    -4.013465     19.72782     45.56921         5     0.993     0.345  -2.58   0
        94    452.3063    708.0660 300.1183411 +22.7026713     1072.221     70.04905      1.388     2.78    -4.027369     19.72782     138.4641        15     0.971     0.917  -2.69   0
        95    551.2267    708.5590 300.1489623 +22.7325034     270.2682      69.9779      1.333     3.08    -3.976457     19.72782     34.64479         5     0.720     0.470 -17.13   0
        96    106.3660    703.1337 300.0124025 +22.5973792     11447.06     69.92449      1.325     2.37    -4.114586     19.72782     1397.994        48     1.220     1.121  80.33   0
        97     27.3887    704.7506 299.9873479 +22.5741175     443.8423      69.9423      1.286     3.05    -4.046436     19.72782     48.60503         8     0.894     0.615 -74.04   0
        98    537.2042    703.3043 300.1463070 +22.7267880     547.5451     69.83538      1.379     3.14    -3.910306     19.72782     62.19453        11     0.980     0.717  74.19   0
        99    954.9586    689.2327 300.2810176 +22.8480736     614.4388      69.9779      1.456     2.74    -3.870106     19.72782       78.548        12     1.007     0.740  88.79   0
       100     52.1390    687.3073 300.0007062 +22.5765559     889.0133     70.01348      1.696     6.45    -4.047066     19.72782     66.15768        17     1.616     0.723 -88.53   0
       101    821.6690    687.8347 300.2399255 +22.8076989     181.2169     69.92449      1.188     4.19    -3.889455     19.72782     28.48758         6     0.764     0.657 -23.44   0
       102    895.4258    682.0363 300.2647986 +22.8281556     493.8904      69.9423      1.823     3.74    -3.750751     19.72782     52.50802         8     1.056     0.628  18.34   2
       103    457.2411    676.1934 300.1302416 +22.6950138     452.8619      69.9601      1.387     5.26    -3.699885     19.72782     47.62945        10     1.095     0.932  29.67   0
       104    605.4438    674.6117 300.1768792 +22.7390372     281.0623     69.92449      1.211     3.24    -3.782914     19.72782      46.4119         6     0.923     0.412  18.42   0
       105    623.2643    672.4462 300.1831315 +22.7437633     242.7433      69.9601      1.151     3.00    -3.795557     19.72782     47.67358         5     0.717     0.488  10.47   0
       106    501.6538    672.1240 300.1453838 +22.7071769     505.3756      69.9601      1.554     4.75    -3.594573     19.72782      48.8847         9     0.957     0.668  21.10   0
       107    467.0255    667.5873 300.1360843 +22.6954828     1033.975     69.92449      1.438     2.99    -3.619271     19.72782     113.3038        16     0.984     0.974 -75.15   0
       108    934.9801    667.2919 300.2819243 +22.8357849     1825.808     69.85321      1.291     2.45    -3.721004     19.72782     239.3975        19     0.998     0.898  40.66   0
       109     29.0566    661.2876 300.0019986 +22.5621679     3026.629      69.9779      1.354     2.43    -3.850646     19.72782      377.917        26     1.160     0.963  58.54   0
       110    330.4227    654.3218 300.0979093 +22.6506741     5403.515     69.88885      1.455     2.74    -4.012169     19.72782      613.499        34     1.187     1.099 -84.78   0
       111    452.8363    651.3781 300.1369405 +22.6865760     5078.767      69.9423      1.470     2.74     -3.58268     19.72782     550.4423        32     1.183     1.121  51.87   0
       112    864.4069    645.0436 300.2671600 +22.8082360     1071.006      69.9423      1.370     2.43    -3.704439     19.72782     141.7511        18     1.016     0.970 -17.10   0
       113    948.9514    642.4453 300.2943600 +22.8328418     7349.606      69.9601      1.285     2.23    -3.785765     19.72782     971.1994        38     1.137     1.066 -75.74   0
       114    513.3758    640.8421 300.1592033 +22.7017237     6643.781      69.9779      1.479     2.85    -3.473596     19.72782     731.5117        36     1.203     1.159  56.30   0
       115    683.0093    637.1293 300.2132191 +22.7515565     342.6048     69.90668      1.161     4.45    -3.653514     19.72782     42.71475         7     1.055     0.535  58.03   0
       116    240.9597    636.4866 300.0758956 +22.6187015     744.6687     69.90668      1.424     3.13    -3.930209     19.72782     90.81261        14     1.003     0.929 -63.38   0
       117    445.1063    629.0944 300.1417809 +22.6778660     2471.561      70.0846      1.451     2.96     -3.49928     19.72782     244.6633        24     1.137     1.048  83.93   0
       118    787.8148    628.8583 300.2485551 +22.7806206     464.3904     69.90668      1.288     2.71    -3.738775     19.72782      73.6125        10     0.907     0.716  30.18   0
       119    423.2764    627.3994 300.1355410 +22.6708279     664.6217     69.81754      1.483     3.33    -3.533216     19.72782     83.52522        16     1.079     0.986 -54.85   0
       120    177.7610    627.1710 300.0592833 +22.5970546     367.6612     69.92449      1.325     2.51    -3.883351     19.72782     58.42131         7     0.848     0.526  59.49   0
       121    864.5706    624.3442 300.2739416 +22.8023440     892.0787     69.92449      1.494     3.29    -3.703131     19.72782     90.81533        17     1.109     0.968  -7.41   0
       122    111.6105    624.9843 300.0394417 +22.5765624     217.0166     69.85321      1.245     4.14    -3.786588     19.72782     31.85924         5     0.781     0.627   2.55   0
       123    964.4249    623.1918 300.3054450 +22.8319538     181.1897     69.92449      0.985     3.40    -3.878407     19.72782     31.31472         5     0.732     0.463  72.17   0
       124    745.1853    621.3724 300.2377082 +22.7656863     434.2047      69.9423      1.406     3.47    -3.718815     19.72782     59.59058        10     0.908     0.827  31.56   0
       125    561.6492    616.5787 300.1821161 +22.7092501     116509.5     69.92449      1.526     2.98    -3.390701     19.72782     12402.97       155     1.453     1.424 -23.96   0
       126    247.7180    616.6575 300.0844428 +22.6150469     2069.371      69.9779      1.512     2.81    -3.850832     19.72782     252.4183        23     1.144     1.037  71.54   0
       127    813.4658    612.3111 300.2619277 +22.7835647     314.5624     70.03127      1.326     3.47    -3.684224     19.72782     37.66672         5     0.764     0.456  70.65   0
       128    296.6329    598.8297 300.1054444 +22.6246215      238.722      69.9423      1.487     4.57     -3.72702     19.72782     27.63003         5     1.367     0.433  59.11   0
       129    452.0991    596.9436 300.1544087 +22.6707446     1531.437     70.01348      1.573     3.18    -3.303725     19.72782     139.2088        22     1.132     1.092 -65.91   0
       130    849.0746    582.8490 300.2826027 +22.7857866      1030.34     69.92449      1.363     2.77     -3.57763     19.72782     108.1644        13     0.948     0.813 -12.68   0
       131    720.2783    580.6766 300.2431801 +22.7465376     1361.451     70.03127      1.460     2.88    -3.489243     19.72782     159.5674        21     1.114     1.072 -21.39   0
       132    964.6185    577.7380 300.3202831 +22.8189618     266.2452     69.88885      1.335     3.47    -3.600499     19.72782     41.48878         5     0.742     0.468  76.92   1
       133    626.0092    577.3445 300.2149064 +22.7173042     275.8788     69.92449      1.445     4.28    -3.224355     19.72782     33.03925         6     0.841     0.642  38.94   0
       134    507.7531    576.4703 300.1783808 +22.6815735     423.8909     69.90668      1.605     6.19    -3.078707     19.72782     36.56624        10     1.302     0.827  35.51   0
       135    977.5866    574.4805 300.3253858 +22.8219140     591.5921     69.90668      1.206     2.51    -3.594298     19.72782      92.8309        11     0.846     0.770 -61.46   0
       136    963.3300    573.5556 300.3212409 +22.8173746      421.686     69.88885      1.312     3.39    -3.555872     19.72782     55.44209         9     0.889     0.770 -37.56   0
       137    849.4328    572.9521 300.2859316 +22.7830531     1238.665      69.9601      1.486     4.48    -3.532533     19.72782     129.3181        22     1.541     0.887  73.04   0
       138    603.1860    571.5620 300.2096803 +22.7087983     369.5575      69.9423      1.344     3.02    -3.176184     19.72782     31.70668         5     0.729     0.453 -20.74   0
       139    388.8616    570.4073 300.1433632 +22.6441559     206.9604     69.90668      1.660     4.64    -3.289547     19.72782     25.93129         6     1.002     0.609  69.73   0
       140    887.4860    568.0476 300.2993864 +22.7930550     2502.662     69.90668      1.350     2.57    -3.534332     19.72782     303.0468        22     1.069     0.998  16.18   0
       141    979.2017    558.7218 300.3310121 +22.8178732     451.6126     69.83538      1.228     2.57    -3.430168     19.72782      63.1403         6     0.724     0.565 -52.16   0
       142    119.9651    558.9558 300.0634998 +22.5601489     489.7351      69.9779      1.281     1.90    -3.437486     19.72782     89.85712         9     0.723     0.713 -61.13   0
       143    112.7030    548.5314 300.0646316 +22.5549805     272.7262     70.04905      1.477     4.64    -3.365151     19.72782     32.17705         7     0.918     0.666  75.06   0
       144    661.3539    538.8093 300.2384374 +22.7168495     245.2017      69.9423      1.317     3.85    -3.065134     19.72782      38.8316         7     0.820     0.641  66.88   0
       145    975.4226    531.1675 300.3387898 +22.8088282     331.7759     69.92449      1.251     3.50    -3.225046     19.72782     45.74244         9     0.878     0.770 -50.11   0
       146    721.8026    531.0461 300.2597868 +22.7327516     468.8304     69.92449      1.465     4.22    -3.281271     19.72782     53.06778        14     1.145     0.852 -88.82   0
       147    879.0425    526.8856 300.3101337 +22.7787063     499.4198     69.88885      1.335     2.87    -3.327564     19.72782     63.07053        10     0.876     0.725 -77.24   0
       148    863.2686    523.0735 300.3064561 +22.7728827     414.3003      69.9957      1.426     3.94    -3.319242     19.72782     47.63013         9     0.994     0.681  -3.79   0
       149    607.5981    521.4762 300.2273329 +22.6957514     1795.891     69.83538      1.565     2.91    -3.041333     19.72782     202.8396        24     1.236     1.046  64.97   0
       150    967.9515    519.8260 300.3401463 +22.8033319     286.3946      69.9423      1.317     3.20    -3.182989     19.72782     37.66607         5     0.787     0.503 -55.37   0
       151    447.4999    508.2147 300.1818165 +22.6439156      325.161     69.83538      1.731     4.78    -2.811238     19.72782     25.63251         6     1.312     0.494 -86.41   0
       152   1018.7143    500.2247 300.3623472 +22.8129175     787.1666     69.88885      1.282     2.96    -3.150761     19.72782      101.011        12     0.996     0.807  32.53  16
       153    890.7842    499.7482 300.3226131 +22.7744348     352.2601     69.92449      1.519     4.08    -3.104138     19.72782      34.8657         6     0.745     0.638 -85.45   0
       154    976.9263    498.8088 300.3497753 +22.7999865     636.5753     69.92449      1.348     3.17     -3.11345     19.72782     74.24024        13     1.046     0.811 -44.49   0
       155    718.1898    495.5473 300.2701980 +22.7214796     633.0468     69.92449      1.441     3.46    -3.107724     19.72782     66.67163        12     1.033     0.864  55.27   0
       156    222.5884    494.2793 300.1164061 +22.5724195     449.1413     69.90668      1.551     3.00    -3.166411     19.72782     56.97856         9     0.896     0.717 -77.64   0
       157    284.6521    489.5953 300.1372206 +22.5897054     2196.838     69.92449      1.608     2.84    -3.138692     19.72782     265.0745        24     1.157     1.066 -86.05   0
       158   1017.3599    487.5657 300.3660386 +22.8088758     2565.779      69.9601      1.289     2.38      -3.1157     19.72782     299.7112        21     0.990     0.955  64.96  16
       159    231.8216    484.3800 300.1224924 +22.5723527     4385.258     69.92449      1.536     2.76    -3.101975     19.72782      499.898        32     1.235     1.147  71.50   0
       160    372.5101    478.5526 300.1681282 +22.6129057     2709.362     69.88885      1.579     2.99    -2.775039     19.72782      300.437        27     1.218     1.116  79.51   0
       161    997.1908    478.4503 300.3627105 +22.8002132     1038.583     69.92449      1.476     2.53    -3.069806     19.72782       141.82        20     1.281     0.947  28.52   0
       162    616.6703    475.0456 300.2452453 +22.6851492     10575.42     69.90668      1.590     3.27    -2.973633     19.72782     926.4996        48     1.316     1.281  83.78   0
       163    633.7170    475.3042 300.2504689 +22.6903362     443.6401     70.10237      2.083     4.90    -2.975764     19.72782     29.18994         6     0.934     0.729  19.48   0
       164    814.3463    465.1144 300.3100442 +22.7415754     259.5886      69.9779      1.304     3.45    -2.984741     19.72782     29.91059         5     0.807     0.427  72.11   0
       165    950.2952    457.2874 300.3549636 +22.7800802     420.9899     70.10237      1.479     4.06    -2.996371     19.72782      47.0176        10     1.149     0.673 -49.63   0
       166    171.6807    455.3280 300.1132405 +22.5459703      1106.11     70.04905      1.498     3.54    -3.172277     19.72782     137.9734        17     1.291     0.820 -87.79   0
       167    557.3445    444.5542 300.2366835 +22.6586051     3658.118      69.9601      1.650     3.25    -2.434234     19.72782     349.1656        33     1.280     1.222  48.39   0
       168    970.7554    444.3262 300.3655545 +22.7824897     714.6736     69.90668      1.403     3.23    -3.004608     19.72782     94.06333        13     1.101     0.847  80.65   0
       169    272.2996    443.8957 300.1482278 +22.5728931      314.414     70.12013      1.458     4.00    -2.858778     19.72782     44.52052         6     1.056     0.549  65.55   0
       170    130.5303    437.7724 300.1061576 +22.5285841      252.715     69.92449      1.056     3.42    -3.168478     19.72782     41.42089         5     0.739     0.457  69.76   0
       171    761.3047    433.2332 300.3038757 +22.7165200     713.9436     69.90668      1.828     3.75    -2.999052     19.72782     72.64928        15     1.213     0.859  89.77   0
       172    464.0031    430.7308 300.2121261 +22.6266389     3661.602     69.87103      1.639     3.29    -2.505556     19.72782     348.7046        32     1.378     1.167  89.86   0
       173    855.6260    425.0530 300.3359245 +22.7424476     798.0286      69.9423      1.477     3.70    -2.931014     19.72782     98.11629        12     1.029     0.854  12.45   0
       174    953.0291    424.9768 300.3663135 +22.7716198     312.1439     69.92448      1.253     4.13    -2.968277     19.72782     40.43381         7     0.885     0.550  44.64   0
       175    828.7190    412.9983 300.3314549 +22.7309204     288.4102     69.83538      1.353     4.60     -2.92152     19.72782     41.24069         7     0.921     0.692  -1.65   0
       176    351.5713    410.1606 300.1838346 +22.5870057     1479.897      69.9423      1.624     3.29    -2.510859     19.72782     155.1967        22     1.227     1.079 -69.97   0
       177     70.3324    407.6849 300.0972305 +22.5018869     498.1092     70.01349      1.479     3.98    -3.219295     19.72782      59.3895        12     1.206     0.801  89.66   0
       178    320.9239    399.6319 300.1777241 +22.5747897     16930.56     69.92449      1.611     3.16    -2.507747     19.72782     1574.327        55     1.383     1.285  83.61   0
       179    855.3987    396.6381 300.3450842 +22.7342197     736.9157      69.9423      1.495     3.84    -2.835291     19.72782     70.89748        16     1.076     1.007  50.19   0
       180     17.4226    387.6496 300.0873054 +22.4802588     2801.397     69.92449      1.419     2.59     -3.24259     19.72782      335.017        25     1.115     1.037  83.23   0
       181    731.3746    379.1856 300.3121084 +22.6920298     1100.523      69.9423      1.702     3.15    -2.693644     19.72782     95.73377        16     1.037     0.970 -60.62   0
       182    946.3650    371.8122 300.3815055 +22.7543522     221.2162     69.92449      1.168     2.94    -2.671533     19.72782     53.70172         7     0.932     0.599   2.30   0
       183    393.1163    364.0060 300.2117464 +22.5862295     1251.369     69.85321      1.695     3.66     -2.35841     19.72782     101.4394        21     1.169     1.138  18.26   0
       184    832.1959    356.6634 300.3508368 +22.7157853      277.537     69.88885      1.177     4.19    -2.676107     19.72782     38.79102         6     0.757     0.661  54.77   0
       185    468.8802    343.4588 300.2419893 +22.6030606     632.4387      69.9779      1.544     5.51    -2.264787     19.72782     74.49197        11     1.003     0.852 -24.66   0
       186    713.4805    334.8672 300.3209278 +22.6739407     1348.298     70.03127      1.637     3.98     -2.41006     19.72782     104.9465        21     1.335     1.023  33.49   0
       187    974.7312    329.1969 300.4041908 +22.7506100     1789.864     69.90668      1.400     2.82    -2.247468     19.72782     191.9014        20     1.080     1.000  29.37   0
       188     97.1148    313.5577 300.1361164 +22.4829391     874.6173     69.88885      1.696     3.56    -2.962952     19.72782     99.56731        15     1.184     0.857  49.53   0
       189    990.7327    309.5986 300.4155450 +22.7497736     211.6232     69.88885      1.385     4.43      -1.9792     19.72782     27.45413         7     1.000     0.559  58.09   0
       190    181.4238    305.7310 300.1648528 +22.5059967     365.4094     69.92449      1.800     3.40    -2.412925     19.72782     35.50692         5     0.756     0.443 -69.13   0
       191    856.8655    298.6400 300.3773675 +22.7065139      342.497     69.88885      1.619     4.62    -2.490518     19.72782      30.2334         6     1.010     0.600  60.67   0
       192    785.2892    296.2621 300.3558342 +22.6843798     389.8921     70.01348      1.540     5.99    -2.598199     19.72782     34.65991         9     1.168     0.994  43.00   0
       193    883.2849    285.2455 300.3899515 +22.7105832     1283.743     69.90668      1.542     3.22    -2.406515     19.72782     112.5947        19     1.108     1.000 -66.72   0
       194    302.2393    283.0660 300.2097662 +22.5357449     1203.812     69.88885      1.530     3.33    -1.988364     19.72782     123.4716        19     1.101     1.041 -65.92   0
       195    379.8010    278.0514 300.2355144 +22.5575726     576.2275     69.88885      1.829     4.43    -1.973515     19.72782       53.681        13     1.145     0.911  46.56   0
       196    781.5651    277.1238 300.3608876 +22.6777671     275.6569     69.88885      1.437     3.51    -2.555919     19.72782     35.58901         5     0.778     0.456 -72.12   0
       197    196.6992    270.3346 300.1810912 +22.5004278     435.3481     70.01348      1.765     4.98    -2.159294     19.72782     41.13994         9     1.139     0.709  36.41   0
       198    734.5647    266.9704 300.3495411 +22.6607642     1031.552      69.9423      1.644     3.39    -2.217235     19.72782     98.88481        15     1.040     0.948 -67.53   0
       199    798.8994    266.4155 300.3697653 +22.6798866     374.2697     69.83538      1.269     3.04     -2.66005     19.72782     45.07249         5     0.734     0.451 -20.03   0
       200    217.8133    264.2598 300.1896255 +22.5050205     364.4142     69.88885      1.478     4.50    -2.065478     19.72782     35.03389         7     1.060     0.543  23.69   0
       201   1005.8265    259.2779 300.4365906 +22.7398365      391.308     69.92449      1.303     4.22    -1.690342     19.72782     50.93095         8     0.919     0.649  14.25   0
       202    658.9503    257.6866 300.3290037 +22.6354329     698.8019     69.92449      1.676     4.93    -2.057559     19.72782      59.5646        17     1.255     1.067  43.09   0
       203    738.5884    257.8887 300.3537428 +22.6593621     455.6766     69.87103      1.712     5.57    -2.183931     19.72782      41.7985         9     0.960     0.910  16.05   0
       204    854.5835    249.1615 300.3927201 +22.6916172      836.731      69.9423      1.867     3.49    -2.472112     19.72782     76.94955        17     1.142     0.977  51.21   0
       205    585.4075    249.2737 300.3088361 +22.6109700     516.0851     69.87103      1.620     4.75    -1.820358     19.72782     53.35524        12     1.109     0.877  12.70   0
       206    866.5127    248.0931 300.3967851 +22.6948848     396.8895      70.0846      1.278     3.63    -2.423952     19.72782     49.67654         9     1.004     0.703  44.73   0
       207    983.0550    238.1785 300.4363385 +22.7269520      598.583      69.9423      1.303     3.16    -1.810543     19.72782      73.4576        10     1.008     0.660  66.66   0
       208      7.2422    236.0534 300.1333622 +22.4337406     168.7878     69.92449      1.276     3.77    -1.644605     19.72782     30.14359         5     1.150     0.355 -77.37  16
       209    217.2722    232.3135 300.1998269 +22.4956938     294.6833     70.04905      1.487     5.58    -2.019535     19.72782     33.56906         9     1.238     0.708 -36.33   0
       210     79.3091    226.8032 300.1587470 +22.4527166     1215.632     69.83538      1.481     3.34    -2.032314     19.72782     163.1575        20     1.156     1.081  47.56   0
       211    901.9605    222.9866 300.4159848 +22.6982926     398.5713      69.9423      1.367     2.48    -2.143104     19.72782      59.3127         6     0.725     0.658   9.63   0
       212    236.7455    220.0478 300.2098608 +22.4980171     3243.524      69.9601      1.572     2.98    -1.987676     19.72782     321.6541        28     1.194     1.174 -44.05   0
       213     21.2830    214.5570 300.1446991 +22.4317906     674.0594     69.88885      1.327     2.29     -1.76614     19.72782      101.276         9     0.879     0.613  87.22   0
       214    220.3179    210.8079 300.2077534 +22.4904379     381.5705     69.85321      1.626     3.72    -2.000312     19.72782     52.51466         7     1.068     0.633  56.07   0
       215    880.5984    201.2731 300.4163733 +22.6856540     2126.566     69.81754      1.567     3.12    -2.171128     19.72782     200.7203        25     1.195     1.067   9.07   0
       216    984.0043    199.8280 300.4490829 +22.7162157     1586.835     69.88885      1.374     2.74    -1.758524     19.72782     188.2688        21     1.104     0.947 -68.76   0
       217    481.4259    183.7774 300.2977302 +22.5609911     915.6913     69.88885      1.617     3.49    -2.051711     19.72782     93.47042        19     1.193     1.027 -81.44   0
       218    120.8398    185.2811 300.1851240 +22.4532693     270.7148     69.88885      1.195     3.46    -2.004178     19.72782     45.36655         5     0.991     0.349  47.53   0
       219    769.7076    173.2523 300.3909089 +22.6443783     113.4974      69.9779      1.336     3.81    -2.159262     19.72782     29.73587         5     0.934     0.447 -44.22   0
       220    255.7006    163.9173 300.2339685 +22.4875981     3398.248      70.0846      1.575     3.01    -1.984501     19.72782     351.3317        31     1.312     1.152 -84.41   0
       221    107.1217    163.2510 300.1880105 +22.4428340     418.8614     69.92449      1.283     3.14    -1.871303     19.72782     50.09712         6     0.748     0.541  31.19   0
       222    501.6234    149.0294 300.3152911 +22.5570707     3523.245     69.92449      1.673     3.32    -2.137647     19.72782     305.4504        34     1.336     1.251  44.90   0
       223    387.4354    149.0576 300.2797547 +22.5228418     321.2753     69.92449      1.461     5.73    -2.025591     19.72782     37.33386        10     1.448     0.639  86.98   0
       224    754.1490    138.1824 300.3974416 +22.6296418     403.2698     69.92449      1.399     6.09    -1.955025     19.72782     45.81327         9     1.142     0.912  44.43   0
       225    552.8010    131.8373 300.3367979 +22.5674762     318.0687     69.92448      1.421     4.60    -2.162158     19.72782     34.71006         6     0.959     0.626  12.40   0
       226    629.8301    129.0893 300.3616709 +22.5897750     3516.413     69.88885      1.602     3.20    -2.031757     19.72782     353.3129        32     1.278     1.211  77.69   0
       227    404.6591    128.1908 300.2918827 +22.5220165     887.1404     69.88885      1.839     3.87    -2.099691     19.72782     75.68234        18     1.230     1.139 -76.21   0
       228    671.0898    126.2901 300.3754278 +22.6013362     582.2905      70.0846      1.804     5.22    -2.010069     19.72782     47.23467         9     1.028     0.750 -70.67   0
       229    940.8314    123.1143 300.4605149 +22.6812375     2549.512     69.92449      0.574     1.18    -1.821007     19.72782     1446.933         7     0.561     0.344  -0.34   0
       230    687.5225    122.4348 300.3817966 +22.6051533      315.791     69.88885      1.431     3.77    -1.961011     19.72782     29.56088         6     0.987     0.412 -71.69   0
       231    153.1648    120.8919 300.2160594 +22.4444955     413.6108     69.88885      1.496     4.41    -1.800256     19.72782     43.96516        10     1.084     0.664   7.50   0
       232    956.7286    119.8520 300.4665303 +22.6850612     230.4114     69.92449      1.370     3.63    -1.676935     19.72782     42.97174         5     0.983     0.613 -22.26   0
       233    674.0787    114.0404 300.3803330 +22.5987134     1610.973     69.90668      1.510     3.25    -1.994564     19.72782     160.0131        23     1.186     1.064 -15.83   0
       234    315.5876    115.1214 300.2684201 +22.4915558     224.7785     69.90668      1.468     4.29    -2.044271     19.72782     34.09344         5     0.930     0.565  45.59   0
       235    689.7200    112.3998 300.3857368 +22.6029293     607.9493     69.79971      2.248     5.14    -1.936987     19.72782       36.914         8     1.162     0.642  -6.58   0
       236    760.4178    105.6956 300.4099349 +22.6221870     905.2346     69.83538      1.663     4.03    -1.845488     19.72782     75.53788        19     1.240     1.058 -19.67   0
       237    698.3801     98.8816 300.3928197 +22.6016411     365.8178     69.90668      1.380     3.53    -1.880221     19.72782     52.01605         9     1.015     0.670   6.15   0
       238    504.3725     98.1242 300.3326623 +22.5432786     599.2202     69.90668      1.579     5.77    -2.181399     19.72782     51.55429        12     1.108     0.882  67.00   0
       239     77.3441     98.0647 300.1999082 +22.4152004     449.9867      69.9779      1.703     4.20    -1.866754     19.72782     39.49564         7     0.793     0.635  71.23   0
       240    408.2357     96.0976 300.3034069 +22.5138758     544.2195     69.92449      1.921     5.83    -2.169209     19.72782     47.62253        10     1.438     0.776  88.22   0
       241    789.7640     94.7556 300.4226277 +22.6278359     280.1719      69.9779      1.627     4.82    -1.939924     19.72782     28.64996         5     1.290     0.510  25.51   0
       242    179.4998     86.4579 300.2354133 +22.4425150     2094.131     70.01349      1.567     3.02     -1.64669     19.72782     215.1506        22     1.129     1.096  68.61   0
       243    746.9378     86.9964 300.4118015 +22.6127759     274.0506     69.92448      1.413     3.67    -1.756625     19.72782     28.34045         5     0.622     0.622 -39.83   0
       244    505.5429     83.8225 300.3376659 +22.5395227     249.4955     69.92449      1.458     4.68    -2.110943     19.72782      29.2476         6     0.962     0.646  -8.42   0
       245    740.6945     78.7244 300.4125399 +22.6085288     549.8798     70.06683      1.455     4.84    -1.729879     19.72782     48.53844        12     1.142     0.755  10.69   0
       246    295.4038     78.2011 300.2741207 +22.4749063     650.8377     69.71043      1.647     4.25    -2.128454     19.72782     65.88545        15     1.298     0.874  37.09   0
       247    778.6651     73.5695 300.4260422 +22.6184234     416.4252      69.9423      1.567     3.85    -1.930126     19.72782     42.91962         7     0.996     0.586  23.82   0
       248    702.0339     72.9344 300.4023750 +22.5952819     338.4252     69.92448      1.622     4.89    -1.716209     19.72782     34.81643         7     1.015     0.668  59.67   0
       249    798.2637     69.7056 300.4334024 +22.6231844     1286.425     70.01348      1.532     3.55    -2.040324     19.72782     121.3022        20     1.217     1.010  61.97   0
       250    181.9556     65.5937 300.2429440 +22.4372646     399.7239      69.9423      1.328     3.98    -1.521685     19.72782     52.89256         7     0.971     0.606  22.30   0
       251    973.3345     62.9065 300.4901826 +22.6736660     454.5845     70.04905      1.288     2.69    -1.427936     19.72782     64.82185         9     1.017     0.547 -25.10   0
       252    747.1400     62.4448 300.4198287 +22.6057825     304.2903      69.9423      1.327     3.18    -1.767389     19.72782     52.82138         8     0.881     0.630 -44.87   0
       253    599.0485     47.1476 300.3786683 +22.5570147     454.3065      69.9601      1.596     5.77    -1.397818     19.72782     48.99928        11     1.100     0.993  23.33   0
       254    208.7075     44.5529 300.2580826 +22.4392497      276.403      69.9423      1.461     5.29    -1.404516     19.72782     31.85942         6     1.100     0.719  42.40   0
       255    762.7143     42.2105 300.4312440 +22.6046343     330.4568     69.87103      1.257     3.41    -1.881995     19.72782     53.99159         8     0.785     0.698  57.96   0
       256    571.0823     40.4489 300.3721343 +22.5467098     954.7226     69.92449      1.513     3.38    -1.346741     19.72782      106.916        18     1.107     1.059   8.72   0
       257    293.9085     37.7253 300.2867836 +22.4628399     500.2004     70.06683      1.715     5.06    -2.276607     19.72782     41.99789        10     1.046     0.847  11.23   0
       258      8.8501     36.9144 300.1984679 +22.3771089     418.8768     69.90668      1.431     2.44    -2.785569     19.72782     56.60493         7     0.758     0.679  36.19   0
       259    528.5313     34.1803 300.3609222 +22.5321569     650.9413     69.90668      1.511     3.01    -1.520323     19.72782     89.40502        14     1.003     0.915 -54.88   0
       260    633.9793     31.0113 300.3947781 +22.5628469     720.7762     69.90668      1.633     4.41    -1.207637     19.72782      67.3743        12     1.163     0.779 -66.64   0
       261    454.3889     24.8026 300.3408904 +22.5072414     1384.931     69.74615      1.689     3.55    -2.225065     19.72782     113.5007        22     1.227     1.093 -88.44   0
       262    101.3626     22.6810 300.2318188 +22.4007775     816.3812     69.88885      1.417     3.11    -1.390751     19.72782       93.367        14     1.003     0.909 -10.57   0
       263    928.1726     13.2223 300.4922150 +22.6458597     136.9931     69.92449      1.117     3.31    -1.990512     19.72782     40.79332         5     0.887     0.416  46.41   0
